# starting wavelength =        3435.1876
# ending wavelength =        8924.6185
# O2 telluric scale =       0.14368775
# O2 telluric shift =        10.505151
# H2O telluric scale =        0
# H2O telluric shift =        0
      3436.45      0.49603029     0.052235115
      3439.89      0.48433307     0.051802302
      3443.33      0.46361693     0.050894314
      3446.78      0.45328078     0.049955244
      3450.22      0.43366284     0.049076322
      3453.67      0.41963138     0.048251142
      3457.13      0.43742652     0.047781094
      3460.58      0.46052375     0.046894271
      3464.04      0.46583067     0.044968503
      3467.51      0.47085185     0.044199600
      3470.98      0.48969307     0.043956299
      3474.45      0.52440025     0.043147366
      3477.92      0.53803359     0.042455391
      3481.40      0.55491015     0.041752273
      3484.88      0.55562511     0.041580763
      3488.37      0.57130086     0.040946546
      3491.86      0.55926993     0.039310255
      3495.35      0.55150791     0.038715077
      3498.84      0.54897872     0.038454606
      3502.34      0.54828805     0.037819158
      3505.84      0.53395352     0.037238556
      3509.35      0.53369949     0.036606497
      3512.86      0.52507713     0.036307763
      3516.37      0.49882784     0.034795710
      3519.89      0.49653211     0.034208856
      3523.41      0.50501291     0.033628912
      3526.93      0.50011055     0.033554046
      3530.46      0.49470635     0.033084183
      3533.99      0.50924068     0.032578047
      3537.53      0.51645002     0.032143817
      3541.06      0.53580154     0.031395115
      3544.60      0.53746216     0.030986322
      3548.15      0.53590708     0.030608069
      3551.70      0.54536156     0.030672480
      3555.25      0.55925486     0.030283111
      3558.80      0.57190986     0.029891828
      3562.36      0.57076386     0.028810924
      3565.92      0.56054547     0.028933992
      3569.49      0.55690257     0.028582899
      3573.06      0.56458906     0.028221338
      3576.64      0.56302669     0.027940692
      3580.21      0.55576682     0.028081408
      3583.79      0.54981533     0.027780913
      3587.38      0.54220582     0.026840113
      3590.96      0.55742177     0.026569652
      3594.55      0.61563695     0.026729530
      3598.15      0.62279170     0.026454541
      3601.75      0.57525873     0.025538159
      3605.35      0.56881181     0.025311140
      3608.96      0.55863294     0.025598625
      3612.56      0.56518656     0.025395019
      3616.18      0.55066337     0.024721918
      3619.79      0.55382639     0.024566838
      3623.41      0.57035371     0.024383016
      3627.04      0.57641543     0.024579235
      3630.66      0.59023151     0.023750301
      3634.29      0.60375068     0.023503548
      3637.93      0.61297661     0.023263499
      3641.57      0.64098861     0.023280985
      3645.21      0.67031472     0.022469666
      3648.86      0.69224577     0.022224214
      3652.50      0.72278722     0.021999102
      3656.16      0.75429667     0.021810479
      3659.81      0.80070953     0.021466690
      3663.47      0.82460182     0.021325723
      3667.14      0.81028292     0.021119044
      3670.80      0.79933338     0.020917060
      3674.48      0.81581701     0.020572695
      3678.15      0.81660027     0.020417402
      3681.83      0.81826243     0.020266529
      3685.51      0.81894834     0.019635566
      3689.20      0.82199979     0.019828364
      3692.88      0.83538513     0.019665535
      3696.58      0.84759064     0.019552867
      3700.27      0.86436915     0.019077921
      3703.98      0.88363757     0.019348329
      3707.68      0.89783152     0.019293697
      3711.39      0.91104391     0.019248113
      3715.10      0.92496058     0.018713393
      3718.81      0.93688361     0.018941929
      3722.53      0.94459363     0.018786263
      3726.26      0.93561924     0.018134439
      3729.98      0.93443656     0.017917672
      3733.71      0.92351089     0.018013608
      3737.45      0.92449604     0.017781097
      3741.18      0.91644867     0.017107381
      3744.93      0.91035264     0.016905524
      3748.67      0.89290517     0.017036703
      3752.42      0.89321731     0.016524267
      3756.17      0.89426677     0.016397774
      3759.93      0.90095730     0.016552365
      3763.69      0.91171930     0.016429033
      3767.45      0.92635670     0.015966399
      3771.22      0.94187639     0.015862705
      3774.99      0.96289863     0.016057496
      3778.77      0.96641148     0.015668026
      3782.54      0.97239646     0.015574304
      3786.33      0.98251334     0.015484181
      3790.11      0.98560778     0.015363007
      3793.90      0.99118065     0.015245633
      3797.70      0.99415974     0.015139993
      3801.50      0.99449120     0.015007411
      3805.30      0.99483548     0.014891256
      3809.10       1.0005198     0.014775414
      3812.91       1.0043506     0.014679771
      3816.73       1.0136672     0.014557088
      3820.54       1.0229607     0.014473643
      3824.36       1.0335146     0.014406035
      3828.19       1.0469175     0.014361289
      3832.02       1.0588152     0.014305723
      3835.85       1.0774437     0.014244390
      3839.68       1.0966262     0.013935638
      3843.52       1.1172782     0.014147893
      3847.37       1.1337053     0.014100288
      3851.22       1.1481081     0.013812827
      3855.07       1.1663824     0.014033059
      3858.92       1.1799564     0.013990340
      3862.78       1.1949212     0.013688524
      3866.64       1.2155007     0.013907863
      3870.51       1.2289936     0.013862118
      3874.38       1.2402049     0.013563124
      3878.26       1.2515388     0.013788891
      3882.13       1.2655801     0.013717838
      3886.02       1.2782098     0.013395280
      3889.90       1.2857372     0.013357017
      3893.79       1.2895101     0.013530598
      3897.69       1.3001660     0.013203721
      3901.59       1.3037134     0.013159113
      3905.49       1.2993748     0.013336098
      3909.39       1.3062396     0.013003618
      3913.30       1.3097125     0.012949279
      3917.22       1.3141034     0.013101299
      3921.13       1.3170452     0.012793749
      3925.06       1.3213660     0.012744626
      3928.98       1.3278263     0.012892309
      3932.91       1.3331453     0.012584784
      3936.84       1.3338711     0.012540998
      3940.78       1.3375713     0.012470298
      3944.72       1.3313293     0.012413962
      3948.67       1.3267167     0.012371620
      3952.61       1.3170988     0.012308160
      3956.57       1.3103428     0.012272557
      3960.52       1.3110686     0.012238630
      3964.48       1.3111034     0.012170023
      3968.45       1.3116733     0.012126422
      3972.42       1.3173160     0.012077706
      3976.39       1.3153276     0.011977252
      3980.37       1.3098634     0.011926332
      3984.35       1.3109575     0.011595704
      3988.33       1.3099592     0.011716466
      3992.32       1.3096464     0.011642879
      3996.31       1.3162161     0.011299062
      4000.31       1.3209352     0.011411459
      4004.31       1.3197889     0.011348914
      4008.31       1.3209251     0.011039664
      4012.32       1.3184603     0.011183457
      4016.33       1.3191535     0.010931902
      4020.35       1.3109646     0.011040021
      4024.37       1.3061923     0.011003000
      4028.40       1.3053220     0.010738851
      4032.42       1.3059092     0.010884747
      4036.46       1.3159516     0.010608610
      4040.50       1.3136842     0.010548122
      4044.54       1.3105645     0.010682524
      4048.58       1.3119548     0.010398005
      4052.63       1.3093518     0.010333928
      4056.68       1.2988828     0.010269498
      4060.74       1.2912129     0.010205667
      4064.80       1.2815128     0.010334796
      4068.86       1.2776543     0.010074750
      4072.93       1.2750259     0.010009059
      4077.01       1.2637643    0.0099462136
      4081.08       1.2562116    0.0098831489
      4085.17       1.2518818    0.0098225417
      4089.25       1.2428765    0.0097428394
      4093.34       1.2344204    0.0096797758
      4097.43       1.2258131    0.0096129211
      4101.53       1.2184836    0.0095493024
      4105.63       1.2138599    0.0094929370
      4109.74       1.2081527    0.0094207459
      4113.85       1.2033056    0.0093617277
      4117.96       1.1949405    0.0093064062
      4122.08       1.1913067    0.0092482137
      4126.20       1.1916809    0.0091964569
      4130.33       1.1878993    0.0091312587
      4134.46       1.1830036    0.0090814094
      4138.59       1.1746969    0.0090378126
      4142.73       1.1733031    0.0089836327
      4146.88       1.1748177    0.0087756506
      4151.02       1.1757865    0.0088765414
      4155.18       1.1724119    0.0088341014
      4159.33       1.1723023    0.0087885139
      4163.49       1.1669447    0.0087461081
      4167.65       1.1610734    0.0085565494
      4171.82       1.1581010    0.0086611268
      4175.99       1.1616974    0.0084665740
      4180.17       1.1617305    0.0085734479
      4184.35       1.1636524    0.0083896213
      4188.54       1.1693519    0.0083627389
      4192.72       1.1727784    0.0084786183
      4196.92       1.1761741    0.0083172033
      4201.11       1.1802078    0.0084437872
      4205.31       1.1839499    0.0082728366
      4209.52       1.1792489    0.0082648804
      4213.73       1.1760664    0.0082267134
      4217.94       1.1752045    0.0082022347
      4222.16       1.1730737    0.0081547166
      4226.38       1.1718243    0.0081198856
      4230.61       1.1669492    0.0082111175
      4234.84       1.1566070    0.0080360307
      4239.08       1.1551283    0.0080272863
      4243.32       1.1420471    0.0079621617
      4247.56       1.1392386    0.0079398109
      4251.81       1.1388916    0.0079137899
      4256.06       1.1425236    0.0079054098
      4260.32       1.1441274    0.0078917661
      4264.58       1.1444643    0.0078884781
      4268.84       1.1522665    0.0078742602
      4273.11       1.1536135    0.0078655980
      4277.38       1.1536367    0.0077150359
      4281.66       1.1576095    0.0078271773
      4285.94       1.1581990    0.0076614259
      4290.23       1.1543051    0.0077715732
      4294.52       1.1549493    0.0076022305
      4298.81       1.1561651    0.0076958609
      4303.11       1.1561019    0.0076713829
      4307.42       1.1592244    0.0076194168
      4311.72       1.1581672    0.0076103275
      4316.04       1.1565563    0.0074720473
      4320.35       1.1627763    0.0076078483
      4324.67       1.1640882    0.0074578761
      4329.00       1.1722456    0.0075764736
      4333.33       1.1799526    0.0074361930
      4337.66       1.1882892    0.0075614535
      4342.00       1.1974818    0.0074229579
      4346.34       1.2067794    0.0075484830
      4350.69       1.2185320    0.0074117001
      4355.04       1.2277902    0.0075388538
      4359.39       1.2386095    0.0074029558
      4363.75       1.2512456    0.0075245946
      4368.12       1.2582778    0.0073930541
      4372.48       1.2650867    0.0075210728
      4376.86       1.2711435    0.0073880873
      4381.23       1.2788676    0.0075115930
      4385.61       1.2866502    0.0073697930
      4390.00       1.2936068    0.0073565215
      4394.39       1.2968990    0.0073558776
      4398.79       1.3036339    0.0073470472
      4403.18       1.3143645    0.0073489502
      4407.59       1.3227784    0.0072360807
      4412.00       1.3347661    0.0073512494
      4416.41       1.3461663    0.0072379797
      4420.82       1.3597656    0.0073624241
      4425.25       1.3743923    0.0072508591
      4429.67       1.3891118    0.0073782366
      4434.10       1.4049190    0.0072712390
      4438.54       1.4170277    0.0074055458
      4442.97       1.4326809    0.0072954391
      4447.42       1.4479078    0.0074221969
      4451.86       1.4610010    0.0073154566
      4456.32       1.4758875    0.0074416561
      4460.77       1.4924985    0.0073309703
      4465.24       1.5060438    0.0074555415
      4469.70       1.5173094    0.0073482108
      4474.17       1.5303601    0.0074710352
      4478.65       1.5440130    0.0073620488
      4483.12       1.5607718    0.0073669154
      4487.61       1.5728010    0.0073723353
      4492.09       1.5848547    0.0073811747
      4496.59       1.5954520    0.0073852777
      4501.08       1.6057607    0.0073822772
      4505.58       1.6162508    0.0075003066
      4510.09       1.6238998    0.0073709281
      4514.60       1.6280420    0.0074842947
      4519.12       1.6302692    0.0073512154
      4523.63       1.6277329    0.0073381151
      4528.16       1.6263665    0.0073239995
      4532.69       1.6246280    0.0072979818
      4537.22       1.6235047    0.0072810354
      4541.76       1.6213337    0.0072464072
      4546.30       1.6130599    0.0072328387
      4550.85       1.6032135    0.0071971886
      4555.40       1.5958297    0.0071814637
      4559.95       1.5876255    0.0071404969
      4564.51       1.5754460    0.0069960683
      4569.08       1.5661290    0.0070806630
      4573.65       1.5555934    0.0070420630
      4578.22       1.5471636    0.0070191982
      4582.80       1.5377804    0.0069812238
      4587.38       1.5303231    0.0068433476
      4591.97       1.5263391    0.0069199193
      4596.56       1.5219158    0.0067819808
      4601.16       1.5126406    0.0068686272
      4605.76       1.5070007    0.0067310714
      4610.37       1.4981139    0.0068193909
      4614.98       1.4875583    0.0067866157
      4619.59       1.4776080    0.0066461505
      4624.21       1.4680144    0.0067191246
      4628.84       1.4524999    0.0065739213
      4633.47       1.4369653    0.0066474517
      4638.10       1.4223700    0.0064963117
      4642.74       1.4075437    0.0064499187
      4647.38       1.3933364    0.0064154313
      4652.03       1.3768287    0.0063745980
      4656.68       1.3627517    0.0064422335
      4661.34       1.3532214    0.0063044982
      4666.00       1.3340206    0.0062838861
      4670.67       1.3195031    0.0062880452
      4675.33       1.3072887    0.0062870752
      4680.01       1.2980134    0.0062258767
      4684.69       1.2986507    0.0061672163
      4689.38       1.2945397    0.0062024711
      4694.07       1.2895454    0.0062178646
      4698.76       1.2813812    0.0062890911
      4703.46       1.2748271    0.0062352102
      4708.16       1.2662295    0.0063624077
      4712.87       1.2551144    0.0063832661
      4717.58       1.2451327    0.0063686596
      4722.30       1.2331972    0.0063380779
      4727.03       1.2243948    0.0061884903
      4731.75       1.2201357    0.0062117895
      4736.48       1.2146981    0.0061128216
      4741.22       1.2146625    0.0059484744
      4745.96       1.2111738    0.0059503021
      4750.71       1.2087201    0.0058191771
      4755.46       1.2002391    0.0058798187
      4760.22       1.2001316    0.0059501571
      4764.97       1.2025205    0.0058363397
      4769.74       1.2082065    0.0058564356
      4774.51       1.2156150    0.0057457481
      4779.29       1.2200175    0.0057363066
      4784.07       1.2265453    0.0058158917
      4788.85       1.2324865    0.0057265184
      4793.64       1.2407204    0.0057352663
      4798.43       1.2416162    0.0058089187
      4803.23       1.2475879    0.0057183980
      4808.03       1.2510920    0.0057209701
      4812.84       1.2547392    0.0057235141
      4817.66       1.2573745    0.0057261065
      4822.48       1.2603428    0.0057210312
      4827.30       1.2610789    0.0057150721
      4832.12       1.2633098    0.0057037696
      4836.96       1.2584032    0.0057063350
      4841.79       1.2561601    0.0057055975
      4846.63       1.2550051    0.0057099567
      4851.48       1.2570645    0.0056240725
      4856.33       1.2562660    0.0057146970
      4861.19       1.2608553    0.0057190324
      4866.05       1.2659156    0.0056351299
      4870.92       1.2682994    0.0057266955
      4875.79       1.2759167    0.0057258989
      4880.66       1.2842479    0.0056336287
      4885.55       1.2919411    0.0057152503
      4890.43       1.2997381    0.0057078817
      4895.32       1.3051735    0.0056139660
      4900.22       1.3111138    0.0056959327
      4905.12       1.3183918    0.0056923416
      4910.02       1.3176837    0.0056078565
      4914.94       1.3188802    0.0056904214
      4919.85       1.3207263    0.0056763994
      4924.77       1.3209377    0.0055807751
      4929.70       1.3201998    0.0055823199
      4934.62       1.3193693    0.0056634946
      4939.56       1.3201497    0.0055798098
      4944.50       1.3206200    0.0055832541
      4949.44       1.3202009    0.0056650244
      4954.39       1.3201078    0.0055787225
      4959.35       1.3199271    0.0055859200
      4964.31       1.3209382    0.0056689638
      4969.27       1.3225414    0.0055683993
      4974.24       1.3286466    0.0055620486
      4979.22       1.3317377    0.0055765401
      4984.20       1.3337906    0.0055744289
      4989.18       1.3365167    0.0055951905
      4994.17       1.3404830    0.0056188555
      4999.16       1.3436609    0.0056175944
      5004.16       1.3431438    0.0056364283
      5009.17       1.3461483    0.0056412414
      5014.18       1.3469090    0.0055468468
      5019.19       1.3456117    0.0056108877
      5024.21       1.3474215    0.0055817790
      5029.23       1.3448447    0.0055562823
      5034.26       1.3427950    0.0054552962
      5039.30       1.3413888    0.0055060930
      5044.34       1.3388076    0.0054951962
      5049.39       1.3394593    0.0054142187
      5054.43       1.3427907    0.0054220430
      5059.49       1.3471242    0.0055019278
      5064.55       1.3514868    0.0054246639
      5069.61       1.3598491    0.0054240340
      5074.68       1.3673814    0.0054336802
      5079.76       1.3767066    0.0055216041
      5084.84       1.3866850    0.0054542822
      5089.92       1.3969045    0.0054711443
      5095.01       1.4114219    0.0054893544
      5100.11       1.4226681    0.0055000874
      5105.21       1.4367280    0.0055178084
      5110.31       1.4511845    0.0055386349
      5115.42       1.4658761    0.0055612424
      5120.54       1.4814244    0.0055701569
      5125.66       1.4957255    0.0055891534
      5130.79       1.5102664    0.0056111004
      5135.92       1.5243846    0.0056364428
      5141.05       1.5400436    0.0056468335
      5146.20       1.5563622    0.0056673577
      5151.34       1.5720666    0.0056896008
      5156.49       1.5838880    0.0057161558
      5161.65       1.5980662    0.0056529318
      5166.81       1.6149537    0.0057479419
      5171.98       1.6328830    0.0057682442
      5177.15       1.6503217    0.0057931451
      5182.33       1.6643170    0.0057325331
      5187.51       1.6791820    0.0058352855
      5192.70       1.6968190    0.0058575680
      5197.89       1.7106994    0.0058840423
      5203.09       1.7269210    0.0058142443
      5208.29       1.7422417    0.0058360025
      5213.50       1.7566395    0.0059306391
      5218.72       1.7666928    0.0059469069
      5223.93       1.7800846    0.0058649364
      5229.16       1.7933577    0.0058750770
      5234.39       1.8005173    0.0058869172
      5239.62       1.8079881    0.0059714217
      5244.86       1.8127938    0.0058840808
      5250.11       1.8160369    0.0058885037
      5255.36       1.8184886    0.0058962633
      5260.61       1.8211155    0.0059059520
      5265.87       1.8250902    0.0058910825
      5271.14       1.8288029    0.0058880807
      5276.41       1.8301452    0.0058877897
      5281.69       1.8289171    0.0058900416
      5286.97       1.8261941    0.0058939988
      5292.26       1.8264560    0.0058060684
      5297.55       1.8273943    0.0058792027
      5302.85       1.8271594    0.0058766102
      5308.15       1.8277631    0.0058736484
      5313.46       1.8281156    0.0058715373
      5318.77       1.8255054    0.0057859927
      5324.09       1.8266261    0.0057790297
      5329.42       1.8268811    0.0058498676
      5334.75       1.8240404    0.0058485547
      5340.08       1.8242670    0.0058467028
      5345.42       1.8271913    0.0057622769
      5350.77       1.8299411    0.0057586265
      5356.12       1.8294229    0.0057592330
      5361.48       1.8289696    0.0058368191
      5366.83       1.8333582    0.0058362772
      5372.20       1.8372746    0.0057572508
      5377.58       1.8419035    0.0057550742
      5382.95       1.8472257    0.0057552478
      5388.34       1.8502937    0.0057593340
      5393.72       1.8573986    0.0057602635
      5399.12       1.8624918    0.0058371600
      5404.52       1.8652557    0.0057578877
      5409.92       1.8686608    0.0057533626
      5415.33       1.8687402    0.0057480547
      5420.75       1.8675644    0.0057382217
      5426.17       1.8619740    0.0057252421
      5431.60       1.8498090    0.0056324139
      5437.03       1.8378944    0.0056960050
      5442.47       1.8200405    0.0056681092
      5447.91       1.8013481    0.0056320881
      5453.36       1.7766427    0.0055955818
      5458.81       1.7492139    0.0055598257
      5464.27       1.7243418    0.0055206729
      5469.73       1.6996722    0.0054242409
      5475.20       1.6706401    0.0053995539
      5480.68       1.6444856    0.0053610218
      5486.16       1.6182406    0.0054002870
      5491.65       1.5921205    0.0053609282
      5497.14       1.5682888    0.0053455207
      5502.64       1.5427186    0.0053457295
      5508.14       1.5188096    0.0052764391
      5513.65       1.4928043    0.0052736804
      5519.16       1.4678120    0.0052600843
      5524.68       1.4433015    0.0052324550
      5530.20       1.4151526    0.0051952416
      5535.73       1.3926752    0.0052289412
      5541.27       1.3717003    0.0051664962
      5546.81       1.3488794    0.0050420758
      5552.36       1.3295322    0.0049720230
      5557.91       1.3101196    0.0049039540
      5563.47       1.2906399    0.0048443151
      5569.04       1.2738067    0.0047942976
      5574.60       1.2530619    0.0047680477
      5580.18       1.2331725    0.0047498943
      5585.76       1.2169039    0.0047170626
      5591.35       1.2012351    0.0046250954
      5596.94       1.1854717    0.0045887425
      5602.53       1.1670115    0.0045636649
      5608.14       1.1515167    0.0046005339
      5613.75       1.1382946    0.0045759900
      5619.36       1.1253344    0.0045575508
      5624.98       1.1132729    0.0045434313
      5630.60       1.1022568    0.0045321384
      5636.23       1.0959969    0.0045201406
      5641.87       1.0918918    0.0045108232
      5647.51       1.0879437    0.0044469804
      5653.16       1.0839707    0.0044420583
      5658.82       1.0813966    0.0044390619
      5664.47       1.0809411    0.0044348967
      5670.14       1.0811618    0.0044315862
      5675.81       1.0808619    0.0044298129
      5681.48       1.0781439    0.0044320582
      5687.17       1.0753023    0.0044346198
      5692.85       1.0756461    0.0044353618
      5698.55       1.0769168    0.0044368743
      5704.25       1.0771878    0.0044423230
      5709.95       1.0810162    0.0044502831
      5715.66       1.0899999    0.0044579141
      5721.38       1.0977896    0.0044639189
      5727.10       1.1078618    0.0044775778
      5732.83       1.1163050    0.0044990108
      5738.56       1.1285495    0.0045208025
      5744.30       1.1427849    0.0045429601
      5750.04       1.1560343    0.0045686167
      5755.79       1.1727821    0.0045919262
      5761.55       1.1870352    0.0046172513
      5767.31       1.2011826    0.0046442689
      5773.08       1.2191037    0.0046647989
      5778.85       1.2357343    0.0046858219
      5784.63       1.2498115    0.0047139908
      5790.41       1.2627709    0.0047423965
      5796.21       1.2764873    0.0047705691
      5802.00       1.2927383    0.0048050913
      5807.81       1.3052643    0.0048500583
      5813.61       1.3172674    0.0048984998
      5819.43       1.3315079    0.0049436673
      5825.25       1.3429159    0.0049845378
      5831.07       1.3519322    0.0050166852
      5836.90       1.3626732    0.0049619649
      5842.74       1.3750500    0.0049741048
      5848.58       1.3852840    0.0049775377
      5854.43       1.3923133    0.0049726837
      5860.29       1.3965794    0.0049616133
      5866.15       1.4029282    0.0049442551
      5872.01       1.4046943    0.0049341010
      5877.89       1.4061254    0.0049149204
      5883.76       1.4063178    0.0049014398
      5889.65       1.4031551    0.0048293509
      5895.54       1.3968102    0.0048252649
      5901.43       1.3890494    0.0048110960
      5907.34       1.3792929    0.0047896543
      5913.24       1.3673950    0.0047680310
      5919.16       1.3508805    0.0047494957
      5925.08       1.3362076    0.0047272319
      5931.00       1.3185046    0.0047052796
      5936.93       1.3020691    0.0046811188
      5942.87       1.2877969    0.0046551936
      5948.81       1.2753347    0.0046280211
      5954.76       1.2642079    0.0046022501
      5960.72       1.2518722    0.0045790744
      5966.68       1.2402943    0.0045573044
      5972.64       1.2303902    0.0045381762
      5978.62       1.2237361    0.0045206734
      5984.60       1.2152642    0.0045090309
      5990.58       1.2077879    0.0044910482
      5996.57       1.1988827    0.0044781058
      6002.57       1.1925187    0.0044641910
      6008.57       1.1871051    0.0043921948
      6014.58       1.1838532    0.0044318490
      6020.60       1.1771180    0.0044218941
      6026.62       1.1720505    0.0044113790
      6032.65       1.1670085    0.0044007195
      6038.68       1.1619151    0.0043905470
      6044.72       1.1569867    0.0043804177
      6050.76       1.1521369    0.0043720479
      6056.81       1.1493059    0.0043680849
      6062.87       1.1441122    0.0043570272
      6068.93       1.1400840    0.0043471659
      6075.00       1.1358635    0.0043403939
      6081.08       1.1308477    0.0042837466
      6087.16       1.1262438    0.0042781205
      6093.25       1.1218481    0.0042721937
      6099.34       1.1175238    0.0042678603
      6105.44       1.1164717    0.0042613956
      6111.54       1.1141954    0.0042596158
      6117.66       1.1132387    0.0042538471
      6123.78       1.1108234    0.0042497043
      6129.90       1.1086130    0.0042958377
      6136.03       1.1042929    0.0042928429
      6142.17       1.1029573    0.0042413286
      6148.31       1.1028622    0.0042384369
      6154.46       1.1017861    0.0042366967
      6160.61       1.1029778    0.0042356962
      6166.77       1.1029099    0.0042407778
      6172.94       1.1046965    0.0042478810
      6179.11       1.1017828    0.0042488578
      6185.29       1.1005031    0.0042532237
      6191.48       1.0985060    0.0042050916
      6197.67       1.0989030    0.0042009365
      6203.87       1.1011162    0.0042535043
      6210.07       1.1051589    0.0042592343
      6216.28       1.1099015    0.0042673818
      6222.50       1.1142032    0.0042768068
      6228.72       1.1171590    0.0042897366
      6234.95       1.1213049    0.0042557033
      6241.19       1.1271740    0.0042687082
      6247.42       1.1362308    0.0042770864
      6253.67       1.1448195    0.0042838460
      6259.93       1.1552562    0.0042896773
      6266.19       1.1693281    0.0043439169
      6272.46       1.1833648    0.0042996311
      6278.73       1.1973467    0.0043025375
      6285.01       1.2094383    0.0043091150
      6291.29       1.2189920    0.0043211878
      6297.58       1.2284839    0.0043369754
      6303.88       1.2401105    0.0043537287
      6310.19       1.2509006    0.0043123559
      6316.50       1.2617265    0.0043641175
      6322.81       1.2719792    0.0043626377
      6329.14       1.2786375    0.0043640312
      6335.47       1.2833594    0.0043644127
      6341.80       1.2856896    0.0043658432
      6348.14       1.2897514    0.0043133882
      6354.49       1.2930931    0.0043111782
      6360.85       1.2954849    0.0043620744
      6367.21       1.2969117    0.0043605110
      6373.57       1.2938591    0.0043616229
      6379.95       1.2919522    0.0043104458
      6386.33       1.2898033    0.0043058399
      6392.72       1.2873945    0.0042996218
      6399.11       1.2842541    0.0042937131
      6405.51       1.2771286    0.0043412950
      6411.92       1.2727918    0.0042885900
      6418.32       1.2701026    0.0042807849
      6424.74       1.2658774    0.0042730463
      6431.17       1.2583431    0.0042664455
      6437.60       1.2512220    0.0042576993
      6444.04       1.2485339    0.0042415631
      6450.48       1.2379836    0.0042304871
      6456.94       1.2279316    0.0042176121
      6463.39       1.2195331    0.0042032954
      6469.85       1.2083002    0.0041399323
      6476.33       1.1994605    0.0041682051
      6482.80       1.1888281    0.0041495615
      6489.28       1.1771860    0.0041313067
      6495.77       1.1636716    0.0040779246
      6502.27       1.1520344    0.0040625116
      6508.77       1.1397229    0.0040795923
      6515.28       1.1276961    0.0040592356
      6521.80       1.1142249    0.0040503432
      6528.32       1.0989937    0.0040044994
      6534.85       1.0852524    0.0040014319
      6541.38       1.0716491    0.0040429166
      6547.92       1.0545869    0.0040366598
      6554.47       1.0363487    0.0039778638
      6561.03       1.0208555    0.0039601864
      6567.59       1.0081994    0.0039337595
      6574.16      0.99198048    0.0038904660
      6580.73      0.98037001    0.0038588806
      6587.31      0.96880274    0.0038145519
      6593.90      0.95606790    0.0037749691
      6600.50      0.94914802    0.0037226443
      6607.10      0.94036201    0.0036955848
      6613.70      0.93234050    0.0036769042
      6620.32      0.92426357    0.0036674381
      6626.94      0.91525299    0.0036104919
      6633.57      0.90721996    0.0036221681
      6640.20      0.89677939    0.0036043736
      6646.84      0.88695849    0.0035425521
      6653.49      0.87556716    0.0035225361
      6660.14      0.86322892    0.0035354044
      6666.80      0.85074606    0.0035124147
      6673.47      0.83798641    0.0034475257
      6680.14      0.82681091    0.0034249370
      6686.82      0.81407276    0.0034424155
      6693.51      0.80273606    0.0033898063
      6700.20      0.79253208    0.0033796063
      6706.90      0.78100379    0.0034136488
      6713.61      0.77058745    0.0033556375
      6720.32      0.76093545    0.0033391282
      6727.05      0.75336619    0.0033238464
      6733.77      0.74508331    0.0033145502
      6740.51      0.73384436    0.0033054756
      6747.25      0.72300617    0.0032924006
      6754.00      0.71690552    0.0032423660
      6760.75      0.70989158    0.0032715963
      6767.51      0.70238519    0.0032654404
      6774.28      0.70001507    0.0032184185
      6781.05      0.69572262    0.0032431246
      6787.84      0.69319374    0.0032275723
      6794.62      0.69051350    0.0031750415
      6801.42      0.69019656    0.0031570801
      6808.22      0.69234271    0.0031591350
      6815.03      0.69367251    0.0031122062
      6821.85      0.69787519    0.0031048636
      6828.67      0.70245500    0.0031374373
      6835.50      0.70936929    0.0031158654
      6842.33      0.71635907    0.0031294714
      6849.17      0.72450877    0.0031849701
      6856.02      0.73428363    0.0031791732
      6862.88      0.74199692    0.0032353947
      6869.74      0.74623184    0.0033824999
      6876.61      0.75445823    0.0035084180
      6883.49      0.76580434    0.0033895305
      6890.37      0.77170924    0.0033176547
      6897.27      0.77764123    0.0033950682
      6904.16      0.78401717    0.0035020745
      6911.07      0.78771926    0.0036515239
      6917.98      0.78981990    0.0037813519
      6924.89      0.78940581    0.0039057922
      6931.82      0.78812506    0.0040088870
      6938.75      0.79050861    0.0040364988
      6945.69      0.79262194    0.0039458917
      6952.64      0.79550109    0.0039121272
      6959.59      0.79964437    0.0037964957
      6966.55      0.80508610    0.0036438583
      6973.52      0.81008396    0.0035749545
      6980.49      0.81797064    0.0034602610
      6987.47      0.82548980    0.0034098227
      6994.46      0.83435639    0.0035960740
      7001.46      0.84565130    0.0037319817
      7008.46      0.85415684    0.0035975717
      7015.46      0.86010457    0.0034651035
      7022.48      0.86472154    0.0034284389
      7029.51      0.86951393    0.0034331159
      7036.53      0.87185458    0.0034307104
      7043.57      0.87430800    0.0034265268
      7050.62      0.87531148    0.0034233580
      7057.66      0.87353569    0.0034194451
      7064.72      0.87028367    0.0033811083
      7071.79      0.86683275    0.0034126499
      7078.86      0.86203771    0.0033734108
      7085.94      0.85362466    0.0033949490
      7093.03      0.84470057    0.0033873063
      7100.12      0.83350465    0.0033456563
      7107.22      0.82660969    0.0033712846
      7114.33      0.82057944    0.0033341316
      7121.44      0.81566508    0.0033552903
      7128.56      0.81130568    0.0033144531
      7135.69      0.80930288    0.0033161370
      7142.83      0.80831088    0.0033345662
      7149.97      0.80634274    0.0033529855
      7157.12      0.80670077    0.0033786716
      7164.28      0.80892436    0.0033967078
      7171.44      0.81439875    0.0034612103
      7178.62      0.81976262    0.0034537090
      7185.80      0.82384556    0.0034765311
      7192.98      0.83021386    0.0034973162
      7200.17      0.83400814    0.0035061617
      7207.38      0.83763317    0.0035163877
      7214.58      0.83892353    0.0035173626
      7221.80      0.83804950    0.0035141925
      7229.02      0.83765820    0.0035142405
      7236.25      0.83987750    0.0034802534
      7243.49      0.84154531    0.0035233002
      7250.73      0.83875096    0.0034883763
      7257.98      0.83703663    0.0035159395
      7265.24      0.83229840    0.0034743250
      7272.51      0.82715845    0.0035051446
      7279.78      0.82019883    0.0034614619
      7287.06      0.81108666    0.0034877843
      7294.35      0.80420343    0.0034303504
      7301.64      0.79775692    0.0034429109
      7308.94      0.79118272    0.0033843724
      7316.25      0.78222305    0.0033660840
      7323.57      0.77380634    0.0033411954
      7330.89      0.76756652    0.0033203149
      7338.22      0.75998782    0.0032956220
      7345.56      0.75139546    0.0032441573
      7352.91      0.73887606    0.0032543474
      7360.26      0.73010483    0.0031940236
      7367.62      0.71846050    0.0032064552
      7374.99      0.70653567    0.0031564987
      7382.37      0.69203812    0.0031698246
      7389.75      0.67660910    0.0031231554
      7397.14      0.66459811    0.0031323399
      7404.53      0.64984825    0.0030789148
      7411.94      0.63555056    0.0030873643
      7419.35      0.62303870    0.0030371374
      7426.77      0.61308318    0.0030179940
      7434.20      0.60766352    0.0030066397
      7441.63      0.60258887    0.0029888435
      7449.07      0.59668301    0.0029740147
      7456.52      0.59192543    0.0029497275
      7463.98      0.58672660    0.0029296693
      7471.45      0.59068487    0.0028976355
      7478.92      0.59830812    0.0028892645
      7486.40      0.59870491    0.0028857331
      7493.88      0.59820304    0.0028285425
      7501.38      0.60646851    0.0028086437
      7508.88      0.60854631    0.0027407897
      7516.39      0.60807422    0.0026955865
      7523.91      0.60562574    0.0026312229
      7531.43      0.60311538    0.0025504050
      7538.96      0.60017147    0.0025260693
      7546.50      0.59277203    0.0024632773
      7554.05      0.58756101    0.0024627045
      7561.60      0.58260468    0.0024389573
      7569.16      0.57693049    0.0024662226
      7576.73      0.57295958    0.0024974927
      7584.31      0.56549623    0.0025585378
      7591.89      0.55744673    0.0026318833
      7599.49      0.55273748    0.0026642547
      7607.09      0.54693620    0.0027268426
      7614.70      0.54782911    0.0027616910
      7622.31      0.55156661    0.0028307363
      7629.93      0.54373391    0.0028661998
      7637.56      0.54026948    0.0029493284
      7645.20      0.54520112    0.0029868405
      7652.85      0.53905002    0.0030095375
      7660.50      0.53527317    0.0030360238
      7668.16      0.52855575    0.0030138458
      7675.83      0.51990485    0.0030442532
      7683.50      0.50783081    0.0030346890
      7691.19      0.49592227    0.0029880592
      7698.88      0.48699991    0.0029950788
      7706.58      0.47828995    0.0029595301
      7714.29      0.46851569    0.0029579712
      7722.00      0.46145239    0.0029830621
      7729.73      0.45501984    0.0029417857
      7737.45      0.44792293    0.0029273625
      7745.19      0.44317704    0.0029251599
      7752.94      0.43734550    0.0029359038
      7760.69      0.43358242    0.0029505123
      7768.45      0.42913662    0.0029603872
      7776.22      0.42222349    0.0029720137
      7784.00      0.41649205    0.0029707749
      7791.78      0.41100513    0.0029626786
      7799.57      0.40561071    0.0029518502
      7807.37      0.40065091    0.0029134269
      7815.18      0.39139322    0.0029341902
      7822.99      0.38191573    0.0029309254
      7830.82      0.37403439    0.0028876556
      7838.65      0.36797865    0.0028594267
      7846.49      0.36203304    0.0028709688
      7854.34      0.35564112    0.0028355399
      7862.19      0.34937242    0.0028234449
      7870.05      0.34432494    0.0028384080
      7877.93      0.34094406    0.0028068800
      7885.80      0.33509183    0.0028010995
      7893.69      0.33032172    0.0027852208
      7901.58      0.32603640    0.0027727658
      7909.49      0.32275706    0.0027661734
      7917.40      0.31742719    0.0027743710
      7925.31      0.31260740    0.0027684739
      7933.24      0.30899356    0.0027438370
      7941.17      0.30565481    0.0027178061
      7949.11      0.30198283    0.0026742523
      7957.06      0.29891414    0.0026776227
      7965.02      0.29429663    0.0026555994
      7972.98      0.29047081    0.0026110523
      7980.96      0.28596103    0.0025862244
      7988.94      0.28291384    0.0025885279
      7996.93      0.27802599    0.0025723978
      8004.93      0.27310234    0.0025311652
      8012.93      0.27087886    0.0025029767
      8020.95      0.26798662    0.0025107406
      8028.97      0.26526718    0.0024787756
      8036.99      0.25925900    0.0024699036
      8045.03      0.25514263    0.0024560879
      8053.08      0.25138301    0.0024479225
      8061.13      0.24832804    0.0024409263
      8069.20      0.24540129    0.0024350823
      8077.26      0.24329297    0.0024271357
      8085.34      0.24197119    0.0023972435
      8093.43      0.24048016    0.0024167060
      8101.52      0.23777336    0.0024187717
      8109.62      0.23614221    0.0024212340
      8117.73      0.23441067    0.0024016467
      8125.85      0.23339310    0.0024085328
      8133.98      0.23330803    0.0024399076
      8142.11      0.23395569    0.0024541641
      8150.25      0.23408090    0.0024405603
      8158.41      0.23552546    0.0024536427
      8166.56      0.23840274    0.0024766864
      8174.73      0.24172546    0.0025270616
      8182.91      0.24460407    0.0025528162
      8191.09      0.24728113    0.0026207255
      8199.28      0.25073203    0.0026875653
      8207.48      0.25419099    0.0027388948
      8215.69      0.25774967    0.0027498240
      8223.91      0.26181892    0.0028179791
      8232.13      0.26586098    0.0028688634
      8240.36      0.27118971    0.0029117347
      8248.60      0.27463994    0.0029503727
      8256.85      0.27947040    0.0029421202
      8265.11      0.28550285    0.0029578056
      8273.37      0.29230744    0.0030046182
      8281.65      0.29921641    0.0030483286
      8289.93      0.30578007    0.0030974131
      8298.22      0.31436293    0.0031080215
      8306.52      0.32485533    0.0031561185
      8314.83      0.33797681    0.0031928383
      8323.14      0.35298509    0.0032229786
      8331.46      0.37257966    0.0032837240
      8339.80      0.39082472    0.0032961714
      8348.13      0.41227764    0.0033362087
      8356.48      0.43361308    0.0034129886
      8364.84      0.45551912    0.0033974203
      8373.21      0.48032562    0.0034281987
      8381.58      0.50567157    0.0034284694
      8389.96      0.53039918    0.0034375101
      8398.35      0.56080343    0.0034536290
      8406.75      0.59030727    0.0034640352
      8415.16      0.61837358    0.0035205034
      8423.57      0.64844170    0.0035117646
      8432.00      0.68006613    0.0035487514
      8440.43      0.71114282    0.0035611012
      8448.87      0.74037281    0.0036043441
      8457.32      0.76914429    0.0036187934
      8465.78      0.80153027    0.0036235434
      8474.25      0.83240116    0.0036535774
      8482.72      0.85996334    0.0036765527
      8491.20      0.88920908    0.0037345793
      8499.69      0.91880289    0.0037319971
      8508.19      0.94247825    0.0037763220
      8516.70      0.96463708    0.0037929327
      8525.22      0.98773367    0.0038297662
      8533.75       1.0067786    0.0038465130
      8542.28       1.0215758    0.0038385584
      8550.82       1.0303069    0.0038724070
      8559.37       1.0366447    0.0038711840
      8567.93       1.0402387    0.0038803512
      8576.50       1.0400814    0.0038745809
      8585.08       1.0342528    0.0038834200
      8593.66       1.0279486    0.0038246389
      8602.26       1.0230171    0.0038154262
      8610.86       1.0176371    0.0037702939
      8619.47       1.0069500    0.0037844237
      8628.09      0.99596722    0.0037695730
      8636.72      0.98529673    0.0037429105
      8645.36      0.97156693    0.0037192074
      8654.00      0.95487133    0.0037064187
      8662.66      0.93891922    0.0036949194
      8671.32      0.92234492    0.0036707983
      8679.99      0.90240476    0.0036805762
      8688.67      0.88361882    0.0036618304
      8697.36      0.86470011    0.0036470386
      8706.06      0.84465410    0.0036248628
      8714.76      0.82162121    0.0035980806
      8723.48      0.80068332    0.0035751929
      8732.21      0.78339970    0.0035482960
      8740.93      0.76621394    0.0035136235
      8749.68      0.74649512    0.0034738594
      8758.43      0.72706787    0.0034450975
      8767.19      0.70699787    0.0034135382
      8775.96      0.68809784    0.0033999507
      8784.73      0.67095308    0.0034437961
      8793.52      0.65221802    0.0034833102
      8802.31      0.63260545    0.0035372340
      8811.11      0.61274251    0.0035990516
      8819.92      0.59064942    0.0037036594
      8828.75      0.57145208    0.0038163104
      8837.57      0.55221353    0.0039465664
      8846.41      0.53333802    0.0041316151
      8855.26      0.51614025    0.0044084587
      8864.12      0.50085277    0.0047169294
      8872.98      0.48653522    0.0050148639
      8881.85      0.47329503    0.0055107723
      8890.73      0.45964001    0.0062954532
      8899.63      0.44561348    0.0071998112
      8908.52      0.43262013    0.0082553405
      8917.43      0.41698905     0.010023383
