# starting wavelength =        3678.2800
# ending wavelength =        7455.9400
# O2 telluric scale =        0
# O2 telluric shift =        0
# H2O telluric scale =        0
# H2O telluric shift =        0
      3681.83      0.66986388     0.056873569
      3685.51      0.66226474     0.046818396
      3689.20      0.64840995     0.040472554
      3692.88      0.63219635     0.035473590
      3696.58      0.62291792     0.031544853
      3700.27      0.60751925     0.029067381
      3703.98      0.61259919     0.026579120
      3707.68      0.60930193     0.024654960
      3711.39      0.61357032     0.022913853
      3715.10      0.62097707     0.021808773
      3718.81      0.62818497     0.020943808
      3722.53      0.62901950     0.020287675
      3726.26      0.62759143     0.019696366
      3729.98      0.63155733     0.019214477
      3733.71      0.63830033     0.018691943
      3737.45      0.64227428     0.018363490
      3741.18      0.64037947     0.018084173
      3744.93      0.63672960     0.017844981
      3748.67      0.63277720     0.017688687
      3752.42      0.63575199     0.017727863
      3756.17      0.63599785     0.017766959
      3759.93      0.63163824     0.017611555
      3763.69      0.63406907     0.017649973
      3767.45      0.63256979     0.017692017
      3771.22      0.62978034     0.017622876
      3774.99      0.62609874     0.017576028
      3778.77      0.61936450     0.017615582
      3782.54      0.62852850     0.017548672
      3786.33      0.62017089     0.017590928
      3790.11      0.61433474     0.017545319
      3793.90      0.61537938     0.017474967
      3797.70      0.61518696     0.017517804
      3801.50      0.60565979     0.017563703
      3805.30      0.60130824     0.017402042
      3809.10      0.59065384     0.017448526
      3812.91      0.59412765     0.017379630
      3816.73      0.59988237     0.017425481
      3820.54      0.60860090     0.017472125
      3824.36      0.61735714     0.017309477
      3828.19      0.62745087     0.017357095
      3832.02      0.64335673     0.017403599
      3835.85      0.66099448     0.017338107
      3839.68      0.68227229     0.017386347
      3843.52      0.68825672     0.017341513
      3847.37      0.70024813     0.017271726
      3851.22      0.71137099     0.017320565
      3855.07      0.72503254     0.017255614
      3858.92      0.72912307     0.017305775
      3862.78      0.73311142     0.017358871
      3866.64      0.73293135     0.017191530
      3870.51      0.74616959     0.017242987
      3874.38      0.75723726     0.017299757
      3878.26      0.76854758     0.017231167
      3882.13      0.76689947     0.017286280
      3886.02      0.77107237     0.017222478
      3889.90      0.76773678     0.017170862
      3893.79      0.76238635     0.017231227
      3897.69      0.76072740     0.017162325
      3901.59      0.74568648     0.017219556
      3905.49      0.73376770     0.017155435
      3909.39      0.74533890     0.017213764
      3913.30      0.74222435     0.017274788
      3917.22      0.75468200     0.017100077
      3921.13      0.75471827     0.017159107
      3925.06      0.76177810     0.017094057
      3928.98      0.75496714     0.017157510
      3932.91      0.75497350     0.017220268
      3936.84      0.76249527     0.017155538
      3940.78      0.76518896     0.017222012
      3944.72      0.76812254     0.017155269
      3948.67      0.76681779     0.017224075
      3952.61      0.76606013     0.017294072
      3956.57      0.77242459     0.017107221
      3960.52      0.78112203     0.017181163
      3964.48      0.78293467     0.017112370
      3968.45      0.80196614     0.017182192
      3972.42      0.81246794     0.017117782
      3976.39      0.81617021     0.017191688
      3980.37      0.82502900     0.017265784
      3984.35      0.83094781     0.017201246
      3988.33      0.83646936     0.017280076
      3992.32      0.84718980     0.017212732
      3996.31      0.85087858     0.017292875
      4000.31      0.84983619     0.017229855
      4004.31      0.86328241     0.017309147
      4008.31      0.87087608     0.017393824
      4012.32      0.86819046     0.017330260
      4016.33      0.87191756     0.017276750
      4020.35      0.87941336     0.017210282
      4024.37      0.87394270     0.017303331
      4028.40      0.88028255     0.017233370
      4032.42      0.88700623     0.017320170
      4036.46      0.88872631     0.017254842
      4040.50      0.89759343     0.017350879
      4044.54      0.90557139     0.017282419
      4048.58      0.92001710     0.017375559
      4052.63      0.92298649     0.017481965
      4056.68      0.92596888     0.017411086
      4060.74      0.91897425     0.017342536
      4064.80      0.91709500     0.017276597
      4068.86      0.91787941     0.017230589
      4072.93      0.92397570     0.017161373
      4077.01      0.91857382     0.017094845
      4081.08      0.91179505     0.017030267
      4085.17      0.91823468     0.016984625
      4089.25      0.92053146     0.016916377
      4093.34      0.92634264     0.016850392
      4097.43      0.95184834     0.016640994
      4101.53      0.97041660     0.016579390
      4105.63      0.99163151     0.016675056
      4109.74       1.0124763     0.016610214
      4113.85       1.0277189     0.016403680
      4117.96       1.0329120     0.016342446
      4122.08       1.0424066     0.016282668
      4126.20       1.0563260     0.016373526
      4130.33       1.0534426     0.016169101
      4134.46       1.0485197     0.016108065
      4138.59       1.0417864     0.016048570
      4142.73       1.0334457     0.015990742
      4146.88       1.0415426     0.015939555
      4151.02       1.0393212     0.015878521
      4155.18       1.0314168     0.015818677
      4159.33       1.0195915     0.015760344
      4163.49       1.0165236     0.015703265
      4167.65       1.0065236     0.015509450
      4171.82       1.0101266     0.015592797
      4175.99       1.0255336     0.015534414
      4180.17       1.0382848     0.015476988
      4184.35       1.0396972     0.015291412
      4188.54       1.0389875     0.015231690
      4192.72       1.0465395     0.015173199
      4196.92       1.0530626     0.015255427
      4201.11       1.0672954     0.015198505
      4205.31       1.0770030     0.015019056
      4209.52       1.0884648     0.014960481
      4213.73       1.1008990     0.014902689
      4217.94       1.1149712     0.014845661
      4222.16       1.1244358     0.014789349
      4226.38       1.1407635     0.014734073
      4230.61       1.1510398     0.014695865
      4234.84       1.1574929     0.014638834
      4239.08       1.1558924     0.014582450
      4243.32       1.1556307     0.014526712
      4247.56       1.1633363     0.014471582
      4251.81       1.1798846     0.014417064
      4256.06       1.1886870     0.014243291
      4260.32       1.1959151     0.014190628
      4264.58       1.1965416     0.014138593
      4268.84       1.2120861     0.014216287
      4273.11       1.2191306     0.014162222
      4277.38       1.2339286     0.014108674
      4281.66       1.2403083     0.013938405
      4285.94       1.2482276     0.013886223
      4290.23       1.2568576     0.013834426
      4294.52       1.2669799     0.013783382
      4298.81       1.2684060     0.013733097
      4303.11       1.2760603     0.013683091
      4307.42       1.2926567     0.013633367
      4311.72       1.2971482     0.013583919
      4316.04       1.3072623     0.013420973
      4320.35       1.3198242     0.013370796
      4324.67       1.3274531     0.013439928
      4329.00       1.3387480     0.013390187
      4333.33       1.3407064     0.013341045
      4337.66       1.3436591     0.013292120
      4342.00       1.3526969     0.013243427
      4346.34       1.3584948     0.013194952
      4350.69       1.3598877     0.013146672
      4355.04       1.3549059     0.012994740
      4359.39       1.3616641     0.012946387
      4363.75       1.3612501     0.012898636
      4368.12       1.3601165     0.012851078
      4372.48       1.3596043     0.012803737
      4376.86       1.3603075     0.012756604
      4381.23       1.3523958     0.012709669
      4385.61       1.3532625     0.012663168
      4390.00       1.3576473     0.012616948
      4394.39       1.3538941     0.012571040
      4398.79       1.3602374     0.012525539
      4403.18       1.3617140     0.012480193
      4407.59       1.3590578     0.012434992
      4412.00       1.3602874     0.012290021
      4416.41       1.3597161     0.012245492
      4420.82       1.3591345     0.012201365
      4425.25       1.3555357     0.012157659
      4429.67       1.3406352     0.012114081
      4434.10       1.3263573     0.012070652
      4438.54       1.3250938     0.012027437
      4442.97       1.3211422     0.011984326
      4447.42       1.3113198     0.011941371
      4451.86       1.3099539     0.011898792
      4456.32       1.3099497     0.011856659
      4460.77       1.2989071     0.011814636
      4465.24       1.2877691     0.011772763
      4469.70       1.2900944     0.011731055
      4474.17       1.2888051     0.011689493
      4478.65       1.2833174     0.011648088
      4483.12       1.2782235     0.011606819
      4487.61       1.2785027     0.011565994
      4492.09       1.2839961     0.011525515
      4496.59       1.2818555     0.011387111
      4501.08       1.2784568     0.011347293
      4505.58       1.2691097     0.011307632
      4510.09       1.2620313     0.011268137
      4514.60       1.2545789     0.011229043
      4519.12       1.2586497     0.011190220
      4523.63       1.2660565     0.011151797
      4528.16       1.2645771     0.011113535
      4532.69       1.2638377     0.011075487
      4537.22       1.2671837     0.011037648
      4541.76       1.2670526     0.011000021
      4546.30       1.2532762     0.010962806
      4550.85       1.2529332     0.010925905
      4555.40       1.2580458     0.010794142
      4559.95       1.2587437     0.010757171
      4564.51       1.2537259     0.010720437
      4569.08       1.2567035     0.010683912
      4573.65       1.2637081     0.010647634
      4578.22       1.2654436     0.010611579
      4582.80       1.2557325     0.010576026
      4587.38       1.2554146     0.010624061
      4591.97       1.2583837     0.010588998
      4596.56       1.2629625     0.010465566
      4601.16       1.2693214     0.010429935
      4605.76       1.2732717     0.010394583
      4610.37       1.2731813     0.010359525
      4614.98       1.2711035     0.010324989
      4619.59       1.2655874     0.010290979
      4624.21       1.2658244     0.010257286
      4628.84       1.2523658     0.010139525
      4633.47       1.2514807     0.010106806
      4638.10       1.2724447     0.010074454
      4642.74       1.2884646     0.010042474
      4647.38       1.2989985     0.010085292
      4652.03       1.3035189     0.010052355
      4656.68       1.3064829    0.0099372014
      4661.34       1.3027909    0.0099053947
      4666.00       1.3030079    0.0098740189
      4670.67       1.3048798    0.0098430882
      4675.33       1.3073496    0.0098126064
      4680.01       1.3149381    0.0097829078
      4684.69       1.3149212    0.0096691017
      4689.38       1.3074156    0.0097122794
      4694.07       1.2913257    0.0096820354
      4698.76       1.2774036    0.0096523084
      4703.46       1.2649105    0.0096231015
      4708.16       1.2522058    0.0095135652
      4712.87       1.2421009    0.0094837848
      4717.58       1.2325119    0.0094545090
      4722.30       1.2370195    0.0094979442
      4727.03       1.2429901    0.0094695751
      4731.75       1.2345574    0.0093634857
      4736.48       1.2223628    0.0093342241
      4741.22       1.2159292    0.0093057131
      4745.96       1.2106318    0.0092778683
      4750.71       1.2037524    0.0092472178
      4755.46       1.2072928    0.0092183251
      4760.22       1.2070445    0.0091900816
      4764.97       1.2109165    0.0091624939
      4769.74       1.2186416    0.0090627511
      4774.51       1.2190678    0.0090370365
      4779.29       1.2128737    0.0090777576
      4784.07       1.2171432    0.0090506457
      4788.85       1.2269051    0.0089524764
      4793.64       1.2317394    0.0089270852
      4798.43       1.2393766    0.0089024797
      4803.23       1.2509373    0.0089418259
      4808.03       1.2580887    0.0088453522
      4812.84       1.2613804    0.0088207196
      4817.66       1.2630078    0.0087968994
      4822.48       1.2639417    0.0087739596
      4827.30       1.2616891    0.0087418652
      4832.12       1.2672087    0.0087178774
      4836.96       1.2713157    0.0086948872
      4841.79       1.2695304    0.0086012287
      4846.63       1.2710418    0.0086414813
      4851.48       1.2727507    0.0086184265
      4856.33       1.2775100    0.0085276486
      4861.19       1.2761766    0.0085038074
      4866.05       1.2817893    0.0085441816
      4870.92       1.2860434    0.0085222903
      4875.79       1.3013866    0.0084323383
      4880.66       1.3096908    0.0084096529
      4885.55       1.3160820    0.0084506674
      4890.43       1.3236416    0.0083627096
      4895.32       1.3379319    0.0083401373
      4900.22       1.3446653    0.0083187240
      4905.12       1.3571892    0.0082949998
      4910.02       1.3708505    0.0082727011
      4914.94       1.3762499    0.0082515545
      4919.85       1.3836536    0.0081683987
      4924.77       1.4000439    0.0082069150
      4929.70       1.4078882    0.0081859978
      4934.62       1.4205767    0.0081039268
      4939.56       1.4253510    0.0081429853
      4944.50       1.4331419    0.0080605799
      4949.44       1.4390280    0.0080416837
      4954.39       1.4457269    0.0080239866
      4959.35       1.4612541    0.0079992902
      4964.31       1.4721575    0.0079808654
      4969.27       1.4802258    0.0079639645
      4974.24       1.4842655    0.0079399255
      4979.22       1.4918011    0.0079223216
      4984.20       1.4968743    0.0078432506
      4989.18       1.5050072    0.0078821640
      4994.17       1.5133830    0.0078652401
      4999.16       1.5230835    0.0077867894
      5004.16       1.5261587    0.0078263037
      5009.17       1.5262503    0.0077499758
      5014.18       1.5375351    0.0077322311
      5019.19       1.5483211    0.0077723409
      5024.21       1.5500662    0.0076961243
      5029.23       1.5623369    0.0076794357
      5034.26       1.5671268    0.0076613540
      5039.30       1.5763791    0.0076442267
      5044.34       1.5847585    0.0076278143
      5049.39       1.5979743    0.0076102752
      5054.43       1.6144541    0.0075942942
      5059.49       1.6264895    0.0075773618
      5064.55       1.6317232    0.0075610010
      5069.61       1.6390136    0.0074907646
      5074.68       1.6496724    0.0075287915
      5079.76       1.6538735    0.0074584885
      5084.84       1.6568474    0.0074974572
      5089.92       1.6568529    0.0074272807
      5095.01       1.6462486    0.0074139709
      5100.11       1.6451959    0.0073970127
      5105.21       1.6455175    0.0073836241
      5110.31       1.6428205    0.0074222623
      5115.42       1.6406411    0.0073542001
      5120.54       1.6347622    0.0073424796
      5125.66       1.6405001    0.0073255442
      5130.79       1.6371817    0.0073138763
      5135.92       1.6336743    0.0072978114
      5141.05       1.6340297    0.0072861303
      5146.20       1.6332420    0.0072708008
      5151.34       1.6336458    0.0072591466
      5156.49       1.6313151    0.0071929184
      5161.65       1.6342447    0.0072330625
      5166.81       1.6355106    0.0071676860
      5171.98       1.6379370    0.0072078565
      5177.15       1.6385211    0.0071430447
      5182.33       1.6359936    0.0071318545
      5187.51       1.6319708    0.0071190154
      5192.70       1.6304123    0.0071083377
      5197.89       1.6361700    0.0070957895
      5203.09       1.6378025    0.0070350972
      5208.29       1.6375344    0.0070732522
      5213.50       1.6425519    0.0070130445
      5218.72       1.6431650    0.0070513860
      5223.93       1.6409777    0.0069918337
      5229.16       1.6328975    0.0070301263
      5234.39       1.6305713    0.0069712780
      5239.62       1.6200155    0.0069600624
      5244.86       1.6184509    0.0069514789
      5250.11       1.6189069    0.0069404686
      5255.36       1.6121551    0.0069324983
      5260.61       1.6107656    0.0069215073
      5265.87       1.6062761    0.0069141490
      5271.14       1.5966285    0.0069033567
      5276.41       1.5896509    0.0068460608
      5281.69       1.5786501    0.0068859250
      5286.97       1.5696733    0.0068287043
      5292.26       1.5646095    0.0068692490
      5297.55       1.5529781    0.0068600200
      5302.85       1.5421720    0.0068043606
      5308.15       1.5283652    0.0068441061
      5313.46       1.5201529    0.0067884504
      5318.77       1.5128090    0.0068289854
      5324.09       1.5014909    0.0067733443
      5329.42       1.4944361    0.0067668279
      5334.75       1.4867665    0.0067589989
      5340.08       1.4793832    0.0067523025
      5345.42       1.4804399    0.0066995388
      5350.77       1.4768196    0.0067386832
      5356.12       1.4653074    0.0067330767
      5361.48       1.4577086    0.0067259378
      5366.83       1.4515154    0.0067199849
      5372.20       1.4408955    0.0066683594
      5377.58       1.4304567    0.0067077926
      5382.95       1.4227391    0.0067028048
      5388.34       1.4148533    0.0066512960
      5393.72       1.4051028    0.0066914853
      5399.12       1.3955743    0.0066413921
      5404.52       1.3895917    0.0066357205
      5409.92       1.3812598    0.0066764638
      5415.33       1.3822753    0.0066266396
      5420.75       1.3809521    0.0066216533
      5426.17       1.3692801    0.0065721410
      5431.60       1.3573743    0.0066133350
      5437.03       1.3441788    0.0066089156
      5442.47       1.3371383    0.0065600459
      5447.91       1.3259946    0.0066015292
      5453.36       1.3205618    0.0065976462
      5458.81       1.3055104    0.0065491289
      5464.27       1.2976362    0.0065469630
      5469.73       1.2936403    0.0065422300
      5475.20       1.2858717    0.0065396101
      5480.68       1.2757813    0.0065377650
      5486.16       1.2699736    0.0065336035
      5491.65       1.2607377    0.0065312437
      5497.14       1.2569855    0.0065296544
      5502.64       1.2512670    0.0064835758
      5508.14       1.2487197    0.0065242336
      5513.65       1.2438527    0.0065228184
      5519.16       1.2443545    0.0064777727
      5524.68       1.2405599    0.0064759070
      5530.20       1.2346125    0.0065173297
      5535.73       1.2276330    0.0065166862
      5541.27       1.2207889    0.0064718044
      5546.81       1.2187060    0.0064706181
      5552.36       1.2083990    0.0065126165
      5557.91       1.2095027    0.0064690850
      5563.47       1.2054130    0.0064681121
      5569.04       1.2088003    0.0064676357
      5574.60       1.2092591    0.0064239024
      5580.18       1.2067757    0.0064670572
      5585.76       1.2090677    0.0064666304
      5591.35       1.2076149    0.0064667249
      5596.94       1.2004959    0.0064233818
      5602.53       1.1981331    0.0064243552
      5608.14       1.1900997    0.0064674502
      5613.75       1.1871246    0.0064678889
      5619.36       1.1829586    0.0064249201
      5624.98       1.1790660    0.0064262347
      5630.60       1.1778283    0.0064279643
      5636.23       1.1713706    0.0064300722
      5641.87       1.1599278    0.0064285885
      5647.51       1.1478968    0.0064301501
      5653.16       1.1402403    0.0064321028
      5658.82       1.1327800    0.0064343704
      5664.47       1.1311809    0.0063938892
      5670.14       1.1318234    0.0063957572
      5675.81       1.1277288    0.0063978705
      5681.48       1.1257313    0.0064408841
      5687.17       1.1172192    0.0064436458
      5692.85       1.1163465    0.0064042093
      5698.55       1.1095172    0.0064066409
      5704.25       1.0996957    0.0064092782
      5709.95       1.0970700    0.0064121085
      5715.66       1.0835099    0.0064152594
      5721.38       1.0677561    0.0063759047
      5727.10       1.0570163    0.0064207601
      5732.83       1.0479002    0.0064238005
      5738.56       1.0428999    0.0064269983
      5744.30       1.0299242    0.0064305115
      5750.04       1.0187824    0.0064343300
      5755.79       1.0122099    0.0063957452
      5761.55       1.0072419    0.0064007434
      5767.31       1.0062377    0.0064057624
      5773.08       1.0012124    0.0064106025
      5778.85       1.0044056    0.0064160131
      5784.63      0.99670886    0.0064225581
      5790.41      0.99636457    0.0064311825
      5796.21      0.99147022    0.0063976320
      5802.00      0.99319749    0.0064466381
      5807.81      0.99252924    0.0064573884
      5813.61      0.98303112    0.0064691790
      5819.43      0.97359859    0.0064816541
      5825.25      0.96431980    0.0064926749
      5831.07      0.95515735    0.0065013938
      5836.90      0.94790754    0.0065088236
      5842.74      0.94225521    0.0064733760
      5848.58      0.93881015    0.0064788926
      5854.43      0.93194328    0.0064834297
      5860.29      0.92059752    0.0064875208
      5866.15      0.91286849    0.0064919100
      5872.01      0.90882871    0.0064967957
      5877.89      0.90564630    0.0065015453
      5883.76      0.89831456    0.0065054935
      5889.65      0.89074244    0.0065087110
      5895.54      0.88212613    0.0065113835
      5901.43      0.87595588    0.0065142505
      5907.34      0.87086703    0.0065170191
      5913.24      0.86956789    0.0065188694
      5919.16      0.86816125    0.0064784084
      5925.08      0.86120592    0.0064812527
      5931.00      0.86313711    0.0064854912
      5936.93      0.86420786    0.0064893821
      5942.87      0.86596816    0.0064926970
      5948.81      0.86937047    0.0064969637
      5954.76      0.87503599    0.0064637367
      5960.72      0.88239189    0.0064696529
      5966.68      0.87853787    0.0064757676
      5972.64      0.88161502    0.0064823026
      5978.62      0.88593250    0.0064893396
      5984.60      0.88807364    0.0064965369
      5990.58      0.88601367    0.0065037085
      5996.57      0.88438978    0.0065110106
      6002.57      0.88360435    0.0065184706
      6008.57      0.88872551    0.0065260652
      6014.58      0.89558331    0.0065338654
      6020.60      0.90244575    0.0065417632
      6026.62      0.91762299    0.0065496694
      6032.65      0.93055123    0.0065181428
      6038.68      0.94351434    0.0065258870
      6044.72      0.95732610    0.0065337811
      6050.76      0.96618717    0.0065416323
      6056.81      0.97816537    0.0065495793
      6062.87      0.98949736    0.0065576075
      6068.93      0.99854281    0.0065656896
      6075.00       1.0097137    0.0065739647
      6081.08       1.0195703    0.0065869570
      6087.16       1.0287723    0.0065948426
      6093.25       1.0403803    0.0066028389
      6099.34       1.0428608    0.0066109269
      6105.44       1.0471749    0.0066192182
      6111.54       1.0577816    0.0066275674
      6117.66       1.0620332    0.0066360359
      6123.78       1.0652642    0.0066065204
      6129.90       1.0682773    0.0066151970
      6136.03       1.0648876    0.0066245002
      6142.17       1.0751750    0.0066357525
      6148.31       1.0722416    0.0066485448
      6154.46       1.0739471    0.0066603649
      6160.61       1.0708563    0.0066688036
      6166.77       1.0666103    0.0066811469
      6172.94       1.0622652    0.0066972693
      6179.11       1.0553489    0.0067170108
      6185.29       1.0498745    0.0067398944
      6191.48       1.0462763    0.0067274781
      6197.67       1.0385692    0.0067516233
      6203.87       1.0273406    0.0067746751
      6210.07       1.0261692    0.0068396659
      6216.28       1.0167202    0.0068168337
      6222.50       1.0117283    0.0068266700
      6228.72       1.0106590    0.0068317535
      6234.95      0.99868688    0.0068326263
      6241.19      0.99003340    0.0067912469
      6247.42      0.98739551    0.0068275582
      6253.67      0.98493095    0.0068246123
      6259.93      0.99768333    0.0068258177
      6266.19      0.99495550    0.0067912820
      6272.46       1.0023556    0.0067938075
      6278.73       1.0108772    0.0067958328
      6285.01       1.0165893    0.0068406787
      6291.29       1.0256752    0.0068065840
      6297.58       1.0264801    0.0068121006
      6303.88       1.0264170    0.0068185445
      6310.19       1.0270820    0.0067859189
      6316.50       1.0261990    0.0068342341
      6322.81       1.0292814    0.0068418652
      6329.14       1.0331811    0.0068505397
      6335.47       1.0240192    0.0068202834
      6341.80       1.0149844    0.0068714701
      6348.14       1.0106891    0.0068809774
      6354.49       1.0037355    0.0068520092
      6360.85      0.99839107    0.0068622181
      6367.21      0.99452652    0.0069167579
      6373.57      0.98444965    0.0068933734
      6379.95      0.97969302    0.0069081543
      6386.33      0.97151565    0.0069226843
      6392.72      0.97398949    0.0069418166
      6399.11      0.97243242    0.0069543231
      6405.51      0.97028300    0.0069668645
      6411.92      0.96848557    0.0069408565
      6418.32      0.96089753    0.0069927349
      6424.74      0.95774554    0.0069622486
      6431.17      0.95282228    0.0069695727
      6437.60      0.95163849    0.0070174919
      6444.04      0.94678002    0.0069851221
      6450.48      0.93802955    0.0069924810
      6456.94      0.92551864    0.0070012496
      6463.39      0.91550217    0.0070119120
      6469.85      0.90623624    0.0070200712
      6476.33      0.90088076    0.0069877919
      6482.80      0.88666590    0.0070354669
      6489.28      0.87398108    0.0070025965
      6495.77      0.86317951    0.0070083846
      6502.27      0.85513396    0.0070577158
      6508.77      0.85187673    0.0070244094
      6515.28      0.84728329    0.0070290564
      6521.80      0.84001657    0.0070385336
      6528.32      0.83781120    0.0070447869
      6534.85      0.83080433    0.0070146855
      6541.38      0.83009413    0.0070639226
      6547.92      0.82964566    0.0070716989
      6554.47      0.82341030    0.0070841180
      6561.03      0.81749448    0.0070917819
      6567.59      0.80830294    0.0070621472
      6574.16      0.79911494    0.0071116408
      6580.73      0.78524177    0.0070815399
      6587.31      0.77261029    0.0070905696
      6593.90      0.76204662    0.0071013470
      6600.50      0.75265222    0.0071100601
      6607.10      0.73434639    0.0071209039
      6613.70      0.72012574    0.0071292739
      6620.32      0.71070092    0.0070985833
      6626.94      0.70093632    0.0071484695
      6633.57      0.69437244    0.0071176819
      6640.20      0.68856592    0.0071673698
      6646.84      0.68296900    0.0071364914
      6653.49      0.67537106    0.0071860685
      6660.14      0.67267945    0.0071550538
      6666.80      0.67057902    0.0071625058
      6673.47      0.66787198    0.0071733531
      6680.14      0.65867906    0.0071806168
      6686.82      0.65067118    0.0071912820
      6693.51      0.64013124    0.0071605720
      6700.20      0.62944908    0.0072088746
      6706.90      0.61955856    0.0071780313
      6713.61      0.61022763    0.0072276759
      6720.32      0.59543215    0.0072108375
      6727.05      0.58006721    0.0072816248
      6733.77      0.56341176    0.0072652291
      6740.51      0.54777096    0.0072645505
      6747.25      0.53212080    0.0072833751
      6754.00      0.52140966    0.0073394732
      6760.75      0.50819165    0.0074062749
      6767.51      0.50013232    0.0075150579
      6774.28      0.48844602    0.0075957385
      6781.05      0.47136611    0.0077585221
      6787.84      0.46529052    0.0078397022
      6794.62      0.45788439    0.0079893973
      6801.42      0.45581211    0.0080178690
      6808.22      0.45452195    0.0080571295
      6815.03      0.45374944    0.0080506409
      6821.85      0.45356685    0.0080019346
      6828.67      0.45431612    0.0079201532
      6835.50      0.45591719    0.0078410341
      6842.33      0.44808282    0.0077500874
      6849.17      0.44745550    0.0076515034
      6856.02      0.44831274    0.0076610527
      6862.88      0.43698150    0.0075799441
      6869.74      0.42606714    0.0075252922
      6876.61      0.41340390    0.0075366309
      6883.49      0.40394094    0.0074775142
      6890.37      0.38687214    0.0074589281
      6897.27      0.37200633    0.0074476020
      6904.16      0.35117982    0.0074391930
      6911.07      0.32991874    0.0074376574
      6917.98      0.31512109    0.0074394088
      6924.89      0.30255420    0.0074437730
      6931.82      0.28853654    0.0074074481
      6938.75      0.28214961    0.0074095522
      6945.69      0.27750705    0.0074477938
      6952.64      0.27105741    0.0074032448
      6959.59      0.26524845    0.0073984257
      6966.55      0.26895880    0.0073960390
      6973.52      0.26740362    0.0073926188
      6980.49      0.27502640    0.0073910421
      6987.47      0.27654281    0.0073892392
      6994.46      0.27390198    0.0073480628
      7001.46      0.28040328    0.0073858891
      7008.46      0.28516608    0.0073874285
      7015.46      0.28598667    0.0073533461
      7022.48      0.28588905    0.0073635323
      7029.51      0.28515829    0.0074105156
      7036.53      0.28161145    0.0073849307
      7043.57      0.28033002    0.0073995189
      7050.62      0.27745675    0.0074223258
      7057.66      0.27809861    0.0074161404
      7064.72      0.27715733    0.0074993865
      7071.79      0.28370270    0.0075721495
      7078.86      0.28831156    0.0076167461
      7085.94      0.28685048    0.0076290996
      7093.03      0.29214533    0.0076214039
      7100.12      0.29799734    0.0076279155
      7107.22      0.30040567    0.0075856821
      7114.33      0.28986946    0.0075341489
      7121.44      0.28865074    0.0074703674
      7128.56      0.28423088    0.0074007398
      7135.69      0.28644953    0.0073276868
      7142.83      0.28581916    0.0072526604
      7149.97      0.28995124    0.0071769406
      7157.12      0.29015916    0.0071331762
      7164.28      0.28381863    0.0070653774
      7171.44      0.28051745    0.0069744088
      7178.62      0.27234247    0.0069168369
      7185.80      0.26695411    0.0068569556
      7192.98      0.26183132    0.0068210019
      7200.17      0.25747000    0.0067472004
      7207.38      0.25739944    0.0066664994
      7214.58      0.26105521    0.0065815621
      7221.80      0.25649774    0.0064747682
      7229.02      0.25298165    0.0063898319
      7236.25      0.25430238    0.0063108525
      7243.49      0.25711797    0.0062627639
      7250.73      0.25448244    0.0061950817
      7257.98      0.24564606    0.0061293160
      7265.24      0.24346334    0.0060638094
      7272.51      0.24227818    0.0060001005
      7279.78      0.23207522    0.0059222583
      7287.06      0.22519826    0.0058651320
      7294.35      0.21945453    0.0058113803
      7301.64      0.21488870    0.0057605474
      7308.94      0.20741006    0.0057114969
      7316.25      0.20190780    0.0056638116
      7323.57      0.19961838    0.0056185167
      7330.89      0.20005601    0.0055749450
      7338.22      0.20229248    0.0056045355
      7345.56      0.20054972    0.0056646744
      7352.91      0.20331906    0.0057561875
      7360.26      0.20219376    0.0058672681
      7367.62      0.20457737    0.0060045460
      7374.99      0.20471983    0.0061785211
      7382.37      0.20664755    0.0064018860
      7389.75      0.21297152    0.0066922483
      7397.14      0.21567896    0.0070746917
      7404.53      0.22450162    0.0075783718
      7411.94      0.23416905    0.0082415503
      7419.35      0.24535740    0.0091111383
      7426.77      0.25857598     0.010237793
      7434.20      0.27310717     0.011847443
      7441.63      0.28701745     0.013720997
      7449.07      0.29941636     0.016079548
