# starting wavelength =        3430.2788
# ending wavelength =        10121.753
# O2 telluric scale =        0
# O2 telluric shift =        0
# H2O telluric scale =        0
# H2O telluric shift =        0
      3433.02       1.0521477     0.028362003
      3436.45       1.0569686     0.025784831
      3439.89       1.0650457     0.020955724
      3443.33       1.0718636     0.019395486
      3446.78       1.0771036     0.016363071
      3450.22       1.0782931     0.014821836
      3453.67       1.0770849     0.014091396
      3457.13       1.0750612     0.012657577
      3460.58       1.0731089     0.012201133
      3464.04       1.0743109     0.011342860
      3467.51       1.0824212     0.011040735
      3470.98       1.0881061     0.010523774
      3474.45       1.0826531     0.010149542
      3477.92       1.0843607    0.0099583612
      3481.40       1.0883649    0.0096843355
      3484.88       1.0951866    0.0095313589
      3488.37       1.1022564    0.0093498489
      3491.86       1.1113050    0.0092204426
      3495.35       1.1174812    0.0090990319
      3498.84       1.1237215    0.0089657546
      3502.34       1.1309630    0.0089417663
      3505.84       1.1369375    0.0090109053
      3509.35       1.1458897    0.0089884555
      3512.86       1.1544110    0.0089669693
      3516.37       1.1656063    0.0089464454
      3519.89       1.1726795    0.0089030688
      3523.41       1.1790124    0.0088798133
      3526.93       1.1850131    0.0088575711
      3530.46       1.1905621    0.0088363094
      3533.99       1.1958636    0.0089030597
      3537.53       1.2022352    0.0088786852
      3541.06       1.2106890    0.0088554005
      3544.60       1.2204612    0.0087279358
      3548.15       1.2323672    0.0087969657
      3551.70       1.2434872    0.0087718805
      3555.25       1.2510193    0.0087479350
      3558.80       1.2546022    0.0087251177
      3562.36       1.2573920    0.0086919445
      3565.92       1.2641499    0.0086662169
      3569.49       1.2713031    0.0086416863
      3573.06       1.2795503    0.0086189507
      3576.64       1.2827601    0.0086895890
      3580.21       1.2868134    0.0086683705
      3583.79       1.2913824    0.0085364596
      3587.38       1.3011476    0.0086052200
      3590.96       1.3106639    0.0085822874
      3594.55       1.3194149    0.0085606589
      3598.15       1.3235002    0.0085403251
      3601.75       1.3286157    0.0086063103
      3605.35       1.3378373    0.0084760378
      3608.96       1.3472650    0.0084540836
      3612.56       1.3546453    0.0084334883
      3616.18       1.3621949    0.0085000042
      3619.79       1.3702150    0.0084760470
      3623.41       1.3855782    0.0083485435
      3627.04       1.3971163    0.0084200357
      3630.66       1.4042048    0.0083944021
      3634.29       1.4110094    0.0083702865
      3637.93       1.4167020    0.0083476680
      3641.57       1.4228906    0.0083151541
      3645.21       1.4267669    0.0082894245
      3648.86       1.4291008    0.0082652533
      3652.50       1.4334773    0.0083370913
      3656.16       1.4391916    0.0083157656
      3659.81       1.4450313    0.0081850226
      3663.47       1.4522081    0.0081609323
      3667.14       1.4577590    0.0082316443
      3670.80       1.4642281    0.0082104747
      3674.48       1.4722179    0.0081910098
      3678.15       1.4838351    0.0081496237
      3681.83       1.4952080    0.0081270151
      3685.51       1.5077453    0.0081061443
      3689.20       1.5240095    0.0081757229
      3692.88       1.5342647    0.0081512422
      3696.58       1.5448580    0.0080232246
      3700.27       1.5513438    0.0080027746
      3703.98       1.5577724    0.0080704702
      3707.68       1.5631233    0.0080464823
      3711.39       1.5676875    0.0080244350
      3715.10       1.5702974    0.0079912342
      3718.81       1.5729198    0.0079659065
      3722.53       1.5758798    0.0079425734
      3726.26       1.5792594    0.0080171469
      3729.98       1.5786487    0.0078867043
      3733.71       1.5831958    0.0078621487
      3737.45       1.5881705    0.0079345348
      3741.18       1.5857791    0.0079137585
      3744.93       1.5842658    0.0078951518
      3748.67       1.5810209    0.0078532842
      3752.42       1.5771937    0.0078313737
      3756.17       1.5726520    0.0078116503
      3759.93       1.5624013    0.0078802690
      3763.69       1.5612541    0.0077502387
      3767.45       1.5595036    0.0077294894
      3771.22       1.5561454    0.0078003005
      3774.99       1.5570657    0.0077757833
      3778.77       1.5604792    0.0076485030
      3782.54       1.5635437    0.0077212302
      3786.33       1.5671847    0.0076957189
      3790.11       1.5722368    0.0076727122
      3793.90       1.5789372    0.0077504695
      3797.70       1.5869832    0.0076164939
      3801.50       1.5933420    0.0075926385
      3805.30       1.5967155    0.0076685065
      3809.10       1.6004119    0.0076495453
      3812.91       1.6024235    0.0076099063
      3816.73       1.6080159    0.0075874693
      3820.54       1.6147386    0.0075677846
      3824.36       1.6211331    0.0076391395
      3828.19       1.6302854    0.0075072390
      3832.02       1.6383314    0.0074869305
      3835.85       1.6465741    0.0075591568
      3839.68       1.6564815    0.0075349329
      3843.52       1.6682509    0.0074068863
      3847.37       1.6784693    0.0074796890
      3851.22       1.6867450    0.0074549496
      3855.07       1.6919599    0.0075348896
      3858.92       1.6964055    0.0074006857
      3862.78       1.7006743    0.0073755504
      3866.64       1.7062387    0.0074540185
      3870.51       1.7104291    0.0074349753
      3874.38       1.7167800    0.0072966575
      3878.26       1.7250215    0.0073737876
      3882.13       1.7298046    0.0073545255
      3886.02       1.7324262    0.0073169334
      3889.90       1.7388494    0.0072941351
      3893.79       1.7450885    0.0072747932
      3897.69       1.7504180    0.0073478368
      3901.59       1.7560312    0.0072150481
      3905.49       1.7596602    0.0072951071
      3909.39       1.7648992    0.0072680243
      3913.30       1.7699149    0.0072447926
      3917.22       1.7752255    0.0072154957
      3921.13       1.7795023    0.0071886059
      3925.06       1.7842356    0.0071656348
      3928.98       1.7875417    0.0071361754
      3932.91       1.7892754    0.0071096314
      3936.84       1.7923399    0.0071904285
      3940.78       1.7931092    0.0071715337
      3944.72       1.7862147    0.0071337946
      3948.67       1.7826843    0.0071112513
      3952.61       1.7810059    0.0070929660
      3956.57       1.7765607    0.0070545547
      3960.52       1.7752326    0.0070327171
      3964.48       1.7732386    0.0071137032
      3968.45       1.7730960    0.0070875375
      3972.42       1.7724390    0.0069548743
      3976.39       1.7687884    0.0070333406
      3980.37       1.7685769    0.0070082075
      3984.35       1.7727814    0.0069823835
      3988.33       1.7729250    0.0069535335
      3992.32       1.7738857    0.0070381171
      3996.31       1.7741456    0.0070186380
      4000.31       1.7760882    0.0068743735
      4004.31       1.7792228    0.0069589897
      4008.31       1.7776344    0.0069410840
      4012.32       1.7757872    0.0069024107
      4016.33       1.7768997    0.0068808879
      4020.35       1.7766508    0.0069650797
      4024.37       1.7822501    0.0068236269
      4028.40       1.7839312    0.0068038772
      4032.42       1.7824791    0.0068839370
      4036.46       1.7814585    0.0068600590
      4040.50       1.7828238    0.0068315000
      4044.54       1.7801510    0.0068039025
      4048.58       1.7765240    0.0068967066
      4052.63       1.7771034    0.0067503364
      4056.68       1.7776918    0.0068386331
      4060.74       1.7758203    0.0068191453
      4064.80       1.7711590    0.0066704948
      4068.86       1.7665784    0.0067600034
      4072.93       1.7597670    0.0067433550
      4077.01       1.7492130    0.0067033536
      4081.08       1.7415980    0.0066831584
      4085.17       1.7316294    0.0067687685
      4089.25       1.7214723    0.0066253379
      4093.34       1.7136978    0.0067160532
      4097.43       1.7093496    0.0066878313
      4101.53       1.7065441    0.0066654470
      4105.63       1.7044622    0.0066335036
      4109.74       1.7043515    0.0066091556
      4113.85       1.7030555    0.0065812025
      4117.96       1.7018279    0.0065533514
      4122.08       1.7017482    0.0065307074
      4126.20       1.7022288    0.0064994418
      4130.33       1.7068546    0.0063614854
      4134.46       1.7147328    0.0064472396
      4138.59       1.7180092    0.0064204326
      4142.73       1.7194638    0.0063966402
      4146.88       1.7186717    0.0063666730
      4151.02       1.7150990    0.0062323583
      4155.18       1.7157454    0.0063144043
      4159.33       1.7170676    0.0061781002
      4163.49       1.7146857    0.0062634954
      4167.65       1.7160569    0.0062355075
      4171.82       1.7188846    0.0061054361
      4175.99       1.7245563    0.0061830503
      4180.17       1.7284236    0.0060513122
      4184.35       1.7291118    0.0061317485
      4188.54       1.7313709    0.0059983351
      4192.72       1.7319902    0.0059810464
      4196.92       1.7295193    0.0059464385
      4201.11       1.7301432    0.0059270083
      4205.31       1.7330609    0.0060019756
      4209.52       1.7337598    0.0058740042
      4213.73       1.7351290    0.0059511989
      4217.94       1.7363277    0.0058219534
      4222.16       1.7355877    0.0058057384
      4226.38       1.7320479    0.0057707473
      4230.61       1.7313184    0.0057527375
      4234.84       1.7354038    0.0057203002
      4239.08       1.7373279    0.0057005924
      4243.32       1.7374244    0.0057731089
      4247.56       1.7407180    0.0056492287
      4251.81       1.7461007    0.0056352185
      4256.06       1.7557849    0.0055985664
      4260.32       1.7545820    0.0055830960
      4264.58       1.7518427    0.0055485305
      4268.84       1.7532977    0.0055317064
      4273.11       1.7524387    0.0054990629
      4277.38       1.7513494    0.0054809704
      4281.66       1.7502214    0.0053600412
      4285.94       1.7504165    0.0054308413
      4290.23       1.7486843    0.0053122863
      4294.52       1.7461012    0.0053812622
      4298.81       1.7418684    0.0052649247
      4303.11       1.7371843    0.0053321904
      4307.42       1.7334499    0.0052179028
      4311.72       1.7312403    0.0052835567
      4316.04       1.7307591    0.0051711715
      4320.35       1.7279830    0.0052353485
      4324.67       1.7277844    0.0051247756
      4329.00       1.7248348    0.0051019890
      4333.33       1.7211113    0.0050786224
      4337.66       1.7160190    0.0050552936
      4342.00       1.7075229    0.0050326755
      4346.34       1.7051333    0.0050089049
      4350.69       1.7033558    0.0049869333
      4355.04       1.6991101    0.0049628229
      4359.39       1.6930592    0.0049414008
      4363.75       1.6904401    0.0049170111
      4368.12       1.6888126    0.0048960467
      4372.48       1.6894093    0.0048714800
      4376.86       1.6893036    0.0048508408
      4381.23       1.6917235    0.0048262028
      4385.61       1.6978791    0.0048058211
      4390.00       1.7015436    0.0047811750
      4394.39       1.7072581    0.0047609344
      4398.79       1.7146798    0.0047363944
      4403.18       1.7234613    0.0047162376
      4407.59       1.7287473    0.0046918729
      4412.00       1.7316913    0.0046716792
      4416.41       1.7371093    0.0046476027
      4420.82       1.7433069    0.0046273219
      4425.25       1.7505058    0.0046035663
      4429.67       1.7580307    0.0045831206
      4434.10       1.7641013    0.0045598392
      4438.54       1.7681309    0.0044675190
      4442.97       1.7713799    0.0045163828
      4447.42       1.7763426    0.0044252871
      4451.86       1.7833763    0.0044732147
      4456.32       1.7913373    0.0044518174
      4460.77       1.7984446    0.0044303628
      4465.24       1.8050358    0.0044085081
      4469.70       1.8099156    0.0043140143
      4474.17       1.8132312    0.0043654966
      4478.65       1.8177482    0.0042725583
      4483.12       1.8246980    0.0043227653
      4487.61       1.8297062    0.0042314691
      4492.09       1.8317639    0.0042803775
      4496.59       1.8353631    0.0041907671
      4501.08       1.8392925    0.0042383413
      4505.58       1.8410525    0.0041504794
      4510.09       1.8431054    0.0041966808
      4514.60       1.8438400    0.0041106307
      4519.12       1.8463143    0.0040853779
      4523.63       1.8478250    0.0040712500
      4528.16       1.8478007    0.0040453053
      4532.69       1.8478050    0.0040323684
      4537.22       1.8481841    0.0040056974
      4541.76       1.8457683    0.0039940120
      4546.30       1.8433031    0.0039665818
      4550.85       1.8384683    0.0038836575
      4555.40       1.8354386    0.0039279976
      4559.95       1.8293569    0.0039042702
      4564.51       1.8221531    0.0038899776
      4569.08       1.8149340    0.0038653464
      4573.65       1.8101035    0.0038525602
      4578.22       1.8019790    0.0038269950
      4582.80       1.7967057    0.0037476461
      4587.38       1.7909621    0.0037892637
      4591.97       1.7870156    0.0037095661
      4596.56       1.7820992    0.0037521920
      4601.16       1.7786006    0.0036720879
      4605.76       1.7754154    0.0037158143
      4610.37       1.7727452    0.0036913063
      4614.98       1.7666785    0.0036147542
      4619.59       1.7610113    0.0036545876
      4624.21       1.7531113    0.0035775631
      4628.84       1.7443275    0.0036186384
      4633.47       1.7354338    0.0035410914
      4638.10       1.7255168    0.0035218142
      4642.74       1.7182898    0.0035593689
      4647.38       1.7086100    0.0034849629
      4652.03       1.6989125    0.0035239129
      4656.68       1.6925946    0.0034489124
      4661.34       1.6879171    0.0034305263
      4666.00       1.6835022    0.0034137168
      4670.67       1.6817972    0.0033940958
      4675.33       1.6812961    0.0034314079
      4680.01       1.6808770    0.0033585786
      4684.69       1.6799444    0.0033407347
      4689.38       1.6801415    0.0033239949
      4694.07       1.6827642    0.0033048665
      4698.76       1.6862084    0.0032376721
      4703.46       1.6888818    0.0032700066
      4708.16       1.6915953    0.0032524173
      4712.87       1.6942363    0.0032361792
      4717.58       1.6945227    0.0032172712
      4722.30       1.6963379    0.0031520706
      4727.03       1.6989298    0.0031832201
      4731.75       1.7015167    0.0031656345
      4736.48       1.7028579    0.0030997873
      4741.22       1.7046323    0.0031313699
      4745.96       1.7061455    0.0030685617
      4750.71       1.7081237    0.0030983149
      4755.46       1.7112560    0.0030805196
      4760.22       1.7108866    0.0030173132
      4764.97       1.7105931    0.0030473381
      4769.74       1.7111633    0.0029872213
      4774.51       1.7104223    0.0029670740
      4779.29       1.7118941    0.0029972589
      4784.07       1.7153263    0.0029370198
      4788.85       1.7175474    0.0029177530
      4793.64       1.7192557    0.0029082574
      4798.43       1.7195731    0.0028877645
      4803.23       1.7207430    0.0028692734
      4808.03       1.7217008    0.0028591248
      4812.84       1.7257218    0.0028393943
      4817.66       1.7307762    0.0028676668
      4822.48       1.7369485    0.0028109216
      4827.30       1.7435513    0.0027918459
      4832.12       1.7510037    0.0027838952
      4836.96       1.7608206    0.0027635854
      4841.79       1.7678070    0.0027450768
      4846.63       1.7742597    0.0027368290
      4851.48       1.7775251    0.0027170786
      4856.33       1.7815839    0.0026990515
      4861.19       1.7842037    0.0026448166
      4866.05       1.7887834    0.0026713705
      4870.92       1.7931101    0.0026537410
      4875.79       1.7980564    0.0026004610
      4880.66       1.7991919    0.0026264424
      4885.55       1.8005238    0.0026091418
      4890.43       1.8030865    0.0025567484
      4895.32       1.8068029    0.0025822777
      4900.22       1.8099434    0.0025652420
      4905.12       1.8142294    0.0025136694
      4910.02       1.8191185    0.0025388795
      4914.94       1.8246554    0.0024865355
      4919.85       1.8310973    0.0024712381
      4924.77       1.8377346    0.0024962490
      4929.70       1.8427769    0.0024445877
      4934.62       1.8477635    0.0024294641
      4939.56       1.8542334    0.0024155017
      4944.50       1.8590252    0.0024035103
      4949.44       1.8633230    0.0023883619
      4954.39       1.8686384    0.0023743969
      4959.35       1.8747731    0.0023631090
      4964.31       1.8810435    0.0023479839
      4969.27       1.8877871    0.0023339783
      4974.24       1.8937386    0.0023566696
      4979.22       1.9015063    0.0023083517
      4984.20       1.9105586    0.0022942804
      4989.18       1.9196440    0.0022812774
      4994.17       1.9270175    0.0022695008
      4999.16       1.9364996    0.0022553444
      5004.16       1.9448015    0.0022421906
      5009.17       1.9554230    0.0021974356
      5014.18       1.9649165    0.0022172026
      5019.19       1.9730841    0.0022038901
      5024.21       1.9845649    0.0021608614
      5029.23       1.9986954    0.0021799198
      5034.26       2.0134593    0.0021664358
      5039.30       2.0281628    0.0021538523
      5044.34       2.0386702    0.0021108721
      5049.39       2.0505901    0.0021298737
      5054.43       2.0625494    0.0021170714
      5059.49       2.0746579    0.0020760249
      5064.55       2.0860587    0.0020623673
      5069.61       2.0974443    0.0020812380
      5074.68       2.1076322    0.0020421697
      5079.76       2.1193779    0.0020283350
      5084.84       2.1287983    0.0020152449
      5089.92       2.1372141    0.0020339074
      5095.01       2.1455488    0.0019953498
      5100.11       2.1526306    0.0019820501
      5105.21       2.1605208    0.0019694431
      5110.31       2.1663622    0.0019878295
      5115.42       2.1727717    0.0019499632
      5120.54       2.1792190    0.0019371192
      5125.66       2.1894425    0.0019249342
      5130.79       2.1969355    0.0019190501
      5135.92       2.2046674    0.0019059738
      5141.05       2.2081204    0.0018935235
      5146.20       2.2143018    0.0018816882
      5151.34       2.2224364    0.0018456520
      5156.49       2.2291584    0.0018633682
      5161.65       2.2341473    0.0018512564
      5166.81       2.2406854    0.0018397154
      5171.98       2.2456049    0.0018044727
      5177.15       2.2508063    0.0018221482
      5182.33       2.2535409    0.0018103229
      5187.51       2.2552474    0.0017990339
      5192.70       2.2580369    0.0017645288
      5197.89       2.2612063    0.0017543341
      5203.09       2.2635225    0.0017707557
      5208.29       2.2638375    0.0017596770
      5213.50       2.2619532    0.0017258609
      5218.72       2.2605175    0.0017158258
      5223.93       2.2607023    0.0017062316
      5229.16       2.2576358    0.0017217049
      5234.39       2.2549570    0.0016885229
      5239.62       2.2497626    0.0016786204
      5244.86       2.2446508    0.0016691257
      5250.11       2.2407850    0.0016600344
      5255.36       2.2349477    0.0016748579
      5260.61       2.2280576    0.0016427863
      5265.87       2.2207953    0.0016333846
      5271.14       2.2119310    0.0016243558
      5276.41       2.2032639    0.0016156900
      5281.69       2.1941377    0.0016084093
      5286.97       2.1852098    0.0015990865
      5292.26       2.1766244    0.0015901115
      5297.55       2.1685743    0.0015814787
      5302.85       2.1618976    0.0015731811
      5308.15       2.1497298    0.0015438875
      5313.46       2.1371786    0.0015573943
      5318.77       2.1255859    0.0015487939
      5324.09       2.1145330    0.0015405106
      5329.42       2.1024598    0.0015325244
      5334.75       2.0924824    0.0015045074
      5340.08       2.0813288    0.0014960692
      5345.42       2.0703955    0.0015094552
      5350.77       2.0612248    0.0015014896
      5356.12       2.0498751    0.0014937884
      5361.48       2.0384497    0.0014672374
      5366.83       2.0262253    0.0014591208
      5372.20       2.0146327    0.0014512687
      5377.58       2.0028855    0.0014436704
      5382.95       1.9901921    0.0014570557
      5388.34       1.9761834    0.0014321362
      5393.72       1.9616917    0.0014243160
      5399.12       1.9479034    0.0014167410
      5404.52       1.9336842    0.0014094016
      5409.92       1.9157901    0.0014022944
      5415.33       1.8975524    0.0013954042
      5420.75       1.8820637    0.0013917638
      5426.17       1.8665708    0.0013844468
      5431.60       1.8512016    0.0013773522
      5437.03       1.8377779    0.0013704729
      5442.47       1.8251881    0.0013638031
      5447.91       1.8132249    0.0013573348
      5453.36       1.8027535    0.0013337839
      5458.81       1.7926274    0.0013277499
      5464.27       1.7823009    0.0013410193
      5469.73       1.7717382    0.0013345611
      5475.20       1.7619952    0.0013282975
      5480.68       1.7518840    0.0013222144
      5486.16       1.7405317    0.0013163139
      5491.65       1.7284110    0.0012937395
      5497.14       1.7162838    0.0012882272
      5502.64       1.7056662    0.0012828795
      5508.14       1.6944630    0.0012776888
      5513.65       1.6832354    0.0012901986
      5519.16       1.6719535    0.0012846552
      5524.68       1.6612335    0.0012792747
      5530.20       1.6523616    0.0012575704
      5535.73       1.6443719    0.0012525444
      5541.27       1.6374697    0.0012476644
      5546.81       1.6310248    0.0012429260
      5552.36       1.6254666    0.0012383267
      5557.91       1.6218398    0.0012338675
      5563.47       1.6187269    0.0012295381
      5569.04       1.6133449    0.0012253401
      5574.60       1.6084072    0.0012208749
      5580.18       1.6047829    0.0012164459
      5585.76       1.6006183    0.0012121427
      5591.35       1.5942730    0.0012079679
      5596.94       1.5881637    0.0012039220
      5602.53       1.5826982    0.0011999993
      5608.14       1.5776894    0.0011961929
      5613.75       1.5722125    0.0011925043
      5619.36       1.5669297    0.0011889354
      5624.98       1.5627181    0.0011702110
      5630.60       1.5578376    0.0011665355
      5636.23       1.5541103    0.0011629755
      5641.87       1.5513844    0.0011595279
      5647.51       1.5483811    0.0011561896
      5653.16       1.5462090    0.0011529614
      5658.82       1.5440331    0.0011648902
      5664.47       1.5427855    0.0011618183
      5670.14       1.5419132    0.0011588468
      5675.81       1.5408643    0.0011559790
      5681.48       1.5396916    0.0011532149
      5687.17       1.5363335    0.0011364868
      5692.85       1.5309797    0.0011336819
      5698.55       1.5240005    0.0011309803
      5704.25       1.5178179    0.0011283808
      5709.95       1.5103965    0.0011258800
      5715.66       1.5013947    0.0011234780
      5721.38       1.4919981    0.0011211731
      5727.10       1.4835573    0.0011189625
      5732.83       1.4742537    0.0011168415
      5738.56       1.4640757    0.0011148203
      5744.30       1.4546951    0.0011128878
      5750.04       1.4464742    0.0011110433
      5755.79       1.4379905    0.0011092882
      5761.55       1.4311356    0.0011076274
      5767.31       1.4247191    0.0011060843
      5773.08       1.4181536    0.0010904528
      5778.85       1.4120037    0.0010891890
      5784.63       1.4066073    0.0010879721
      5790.41       1.3994522    0.0010868131
      5796.21       1.3904634    0.0010858053
      5802.00       1.3796567    0.0010850594
      5807.81       1.3691711    0.0010847252
      5813.61       1.3588333    0.0010847340
      5819.43       1.3487664    0.0010848626
      5825.25       1.3391307    0.0010851060
      5831.07       1.3316446    0.0010855743
      5836.90       1.3252384    0.0010861190
      5842.74       1.3187922    0.0010863908
      5848.58       1.3151559    0.0010864015
      5854.43       1.3121615    0.0010863159
      5860.29       1.3101303    0.0010861516
      5866.15       1.3084123    0.0010858758
      5872.01       1.3083781    0.0010855159
      5877.89       1.3079194    0.0010851960
      5883.76       1.3078021    0.0010850415
      5889.65       1.3080330    0.0010850057
      5895.54       1.3081389    0.0010849422
      5901.43       1.3078731    0.0010847892
      5907.34       1.3064005    0.0010845798
      5913.24       1.3037881    0.0010843648
      5919.16       1.3013724    0.0010842688
      5925.08       1.2989098    0.0010842041
      5931.00       1.2971990    0.0010840291
      5936.93       1.2960418    0.0010839392
      5942.87       1.2956495    0.0010842010
      5948.81       1.2946124    0.0010846694
      5954.76       1.2942118    0.0010725526
      5960.72       1.2935526    0.0010730324
      5966.68       1.2914881    0.0010737574
      5972.64       1.2890217    0.0010746925
      5978.62       1.2869412    0.0010757743
      5984.60       1.2857851    0.0010769698
      5990.58       1.2829771    0.0010782981
      5996.57       1.2807392    0.0010797582
      6002.57       1.2779961    0.0010804093
      6008.57       1.2754356    0.0010829316
      6014.58       1.2739363    0.0010846575
      6020.60       1.2708016    0.0010864737
      6026.62       1.2671602    0.0010883914
      6032.65       1.2650123    0.0010903999
      6038.68       1.2631540    0.0010924979
      6044.72       1.2611307    0.0010818650
      6050.76       1.2618313    0.0010839175
      6056.81       1.2637018    0.0010860534
      6062.87       1.2652764    0.0010882749
      6068.93       1.2680527    0.0010905807
      6075.00       1.2715536    0.0010929730
      6081.08       1.2762592    0.0011100220
      6087.16       1.2824123    0.0011126433
      6093.25       1.2902805    0.0011153577
      6099.34       1.2979301    0.0011181657
      6105.44       1.3043086    0.0011210730
      6111.54       1.3115033    0.0011117617
      6117.66       1.3183950    0.0011145449
      6123.78       1.3246490    0.0011174221
      6129.90       1.3310635    0.0011203940
      6136.03       1.3361966    0.0011234596
      6142.17       1.3410470    0.0011266251
      6148.31       1.3460326    0.0011299016
      6154.46       1.3496781    0.0011333378
      6160.61       1.3537503    0.0011371195
      6166.77       1.3591330    0.0011296785
      6172.94       1.3633824    0.0011480719
      6179.11       1.3652134    0.0011516763
      6185.29       1.3663334    0.0011560175
      6191.48       1.3670715    0.0011610635
      6197.67       1.3686320    0.0011667939
      6203.87       1.3703351    0.0011731212
      6210.07       1.3714661    0.0011681548
      6216.28       1.3731254    0.0011748612
      6222.50       1.3750166    0.0011814373
      6228.72       1.3775523    0.0011876591
      6234.95       1.3792749    0.0012090643
      6241.19       1.3817399    0.0012133432
      6247.42       1.3857438    0.0012168644
      6253.67       1.3896185    0.0012069326
      6259.93       1.3927420    0.0012094064
      6266.19       1.3960274    0.0012118334
      6272.46       1.3999119    0.0012146557
      6278.73       1.4036784    0.0012182801
      6285.01       1.4058203    0.0012225464
      6291.29       1.4063703    0.0012281606
      6297.58       1.4058037    0.0012318882
      6303.88       1.4046645    0.0012360965
      6310.19       1.4026786    0.0012404953
      6316.50       1.4011627    0.0012451199
      6322.81       1.3976667    0.0012500028
      6329.14       1.3938530    0.0012414973
      6335.47       1.3911715    0.0012625899
      6341.80       1.3873201    0.0012677023
      6348.14       1.3835878    0.0012730755
      6354.49       1.3791851    0.0012787045
      6360.85       1.3746754    0.0012713893
      6367.21       1.3704656    0.0012767634
      6373.57       1.3654766    0.0012824145
      6379.95       1.3606865    0.0013055496
      6386.33       1.3564720    0.0013120688
      6392.72       1.3529773    0.0013191271
      6399.11       1.3495511    0.0013132664
      6405.51       1.3463717    0.0013200024
      6411.92       1.3434774    0.0013268003
      6418.32       1.3419305    0.0013517323
      6424.74       1.3399184    0.0013458587
      6431.17       1.3380819    0.0013521356
      6437.60       1.3362231    0.0013583016
      6444.04       1.3336179    0.0013643888
      6450.48       1.3313025    0.0013704800
      6456.94       1.3305990    0.0013814150
      6463.39       1.3279495    0.0013871314
      6469.85       1.3241260    0.0013932101
      6476.33       1.3192150    0.0013996647
      6482.80       1.3126624    0.0013929968
      6489.28       1.3055718    0.0013997542
      6495.77       1.2978059    0.0014240583
      6502.27       1.2902479    0.0014301488
      6508.77       1.2812601    0.0014364716
      6515.28       1.2717920    0.0014294819
      6521.80       1.2619924    0.0014365344
      6528.32       1.2519558    0.0014610437
      6534.85       1.2419120    0.0014673615
      6541.38       1.2327962    0.0014602304
      6547.92       1.2243959    0.0014674605
      6554.47       1.2163758    0.0014934761
      6561.03       1.2092870    0.0014864144
      6567.59       1.2026998    0.0014938349
      6574.16       1.1973352    0.0015015802
      6580.73       1.1925955    0.0015096274
      6587.31       1.1884940    0.0015215537
      6593.90       1.1838163    0.0015291296
      6600.50       1.1790028    0.0015372134
      6607.10       1.1736344    0.0015455451
      6613.70       1.1680781    0.0015579264
      6620.32       1.1631758    0.0015658904
      6626.94       1.1575739    0.0015741808
      6633.57       1.1513161    0.0015672882
      6640.20       1.1450504    0.0015750965
      6646.84       1.1383142    0.0016036707
      6653.49       1.1320593    0.0016122767
      6660.14       1.1259521    0.0016050571
      6666.80       1.1192856    0.0016131674
      6673.47       1.1134202    0.0016425751
      6680.14       1.1065202    0.0016357883
      6686.82       1.1001652    0.0016438595
      6693.51       1.0944694    0.0016523106
      6700.20       1.0886689    0.0016826152
      6706.90       1.0818555    0.0016752777
      6713.61       1.0744515    0.0016837192
      6720.32       1.0668542    0.0017144445
      6727.05       1.0587390    0.0017074180
      6733.77       1.0503519    0.0017163246
      6740.51       1.0423475    0.0017275408
      6747.25       1.0347032    0.0017496417
      6754.00       1.0261847    0.0017584220
      6760.75       1.0178351    0.0017659917
      6767.51       1.0099589    0.0017651737
      6774.28       1.0025167    0.0018081283
      6781.05      0.99475655    0.0018325407
      6787.84      0.98729498    0.0018497660
      6794.62      0.98003547    0.0019140839
      6801.42      0.97361409    0.0019496722
      6808.22      0.96616444    0.0019700926
      6815.03      0.95969005    0.0020347272
      6821.85      0.95366869    0.0020590429
      6828.67      0.94693276    0.0020552662
      6835.50      0.93977021    0.0020636174
      6842.33      0.93322176    0.0020843929
      6849.17      0.92709209    0.0020536836
      6856.02      0.92118377    0.0020433365
      6862.88      0.91522972    0.0020292436
      6869.74      0.90891868    0.0020258531
      6876.61      0.90237020    0.0020286472
      6883.49      0.89586790    0.0020267174
      6890.37      0.88880594    0.0020241704
      6897.27      0.88181743    0.0020271568
      6904.16      0.87420174    0.0020340651
      6911.07      0.86629234    0.0020390150
      6917.98      0.85767394    0.0020261382
      6924.89      0.84928186    0.0020567009
      6931.82      0.84067683    0.0020658790
      6938.75      0.83196335    0.0020565124
      6945.69      0.82312390    0.0020919698
      6952.64      0.81410679    0.0020834835
      6959.59      0.80466603    0.0020924033
      6966.55      0.79572939    0.0021270411
      6973.52      0.78756901    0.0021154250
      6980.49      0.77961204    0.0021232931
      6987.47      0.77291742    0.0021387583
      6994.46      0.76648663    0.0021472315
      7001.46      0.76023347    0.0021825976
      7008.46      0.75480520    0.0021718113
      7015.46      0.74933431    0.0021807205
      7022.48      0.74409673    0.0021978813
      7029.51      0.73882821    0.0022071193
      7036.53      0.73298512    0.0022179449
      7043.57      0.72791748    0.0022379164
      7050.62      0.72200598    0.0022498583
      7057.66      0.71644409    0.0022722933
      7064.72      0.70932518    0.0022854310
      7071.79      0.70090117    0.0022840476
      7078.86      0.69124698    0.0023332802
      7085.94      0.68032855    0.0023572125
      7093.03      0.66743664    0.0023700902
      7100.12      0.65597154    0.0024375710
      7107.22      0.64475707    0.0024546745
      7114.33      0.63354800    0.0025215417
      7121.44      0.62293066    0.0025269794
      7128.56      0.61231794    0.0025831397
      7135.69      0.60266429    0.0025769047
      7142.83      0.59481091    0.0025910112
      7149.97      0.58772733    0.0026060682
      7157.12      0.58199445    0.0026132235
      7164.28      0.57725844    0.0026482560
      7171.44      0.57433265    0.0026360245
      7178.62      0.57243449    0.0026504238
      7185.80      0.57130568    0.0026731836
      7192.98      0.56926557    0.0026889860
      7200.17      0.56668692    0.0027093280
      7207.38      0.56415498    0.0027197125
      7214.58      0.56058682    0.0027288129
      7221.80      0.55739143    0.0027318528
      7229.02      0.55454117    0.0027071172
      7236.25      0.55343792    0.0027426288
      7243.49      0.55249085    0.0027182272
      7250.73      0.55080765    0.0027492020
      7257.98      0.54819511    0.0027215617
      7265.24      0.54691118    0.0027508767
      7272.51      0.54611938    0.0027257458
      7279.78      0.54534837    0.0027584943
      7287.06      0.54434969    0.0027369998
      7294.35      0.54370336    0.0027722488
      7301.64      0.54349479    0.0027548393
      7308.94      0.54271398    0.0027627324
      7316.25      0.54170278    0.0027780699
      7323.57      0.54044323    0.0027862020
      7330.89      0.53995295    0.0028006488
      7338.22      0.53871125    0.0028089769
      7345.56      0.53626834    0.0028251110
      7352.91      0.53370029    0.0028106523
      7360.26      0.53190747    0.0028526616
      7367.62      0.53000313    0.0028391393
      7374.99      0.52740036    0.0028821725
      7382.37      0.52393590    0.0028688940
      7389.75      0.52106353    0.0029128492
      7397.14      0.51924632    0.0029003040
      7404.53      0.51736462    0.0029449863
      7411.94      0.51521044    0.0029325671
      7419.35      0.51281008    0.0029778555
      7426.77      0.51149257    0.0029657851
      7434.20      0.50872452    0.0029862919
      7441.63      0.50673166    0.0029997989
      7449.07      0.50516837    0.0030255368
      7456.52      0.50511552    0.0030536694
      7463.98      0.50542041    0.0031126392
      7471.45      0.50569437    0.0031473304
      7478.92      0.50559456    0.0031614054
      7486.40      0.50586819    0.0031515253
      7493.88      0.50690720    0.0032494056
      7501.38      0.50833917    0.0033415677
      7508.88      0.50880914    0.0035155464
      7516.39      0.50907936    0.0037616449
      7523.91      0.51021956    0.0039563408
      7531.43      0.51292116    0.0042811337
      7538.96      0.51416587    0.0045089404
      7546.50      0.51545004    0.0048139156
      7554.05      0.51777469    0.0049170887
      7561.60      0.51782377    0.0050722469
      7569.16      0.51341907    0.0049375398
      7576.73      0.51196864    0.0047539308
      7584.31      0.51581015    0.0046051759
      7591.89      0.51994360    0.0043078852
      7599.49      0.51357088    0.0040670621
      7607.09      0.51033623    0.0039438929
      7614.70      0.50799114    0.0038038174
      7622.31      0.50732962    0.0037150242
      7629.93      0.50580563    0.0036303633
      7637.56      0.50547602    0.0036011298
      7645.20      0.50732231    0.0035818474
      7652.85      0.51075313    0.0035627106
      7660.50      0.51205755    0.0035182639
      7668.16      0.51360599    0.0035483136
      7675.83      0.51709727    0.0035193853
      7683.50      0.52160509    0.0035604437
      7691.19      0.52564454    0.0035770980
      7698.88      0.52762747    0.0035582691
      7706.58      0.53023369    0.0036079253
      7714.29      0.53536561    0.0035918377
      7722.00      0.54213101    0.0036130794
      7729.73      0.54582988    0.0036656291
      7737.45      0.54492468    0.0036498118
      7745.19      0.54281480    0.0036720964
      7752.94      0.54437712    0.0036876970
      7760.69      0.54457162    0.0037094826
      7768.45      0.54378246    0.0037324522
      7776.22      0.54468536    0.0037484973
      7784.00      0.54804097    0.0037723215
      7791.78      0.55036972    0.0037976462
      7799.57      0.55062888    0.0038149961
      7807.37      0.55172247    0.0038411410
      7815.18      0.55647487    0.0038686099
      7822.99      0.56068514    0.0038535284
      7830.82      0.56348766    0.0039101966
      7838.65      0.56528785    0.0038917285
      7846.49      0.56921674    0.0039157050
      7854.34      0.57521999    0.0039716674
      7862.19      0.57948606    0.0039520533
      7870.05      0.58194620    0.0039751847
      7877.93      0.58383400    0.0039992433
      7885.80      0.58830353    0.0040116931
      7893.69      0.59577454    0.0040362148
      7901.58      0.59979111    0.0040621578
      7909.49      0.60250457    0.0040758340
      7917.40      0.60536564    0.0041006008
      7925.31      0.61043176    0.0041260244
      7933.24      0.61688820    0.0041069961
      7941.17      0.62062312    0.0041625456
      7949.11      0.62352702    0.0041855562
      7957.06      0.62742982    0.0041660581
      7965.02      0.63352808    0.0041890150
      7972.98      0.63896368    0.0042453665
      7980.96      0.64259144    0.0042687745
      7988.94      0.64412745    0.0042506062
      7996.93      0.64754974    0.0042772163
      8004.93      0.65019304    0.0043393028
      8012.93      0.65230912    0.0043297119
      8020.95      0.65387216    0.0043666644
      8028.97      0.65365683    0.0044100871
      8036.99      0.65322101    0.0044442307
      8045.03      0.65284297    0.0045026109
      8053.08      0.65154538    0.0045690733
      8061.13      0.64835946    0.0046410652
      8069.20      0.64604422    0.0046926484
      8077.26      0.64484431    0.0047724712
      8085.34      0.64539272    0.0048401753
      8093.43      0.64442528    0.0048826953
      8101.52      0.64461357    0.0048613470
      8109.62      0.64428730    0.0049328181
      8117.73      0.64760125    0.0049556838
      8125.85      0.64874618    0.0049743468
      8133.98      0.65344182    0.0049386267
      8142.11      0.65950236    0.0049490690
      8150.25      0.66715476    0.0050019508
      8158.41      0.67277632    0.0050131251
      8166.56      0.67838638    0.0049794508
      8174.73      0.68514694    0.0049952101
      8182.91      0.69137775    0.0050065810
      8191.09      0.69691222    0.0050574728
      8199.28      0.70148748    0.0050167485
      8207.48      0.70578832    0.0050222890
      8215.69      0.70839163    0.0050293575
      8223.91      0.71296974    0.0050484947
      8232.13      0.71974766    0.0050206223
      8240.36      0.72434808    0.0050792842
      8248.60      0.72763111    0.0050744417
      8256.85      0.72895904    0.0050708329
      8265.11      0.73092538    0.0050724518
      8273.37      0.73716546    0.0050295971
      8281.65      0.74220916    0.0050354099
      8289.93      0.74765370    0.0050432151
      8298.22      0.75079572    0.0050914742
      8306.52      0.75398981    0.0050998806
      8314.83      0.76019800    0.0050646634
      8323.14      0.76692528    0.0050785596
      8331.46      0.77179369    0.0050944681
      8339.80      0.77482791    0.0051103512
      8348.13      0.77653556    0.0051277363
      8356.48      0.77855050    0.0051399134
      8364.84      0.78093438    0.0051589263
      8373.21      0.78224347    0.0051789595
      8381.58      0.78347056    0.0051999364
      8389.96      0.78233471    0.0052219622
      8398.35      0.77850595    0.0052445332
      8406.75      0.77791176    0.0052170820
      8415.16      0.77828442    0.0052413092
      8423.57      0.77825678    0.0052656994
      8432.00      0.77453709    0.0052900021
      8440.43      0.76742386    0.0053553666
      8448.87      0.76258398    0.0053787968
      8457.32      0.76392370    0.0054015556
      8465.78      0.76281966    0.0053715738
      8474.25      0.75736277    0.0053936711
      8482.72      0.75026609    0.0054156664
      8491.20      0.74598587    0.0054379033
      8499.69      0.74335447    0.0054606277
      8508.19      0.73891487    0.0054834958
      8516.70      0.73260036    0.0055059767
      8525.22      0.72625876    0.0054757342
      8533.75      0.72061128    0.0054980961
      8542.28      0.71537813    0.0055213780
      8550.82      0.70944136    0.0055874991
      8559.37      0.70593878    0.0056115363
      8567.93      0.70203604    0.0056356890
      8576.50      0.69630046    0.0056600264
      8585.08      0.68894823    0.0056842403
      8593.66      0.68324899    0.0057081600
      8602.26      0.68060961    0.0056793570
      8610.86      0.67759733    0.0057020343
      8619.47      0.67308809    0.0057244918
      8628.09      0.66601476    0.0057467468
      8636.72      0.66402275    0.0057689753
      8645.36      0.66536572    0.0057914333
      8654.00      0.66425670    0.0058141959
      8662.66      0.65984384    0.0058375325
      8671.32      0.65602557    0.0058611864
      8679.99      0.65620071    0.0058846168
      8688.67      0.65794544    0.0059084582
      8697.36      0.65723031    0.0059328484
      8706.06      0.65432526    0.0059570985
      8714.76      0.65254097    0.0059813423
      8723.48      0.65415575    0.0059495973
      8732.21      0.65494491    0.0059736071
      8740.93      0.65321401    0.0059978001
      8749.68      0.64883030    0.0060220913
      8758.43      0.64695635    0.0060467150
      8767.19      0.64553794    0.0060720026
      8775.96      0.64285404    0.0060974868
      8784.73      0.64139575    0.0061242124
      8793.52      0.64116184    0.0061538240
      8802.31      0.64067308    0.0061857520
      8811.11      0.63594803    0.0062188150
      8819.92      0.62995051    0.0062574009
      8828.75      0.62595359    0.0063069024
      8837.57      0.62294826    0.0063628397
      8846.41      0.61824947    0.0064309221
      8855.26      0.61141123    0.0065162432
      8864.12      0.60393128    0.0066164999
      8872.98      0.59543507    0.0066864496
      8881.85      0.58665105    0.0068031972
      8890.73      0.58068891    0.0069206234
      8899.63      0.57584821    0.0070286973
      8908.52      0.57218654    0.0071164867
      8917.43      0.56868157    0.0071720873
      8926.35      0.56814605    0.0071946046
      8935.28      0.56790979    0.0071941547
      8944.22      0.57114339    0.0071804921
      8953.16      0.57448464    0.0071666175
      8962.11      0.57569078    0.0071680724
      8971.08      0.57492161    0.0071843863
      8980.05      0.57461614    0.0072074027
      8989.03      0.57959551    0.0072031792
      8998.02      0.58335521    0.0072640376
      9007.02      0.58084511    0.0073250798
      9016.02      0.57457582    0.0073833637
      9025.04      0.57334241    0.0074340495
      9034.07      0.57306951    0.0074724838
      9043.10      0.56721208    0.0074983667
      9052.14      0.55632816    0.0075871140
      9061.20      0.55254254    0.0076050084
      9070.26      0.55869372    0.0075566529
      9079.33      0.56522065    0.0075580315
      9088.41      0.56610942    0.0075395076
      9097.50      0.56089326    0.0075080700
      9106.60      0.56025917    0.0074776790
      9115.70      0.56785854    0.0074520884
      9124.82      0.57668912    0.0074314822
      9133.94      0.57838865    0.0073827983
      9143.08      0.57527386    0.0074047717
      9152.22      0.57679264    0.0074419644
      9161.37      0.58151141    0.0075053458
      9170.54      0.58096826    0.0076713302
      9179.71      0.56846789    0.0078144782
      9188.89      0.55280364    0.0080112827
      9198.08      0.54172225    0.0082615235
      9207.28      0.53267879    0.0086119789
      9216.48      0.51399221    0.0090371354
      9225.70      0.48594231    0.0095290678
      9234.92      0.46006557     0.010063452
      9244.16      0.44830657     0.010602470
      9253.40      0.44038295     0.011258431
      9262.66      0.42675352     0.011613627
      9271.92      0.40475273     0.011807720
      9281.20      0.39684766     0.011825045
      9290.48      0.40164485     0.011710423
      9299.77      0.41230362     0.011341102
      9309.07      0.40880317     0.011130001
      9318.38      0.40125081     0.010961974
      9327.69      0.40085721     0.010943711
      9337.02      0.40284995     0.010846609
      9346.36      0.40418907     0.010919893
      9355.71      0.39691627     0.011013588
      9365.07      0.38301188     0.011082692
      9374.43      0.37290278     0.011165282
      9383.80      0.37295899     0.011224843
      9393.19      0.36999111     0.011158974
      9402.58      0.36184441     0.011050525
      9411.98      0.35526665     0.010979445
      9421.40      0.35799974     0.010842455
      9430.82      0.36923788     0.010772900
      9440.25      0.37541744     0.010797241
      9449.69      0.37080232     0.010742555
      9459.14      0.36435332     0.010579093
      9468.60      0.37062760     0.010350158
      9478.07      0.38199735     0.010270888
      9487.55      0.38169869     0.010086606
      9497.04      0.37024484    0.0098894426
      9506.53      0.36746162    0.0096423507
      9516.04      0.37767816    0.0095477531
      9525.56      0.38713019    0.0093484400
      9535.08      0.38569526    0.0091530180
      9544.62      0.38053673    0.0089180945
      9554.16      0.38066365    0.0087927939
      9563.72      0.38635264    0.0085749107
      9573.29      0.38750482    0.0083809961
      9582.85      0.38333172    0.0081654873
      9592.44      0.38257127    0.0080741129
      9602.03      0.38271246    0.0079345674
      9611.63      0.37903901    0.0078238888
      9621.25      0.37207231    0.0077447938
      9630.87      0.36628824    0.0076335511
      9640.50      0.36595013    0.0076112787
      9650.14      0.36146499    0.0075554064
      9659.79      0.35286040    0.0075144229
      9669.45      0.34214545    0.0074272068
      9679.12      0.34079609    0.0073807780
      9688.80      0.34568325    0.0073771224
      9698.49      0.34564102    0.0073220711
      9708.19      0.34005358    0.0072598424
      9717.90      0.33872291    0.0071568903
      9727.62      0.34313416    0.0070841002
      9737.34      0.35411651    0.0070185750
      9747.08      0.36483956    0.0069562096
      9756.83      0.37256683    0.0069065239
      9766.59      0.38034659    0.0068519636
      9776.35      0.39308442    0.0068078306
      9786.13      0.40901714    0.0067679543
      9795.92      0.42645535    0.0067328002
      9805.71      0.44140853    0.0066666950
      9815.52      0.45878816    0.0066351128
      9825.34      0.47580018    0.0066046670
      9835.17      0.49055166    0.0066061390
      9845.00      0.50975947    0.0065823965
      9854.84      0.53004597    0.0065621209
      9864.70      0.55044894    0.0065108428
      9874.56      0.56926001    0.0064903334
      9884.44      0.58390241    0.0064707077
      9894.32      0.59826282    0.0064546187
      9904.22      0.61473528    0.0064393612
      9914.13      0.63149801    0.0063945340
      9924.04      0.64530714    0.0063801059
      9933.96      0.65614766    0.0063661574
      9943.90      0.66639403    0.0063527604
      9953.84      0.67609591    0.0063902655
      9963.79      0.68685971    0.0064848504
      9973.76      0.69877894    0.0065694261
      9983.74      0.71126052    0.0067117591
      9993.72      0.71960778    0.0068563015
