# starting wavelength =        3678.2800
# ending wavelength =        7455.9400
# O2 telluric scale =        0
# O2 telluric shift =        0
# H2O telluric scale =        0
# H2O telluric shift =        0
      3681.83      0.77903392     0.049908624
      3685.51      0.80340028     0.041080977
      3689.20      0.80997920     0.035509739
      3692.88      0.81292541     0.031121030
      3696.58      0.81517161     0.027671901
      3700.27      0.81960148     0.025494261
      3703.98      0.82235406     0.023309828
      3707.68      0.82714168     0.021620431
      3711.39      0.83153656     0.020091408
      3715.10      0.83237227     0.019120634
      3718.81      0.83477602     0.018360530
      3722.53      0.84671155     0.017782652
      3726.26      0.85495751     0.017262771
      3729.98      0.85544842     0.016838868
      3733.71      0.85419242     0.016378716
      3737.45      0.84710464     0.016089390
      3741.18      0.84691582     0.015843175
      3744.93      0.84307075     0.015632167
      3748.67      0.82981688     0.015491771
      3752.42      0.80359962     0.015522646
      3756.17      0.78804809     0.015553422
      3759.93      0.79415583     0.015413877
      3763.69      0.79480444     0.015444049
      3767.45      0.80236727     0.015477353
      3771.22      0.82236771     0.015412649
      3774.99      0.83608778     0.015368864
      3778.77      0.85011149     0.015399943
      3782.54      0.85397512     0.015337204
      3786.33      0.86434018     0.015370541
      3790.11      0.86553093     0.015327907
      3793.90      0.87224114     0.015262170
      3797.70      0.87840017     0.015296033
      3801.50      0.88718276     0.015332535
      3805.30      0.88672680     0.015187792
      3809.10      0.88988076     0.015224783
      3812.91      0.90498006     0.015160325
      3816.73      0.91393108     0.015196728
      3820.54      0.92867664     0.015233782
      3824.36      0.93788785     0.015088304
      3828.19      0.95244710     0.015126183
      3832.02      0.95687919     0.015163057
      3835.85      0.96325934     0.015101578
      3839.68      0.96689073     0.015139918
      3843.52      0.96805980     0.015097912
      3847.37      0.96821809     0.015032702
      3851.22      0.96276191     0.015071505
      3855.07      0.95499274     0.015010504
      3858.92      0.94886357     0.015050410
      3862.78      0.94185326     0.015092828
      3866.64      0.94088212     0.014943541
      3870.51      0.93418138     0.014984512
      3874.38      0.92419617     0.015030063
      3878.26      0.94510104     0.014965895
      3882.13      0.95328383     0.015009952
      3886.02      0.95165084     0.014949942
      3889.90      0.95206239     0.014902061
      3893.79      0.94107501     0.014950613
      3897.69      0.92621545     0.014886184
      3901.59      0.92672391     0.014931953
      3905.49      0.92624335     0.014871675
      3909.39      0.92891740     0.014918343
      3913.30      0.92939454     0.014967304
      3917.22      0.93246406     0.014811972
      3921.13      0.94675726     0.014859173
      3925.06      0.95944874     0.014798098
      3928.98      0.95781333     0.014849071
      3932.91      0.95572422     0.014899396
      3936.84      0.95755412     0.014838572
      3940.78      0.95071741     0.014892056
      3944.72      0.95108348     0.014829486
      3948.67      0.95138570     0.014884912
      3952.61      0.95824775     0.014941321
      3956.57      0.97114117     0.014775784
      3960.52      0.98476466     0.014835566
      3964.48      0.99583068     0.014771232
      3968.45       1.0073603     0.014827398
      3972.42       1.0138766     0.014766833
      3976.39       1.0131218     0.014826446
      3980.37       1.0179665     0.014886162
      3984.35       1.0159027     0.014825466
      3988.33       1.0133732     0.014889181
      3992.32       1.0114938     0.014826073
      3996.31       1.0153593     0.014890891
      4000.31       1.0201542     0.014831450
      4004.31       1.0136929     0.014895416
      4008.31       1.0158127     0.014963960
      4012.32       1.0268344     0.014904058
      4016.33       1.0328668     0.014854543
      4020.35       1.0338314     0.014792175
      4024.37       1.0352884     0.014867792
      4028.40       1.0359569     0.014802322
      4032.42       1.0322455     0.014872569
      4036.46       1.0377225     0.014811166
      4040.50       1.0486694     0.014889153
      4044.54       1.0535949     0.014825046
      4048.58       1.0545353     0.014900459
      4052.63       1.0540972     0.014987184
      4056.68       1.0488171     0.014920961
      4060.74       1.0238501     0.014856759
      4064.80       1.0082447     0.014794810
      4068.86       1.0211149     0.014751772
      4072.93       1.0460739     0.014687066
      4077.01       1.0622563     0.014624658
      4081.08       1.0665761     0.014563955
      4085.17       1.0715985     0.014521280
      4089.25       1.0818984     0.014457472
      4093.34       1.1043552     0.014395621
      4097.43       1.1141149     0.014212194
      4101.53       1.1253016     0.014154174
      4105.63       1.1337651     0.014231323
      4109.74       1.1384667     0.014170527
      4113.85       1.1441741     0.013989796
      4117.96       1.1447221     0.013932166
      4122.08       1.1433759     0.013875799
      4126.20       1.1362024     0.013948704
      4130.33       1.1325235     0.013769998
      4134.46       1.1237074     0.013712637
      4138.59       1.1080580     0.013656585
      4142.73       1.1122436     0.013601970
      4146.88       1.1221436     0.013554830
      4151.02       1.1298690     0.013497527
      4155.18       1.1179149     0.013441255
      4159.33       1.1148588     0.013386292
      4163.49       1.1097544     0.013332404
      4167.65       1.1128772     0.013163387
      4171.82       1.1095052     0.013229636
      4175.99       1.1058061     0.013174707
      4180.17       1.1045645     0.013120609
      4184.35       1.0986567     0.012958809
      4188.54       1.0995443     0.012902852
      4192.72       1.1022571     0.012847960
      4196.92       1.1053323     0.012913120
      4201.11       1.1111718     0.012859549
      4205.31       1.1264943     0.012703245
      4209.52       1.1375061     0.012648364
      4213.73       1.1466645     0.012594166
      4217.94       1.1573449     0.012540638
      4222.16       1.1691634     0.012487742
      4226.38       1.1746306     0.012435740
      4230.61       1.1805419     0.012399933
      4234.84       1.1856866     0.012346488
      4239.08       1.1996653     0.012293604
      4243.32       1.1962510     0.012241296
      4247.56       1.1951221     0.012189523
      4251.81       1.1933733     0.012138284
      4256.06       1.1962634     0.011987562
      4260.32       1.1894931     0.011937967
      4264.58       1.1902253     0.011888929
      4268.84       1.1999410     0.011949856
      4273.11       1.2097683     0.011899115
      4277.38       1.2273644     0.011848818
      4281.66       1.2423165     0.011701420
      4285.94       1.2529506     0.011652358
      4290.23       1.2692689     0.011603649
      4294.52       1.2977237     0.011555591
      4298.81       1.3117983     0.011508192
      4303.11       1.3396075     0.011461046
      4307.42       1.3536508     0.011414160
      4311.72       1.3706262     0.011367526
      4316.04       1.3804219     0.011226796
      4320.35       1.3916594     0.011179668
      4324.67       1.3960977     0.011233139
      4329.00       1.4084842     0.011186345
      4333.33       1.4167065     0.011140076
      4337.66       1.4242131     0.011094011
      4342.00       1.4302406     0.011048168
      4346.34       1.4410746     0.011002518
      4350.69       1.4484205     0.010957062
      4355.04       1.4609068     0.010826119
      4359.39       1.4699203     0.010780683
      4363.75       1.4776698     0.010735774
      4368.12       1.4819736     0.010691051
      4372.48       1.4948175     0.010646529
      4376.86       1.5071344     0.010602205
      4381.23       1.5028786     0.010558071
      4385.61       1.5096525     0.010514314
      4390.00       1.5048408     0.010470829
      4394.39       1.4999851     0.010427608
      4398.79       1.4891676     0.010384771
      4403.18       1.4861462     0.010342060
      4407.59       1.4840423     0.010299503
      4412.00       1.4810634     0.010175195
      4416.41       1.4838301     0.010133285
      4420.82       1.4826963     0.010091728
      4425.25       1.4857852     0.010050550
      4429.67       1.4814440     0.010009486
      4434.10       1.4848125    0.0099685566
      4438.54       1.4861957    0.0099278697
      4442.97       1.4853373    0.0098872743
      4447.42       1.4914812    0.0098468239
      4451.86       1.4962082    0.0098067124
      4456.32       1.4943928    0.0097669901
      4460.77       1.4936294    0.0097273868
      4465.24       1.4806111    0.0096879270
      4469.70       1.4716784    0.0096486264
      4474.17       1.4589343    0.0096094739
      4478.65       1.4391813    0.0095704674
      4483.12       1.4237820    0.0095316021
      4487.61       1.4107083    0.0094931230
      4492.09       1.3964906    0.0094549552
      4496.59       1.3927959    0.0093356838
      4501.08       1.3873752    0.0092981484
      4505.58       1.3737104    0.0092607620
      4510.09       1.3608794    0.0092235406
      4514.60       1.3517770    0.0091866698
      4519.12       1.3489743    0.0091500446
      4523.63       1.3433617    0.0091137665
      4528.16       1.3418715    0.0090776551
      4532.69       1.3378773    0.0090417371
      4537.22       1.3386480    0.0090060117
      4541.76       1.3332661    0.0089704819
      4546.30       1.3346935    0.0089353141
      4550.85       1.3331104    0.0089004258
      4555.40       1.3294174    0.0087875180
      4559.95       1.3317994    0.0087526695
      4564.51       1.3231836    0.0087180291
      4569.08       1.3271731    0.0086835862
      4573.65       1.3262897    0.0086493704
      4578.22       1.3242163    0.0086153663
      4582.80       1.3210122    0.0085817887
      4587.38       1.3138608    0.0086152559
      4591.97       1.3113134    0.0085820843
      4596.56       1.3096526    0.0084765614
      4601.16       1.3136367    0.0084430260
      4605.76       1.3088990    0.0084097465
      4610.37       1.3056282    0.0083767238
      4614.98       1.2984575    0.0083441495
      4619.59       1.2940037    0.0083120260
      4624.21       1.2940929    0.0082801810
      4628.84       1.3021761    0.0081797568
      4633.47       1.3059225    0.0081487892
      4638.10       1.3061971    0.0081181415
      4642.74       1.3116966    0.0080878179
      4647.38       1.3156259    0.0081169769
      4652.03       1.3169754    0.0080859010
      4656.68       1.3234976    0.0079879829
      4661.34       1.3230955    0.0079579037
      4666.00       1.3216595    0.0079281952
      4670.67       1.3193253    0.0078988710
      4675.33       1.3167927    0.0078699304
      4680.01       1.3156184    0.0078416435
      4684.69       1.3102731    0.0077452447
      4689.38       1.2993906    0.0077746621
      4694.07       1.2827888    0.0077460086
      4698.76       1.2735287    0.0077178103
      4703.46       1.2597204    0.0076900472
      4708.16       1.2493161    0.0075974072
      4712.87       1.2456570    0.0075692730
      4717.58       1.2474892    0.0075415657
      4722.30       1.2403699    0.0075711373
      4727.03       1.2393135    0.0075441713
      4731.75       1.2395336    0.0074546155
      4736.48       1.2382822    0.0074270278
      4741.22       1.2407181    0.0074000610
      4745.96       1.2357174    0.0073736504
      4750.71       1.2363379    0.0073436104
      4755.46       1.2359515    0.0073164281
      4760.22       1.2335951    0.0072897852
      4764.97       1.2319274    0.0072636892
      4769.74       1.2358964    0.0071797493
      4774.51       1.2366876    0.0071551992
      4779.29       1.2318982    0.0071825948
      4784.07       1.2301696    0.0071569792
      4788.85       1.2302567    0.0070745342
      4793.64       1.2290220    0.0070503666
      4798.43       1.2298276    0.0070268323
      4803.23       1.2381042    0.0070530837
      4808.03       1.2406501    0.0069722603
      4812.84       1.2437384    0.0069488183
      4817.66       1.2500812    0.0069260176
      4822.48       1.2577721    0.0069039338
      4827.30       1.2578369    0.0068733394
      4832.12       1.2491075    0.0068504973
      4836.96       1.2418885    0.0068284558
      4841.79       1.2387116    0.0067503048
      4846.63       1.2403076    0.0067773072
      4851.48       1.2363833    0.0067552961
      4856.33       1.2377217    0.0066795996
      4861.19       1.2445373    0.0066570560
      4866.05       1.2431504    0.0066841476
      4870.92       1.2419528    0.0066631542
      4875.79       1.2440335    0.0065883551
      4880.66       1.2437972    0.0065668259
      4885.55       1.2488645    0.0065944065
      4890.43       1.2548393    0.0065213540
      4895.32       1.2692966    0.0064999934
      4900.22       1.2821385    0.0064795637
      4905.12       1.3025537    0.0064561158
      4910.02       1.3158494    0.0064350522
      4914.94       1.3299505    0.0064149092
      4919.85       1.3279383    0.0063460003
      4924.77       1.3337763    0.0063716610
      4929.70       1.3397690    0.0063517775
      4934.62       1.3468870    0.0062838917
      4939.56       1.3565249    0.0063099777
      4944.50       1.3572999    0.0062419600
      4949.44       1.3659826    0.0062237757
      4954.39       1.3720634    0.0062065465
      4959.35       1.3713971    0.0061827633
      4964.31       1.3739300    0.0061650277
      4969.27       1.3760689    0.0061484947
      4974.24       1.3841612    0.0061253219
      4979.22       1.3949862    0.0061082990
      4984.20       1.4050507    0.0060433643
      4989.18       1.4204096    0.0060693771
      4994.17       1.4352028    0.0060529596
      4999.16       1.4466696    0.0059886803
      5004.16       1.4568545    0.0060151575
      5009.17       1.4681324    0.0059526378
      5014.18       1.4745489    0.0059357154
      5019.19       1.4857745    0.0059626706
      5024.21       1.4949418    0.0059003994
      5029.23       1.5054185    0.0058843719
      5034.26       1.5155934    0.0058662328
      5039.30       1.5241434    0.0058499260
      5044.34       1.5365644    0.0058331273
      5049.39       1.5416822    0.0058165535
      5054.43       1.5500164    0.0058012045
      5059.49       1.5570797    0.0057841126
      5064.55       1.5703509    0.0057685228
      5069.61       1.5830606    0.0057113670
      5074.68       1.5940657    0.0057367948
      5079.76       1.6003734    0.0056796974
      5084.84       1.6074018    0.0057058521
      5089.92       1.6128043    0.0056489673
      5095.01       1.6142765    0.0056358845
      5100.11       1.6144383    0.0056190751
      5105.21       1.6099254    0.0056059826
      5110.31       1.6049409    0.0056318932
      5115.42       1.6043227    0.0055769063
      5120.54       1.6052458    0.0055651528
      5125.66       1.6012431    0.0055485249
      5130.79       1.5978690    0.0055368729
      5135.92       1.5955088    0.0055209781
      5141.05       1.5938835    0.0055093577
      5146.20       1.5933815    0.0054940945
      5151.34       1.5977762    0.0054825411
      5156.49       1.5987341    0.0054293734
      5161.65       1.6046818    0.0054565327
      5166.81       1.6025228    0.0054041149
      5171.98       1.6077783    0.0054312947
      5177.15       1.6076570    0.0053794037
      5182.33       1.6118218    0.0053675163
      5187.51       1.6137262    0.0053552785
      5192.70       1.6123108    0.0053438515
      5197.89       1.6108063    0.0053318763
      5203.09       1.6115175    0.0052833595
      5208.29       1.6117822    0.0053091035
      5213.50       1.6152071    0.0052610492
      5218.72       1.6206078    0.0052869539
      5223.93       1.6195454    0.0052394878
      5229.16       1.6211368    0.0052653752
      5234.39       1.6233445    0.0052185306
      5239.62       1.6280833    0.0052070021
      5244.86       1.6320171    0.0051982568
      5250.11       1.6374286    0.0051869446
      5255.36       1.6367458    0.0051787005
      5260.61       1.6420934    0.0051674697
      5265.87       1.6389874    0.0051597304
      5271.14       1.6364723    0.0051487115
      5276.41       1.6297692    0.0051034275
      5281.69       1.6245638    0.0051305987
      5286.97       1.6137122    0.0050854648
      5292.26       1.6056927    0.0051131628
      5297.55       1.5983513    0.0051034680
      5302.85       1.5897445    0.0050596332
      5308.15       1.5794105    0.0050867515
      5313.46       1.5700949    0.0050430257
      5318.77       1.5595294    0.0050707641
      5324.09       1.5480471    0.0050271194
      5329.42       1.5438542    0.0050196467
      5334.75       1.5401652    0.0050118755
      5340.08       1.5368181    0.0050043387
      5345.42       1.5291122    0.0049630163
      5350.77       1.5197003    0.0049898053
      5356.12       1.5122408    0.0049831595
      5361.48       1.5085343    0.0049760235
      5366.83       1.4947844    0.0049691784
      5372.20       1.4864221    0.0049289101
      5377.58       1.4794617    0.0049559663
      5382.95       1.4746823    0.0049499279
      5388.34       1.4624287    0.0049098693
      5393.72       1.4579370    0.0049375175
      5399.12       1.4507762    0.0048985815
      5404.52       1.4414878    0.0048921679
      5409.92       1.4342792    0.0049202620
      5415.33       1.4206224    0.0048816420
      5420.75       1.4117326    0.0048758226
      5426.17       1.4060489    0.0048375249
      5431.60       1.3997041    0.0048660111
      5437.03       1.3880549    0.0048606934
      5442.47       1.3734349    0.0048229815
      5447.91       1.3584987    0.0048517162
      5453.36       1.3467511    0.0048468659
      5458.81       1.3342249    0.0048095378
      5464.27       1.3185958    0.0048060287
      5469.73       1.3108150    0.0048011345
      5475.20       1.3051413    0.0047973453
      5480.68       1.2993404    0.0047941552
      5486.16       1.2901602    0.0047897396
      5491.65       1.2768668    0.0047862235
      5497.14       1.2717807    0.0047832971
      5502.64       1.2653711    0.0047480382
      5508.14       1.2557358    0.0047763125
      5513.65       1.2540578    0.0047735932
      5519.16       1.2437590    0.0047391844
      5524.68       1.2382143    0.0047361988
      5530.20       1.2327243    0.0047650897
      5535.73       1.2235797    0.0047630466
      5541.27       1.2170214    0.0047288876
      5546.81       1.2095904    0.0047264792
      5552.36       1.1996317    0.0047558536
      5557.91       1.1924111    0.0047227798
      5563.47       1.1825102    0.0047206215
      5569.04       1.1746801    0.0047188515
      5574.60       1.1764754    0.0046857335
      5580.18       1.1720904    0.0047160104
      5585.76       1.1682230    0.0047143378
      5591.35       1.1617438    0.0047130847
      5596.94       1.1556379    0.0046803679
      5602.53       1.1546149    0.0046798062
      5608.14       1.1503750    0.0047100959
      5613.75       1.1448916    0.0047091837
      5619.36       1.1410127    0.0046768518
      5624.98       1.1287327    0.0046766301
      5630.60       1.1231047    0.0046767334
      5636.23       1.1155913    0.0046771363
      5641.87       1.1111413    0.0046752455
      5647.51       1.1083869    0.0046752704
      5653.16       1.1007589    0.0046756225
      5658.82       1.0946069    0.0046762269
      5664.47       1.0940128    0.0046459231
      5670.14       1.0903048    0.0046462849
      5675.81       1.0899637    0.0046468478
      5681.48       1.0870166    0.0046772463
      5687.17       1.0810511    0.0046783155
      5692.85       1.0784581    0.0046488892
      5698.55       1.0730778    0.0046497632
      5704.25       1.0680487    0.0046508070
      5709.95       1.0640825    0.0046520114
      5715.66       1.0545902    0.0046534683
      5721.38       1.0477290    0.0046242212
      5727.10       1.0409958    0.0046560588
      5732.83       1.0320448    0.0046574893
      5738.56       1.0275329    0.0046590545
      5744.30       1.0214384    0.0046608702
      5750.04       1.0171720    0.0046629230
      5755.79       1.0078841    0.0046343608
      5761.55       1.0002012    0.0046373100
      5767.31      0.99728787    0.0046402931
      5773.08      0.99022483    0.0046431623
      5778.85      0.97693348    0.0046464619
      5784.63      0.96351806    0.0046506015
      5790.41      0.94722696    0.0046562647
      5796.21      0.93548158    0.0046312426
      5802.00      0.92552589    0.0046664774
      5807.81      0.90955543    0.0046737213
      5813.61      0.89443954    0.0046817334
      5819.43      0.88068518    0.0046902553
      5825.25      0.87345321    0.0046977385
      5831.07      0.86470894    0.0047035695
      5836.90      0.85732069    0.0047084822
      5842.74      0.85168283    0.0046824545
      5848.58      0.84982952    0.0046860182
      5854.43      0.84783069    0.0046888865
      5860.29      0.84911282    0.0046914495
      5866.15      0.85467029    0.0046942422
      5872.01      0.85772586    0.0046974041
      5877.89      0.85870089    0.0047004851
      5883.76      0.85690849    0.0047030071
      5889.65      0.85276656    0.0047049968
      5895.54      0.85448631    0.0047066166
      5901.43      0.85306427    0.0047083888
      5907.34      0.85101531    0.0047101026
      5913.24      0.84484866    0.0047111662
      5919.16      0.83764343    0.0046817004
      5925.08      0.83314740    0.0046835047
      5931.00      0.82653517    0.0046863311
      5936.93      0.82215356    0.0046889158
      5942.87      0.81478325    0.0046910965
      5948.81      0.81045475    0.0046939754
      5954.76      0.80421082    0.0046697719
      5960.72      0.80236590    0.0046738480
      5966.68      0.80289047    0.0046780916
      5972.64      0.80473639    0.0046826624
      5978.62      0.80608487    0.0046875859
      5984.60      0.80328677    0.0046926418
      5990.58      0.80142470    0.0046976879
      5996.57      0.80369164    0.0047028369
      6002.57      0.80549112    0.0047081078
      6008.57      0.81283531    0.0047134852
      6014.58      0.81501764    0.0047190176
      6020.60      0.82074461    0.0047246341
      6026.62      0.82285689    0.0047302520
      6032.65      0.82200816    0.0047073969
      6038.68      0.82777243    0.0047129183
      6044.72      0.82805935    0.0047185555
      6050.76      0.83601028    0.0047241685
      6056.81      0.84297367    0.0047298551
      6062.87      0.84767738    0.0047356068
      6068.93      0.85486793    0.0047414022
      6075.00      0.86270115    0.0047473430
      6081.08      0.87648603    0.0047566883
      6087.16      0.88814006    0.0047623589
      6093.25      0.90018595    0.0047681125
      6099.34      0.90937119    0.0047739368
      6105.44      0.91853179    0.0047799125
      6111.54      0.93008043    0.0047859336
      6117.66      0.94088018    0.0047920448
      6123.78      0.95264110    0.0047707299
      6129.90      0.96254046    0.0047769966
      6136.03      0.96955989    0.0047837192
      6142.17      0.97339828    0.0047918511
      6148.31      0.97851635    0.0048010973
      6154.46      0.98541489    0.0048096464
      6160.61      0.98416160    0.0048157536
      6166.77      0.99026706    0.0048246810
      6172.94      0.99024820    0.0048363385
      6179.11      0.98726943    0.0048506086
      6185.29      0.99053999    0.0048671521
      6191.48      0.99165356    0.0048582044
      6197.67      0.99719694    0.0048756556
      6203.87       1.0036474    0.0048923209
      6210.07       1.0039670    0.0049392644
      6216.28       1.0047800    0.0049228037
      6222.50       1.0071129    0.0049299222
      6228.72       1.0068754    0.0049336054
      6234.95       1.0089445    0.0049342477
      6241.19       1.0070744    0.0049043757
      6247.42       1.0051061    0.0049306078
      6253.67       1.0026400    0.0049284853
      6259.93      0.99958532    0.0049293582
      6266.19      0.99691161    0.0049044172
      6272.46      0.99027390    0.0049062373
      6278.73      0.98844911    0.0049077564
      6285.01      0.98956179    0.0049400658
      6291.29      0.98233561    0.0049154282
      6297.58      0.97934277    0.0049193941
      6303.88      0.98083431    0.0049240234
      6310.19      0.98051585    0.0049004303
      6316.50      0.98365534    0.0049352843
      6322.81      0.98493555    0.0049407569
      6329.14      0.98366994    0.0049469777
      6335.47      0.98192821    0.0049250724
      6341.80      0.98075364    0.0049619730
      6348.14      0.97830419    0.0049687804
      6354.49      0.97792490    0.0049477773
      6360.85      0.97505835    0.0049550859
      6367.21      0.97176896    0.0049943659
      6373.57      0.97306851    0.0049773768
      6379.95      0.97064335    0.0049879531
      6386.33      0.96964921    0.0049983351
      6392.72      0.96936877    0.0050120071
      6399.11      0.96855855    0.0050209132
      6405.51      0.96623846    0.0050298340
      6411.92      0.96307077    0.0050108965
      6418.32      0.96110874    0.0050481809
      6424.74      0.95582296    0.0050259879
      6431.17      0.94939195    0.0050311039
      6437.60      0.94538257    0.0050654935
      6444.04      0.93815501    0.0050419100
      6450.48      0.93541674    0.0050470206
      6456.94      0.92969934    0.0050531372
      6463.39      0.92373122    0.0050605502
      6469.85      0.91870805    0.0050662020
      6476.33      0.91462809    0.0050426303
      6482.80      0.90993062    0.0050767438
      6489.28      0.90209299    0.0050527179
      6495.77      0.90170741    0.0050566098
      6502.27      0.89024004    0.0050918686
      6508.77      0.87930423    0.0050674874
      6515.28      0.87179490    0.0050705221
      6521.80      0.86397527    0.0050769371
      6528.32      0.86097867    0.0050810966
      6534.85      0.85701155    0.0050589771
      6541.38      0.84837846    0.0050940627
      6547.92      0.84340455    0.0050992763
      6554.47      0.83688369    0.0051077200
      6561.03      0.83135009    0.0051128202
      6567.59      0.82235214    0.0050909605
      6574.16      0.81740015    0.0051261275
      6580.73      0.80639318    0.0051038992
      6587.31      0.79531772    0.0051099190
      6593.90      0.78419906    0.0051170562
      6600.50      0.77367153    0.0051228123
      6607.10      0.76295642    0.0051299516
      6613.70      0.74763769    0.0051354233
      6620.32      0.73616202    0.0051126707
      6626.94      0.71764568    0.0051479356
      6633.57      0.70736896    0.0051250761
      6640.20      0.70243717    0.0051601469
      6646.84      0.69557784    0.0051371851
      6653.49      0.68813084    0.0051721211
      6660.14      0.68275134    0.0051490240
      6666.80      0.67593545    0.0051536805
      6673.47      0.66885900    0.0051605760
      6680.14      0.66048436    0.0051650554
      6686.82      0.65450311    0.0051717653
      6693.51      0.64061260    0.0051487910
      6700.20      0.63082114    0.0051826115
      6706.90      0.62086079    0.0051595013
      6713.61      0.61202196    0.0051942297
      6720.32      0.60273289    0.0051811788
      6727.05      0.59480080    0.0052310957
      6733.77      0.58663582    0.0052183121
      6740.51      0.57518568    0.0052166011
      6747.25      0.56935974    0.0052291628
      6754.00      0.56297647    0.0052682584
      6760.75      0.56198177    0.0053152437
      6767.51      0.56190262    0.0053920506
      6774.28      0.55788182    0.0054487480
      6781.05      0.55115023    0.0055642289
      6787.84      0.54871703    0.0056210535
      6794.62      0.54671862    0.0057268713
      6801.42      0.54545692    0.0057456630
      6808.22      0.53888950    0.0057719198
      6815.03      0.53406358    0.0057657531
      6821.85      0.52357049    0.0057290006
      6828.67      0.51874486    0.0056686530
      6835.50      0.50880291    0.0056106434
      6842.33      0.50384873    0.0055438576
      6849.17      0.49940840    0.0054717298
      6856.02      0.48886834    0.0054768362
      6862.88      0.47857035    0.0054171879
      6869.74      0.46983189    0.0053763726
      6876.61      0.45726103    0.0053828154
      6883.49      0.44589429    0.0053388761
      6890.37      0.43658042    0.0053236975
      6897.27      0.42501238    0.0053140668
      6904.16      0.40723959    0.0053060910
      6911.07      0.39263250    0.0053029577
      6917.98      0.38132108    0.0053025264
      6924.89      0.36889891    0.0053034808
      6931.82      0.35951651    0.0052756212
      6938.75      0.34879599    0.0052748878
      6945.69      0.34124680    0.0053000656
      6952.64      0.33500202    0.0052662889
      6959.59      0.33262657    0.0052605246
      6966.55      0.33485426    0.0052564353
      6973.52      0.34124336    0.0052520548
      6980.49      0.34819304    0.0052484614
      6987.47      0.35151239    0.0052446690
      6994.46      0.35426180    0.0052131503
      7001.46      0.35908159    0.0052376562
      7008.46      0.36059436    0.0052361099
      7015.46      0.36063509    0.0052095732
      7022.48      0.36101770    0.0052141333
      7029.51      0.35898041    0.0052449461
      7036.53      0.35431692    0.0052243423
      7043.57      0.35349198    0.0052318258
      7050.62      0.34799241    0.0052450651
      7057.66      0.34369001    0.0052380531
      7064.72      0.33962375    0.0052941544
      7071.79      0.33536509    0.0053424830
      7078.86      0.32870713    0.0053711633
      7085.94      0.32295558    0.0053766512
      7093.03      0.32204528    0.0053677603
      7100.12      0.32154510    0.0053690756
      7107.22      0.32047377    0.0053356442
      7114.33      0.31593861    0.0052957123
      7121.44      0.31104036    0.0052479433
      7128.56      0.30762320    0.0051953811
      7135.69      0.30881411    0.0051404974
      7142.83      0.30293362    0.0050842873
      7149.97      0.29803899    0.0050276109
      7157.12      0.29685990    0.0049936683
      7164.28      0.29239641    0.0049424723
      7171.44      0.29048428    0.0048754049
      7178.62      0.28731857    0.0048312822
      7185.80      0.27898278    0.0047855203
      7192.98      0.27622351    0.0047568529
      7200.17      0.27829556    0.0047014058
      7207.38      0.27904028    0.0046412419
      7214.58      0.27732625    0.0045782289
      7221.80      0.27466654    0.0045004394
      7229.02      0.26983343    0.0044376189
      7236.25      0.26803890    0.0043789132
      7243.49      0.26369288    0.0043420140
      7250.73      0.25521625    0.0042911036
      7257.98      0.24887952    0.0042415686
      7265.24      0.24838308    0.0041922938
      7272.51      0.24355412    0.0041443110
      7279.78      0.23519330    0.0040869620
      7287.06      0.23013341    0.0040435606
      7294.35      0.22890897    0.0040024796
      7301.64      0.22662975    0.0039634020
      7308.94      0.22418874    0.0039255609
      7316.25      0.22217122    0.0038886702
      7323.57      0.21873361    0.0038534034
      7330.89      0.21619047    0.0038193099
      7338.22      0.21265768    0.0038371021
      7345.56      0.21007272    0.0038770642
      7352.91      0.20967947    0.0039380495
      7360.26      0.21074502    0.0040123479
      7367.62      0.21196702    0.0041044543
      7374.99      0.21181528    0.0042215005
      7382.37      0.21416048    0.0043721166
      7389.75      0.21582790    0.0045682775
      7397.14      0.21843232    0.0048270342
      7404.53      0.22276629    0.0051681761
      7411.94      0.22808177    0.0056176749
      7419.35      0.23755052    0.0062073515
      7426.77      0.24433417    0.0069715035
      7434.20      0.25004054    0.0080654494
      7441.63      0.25579401    0.0093364141
      7449.07      0.26240595     0.010936037
