# starting wavelength =        3678.2800
# ending wavelength =        7455.9400
# O2 telluric scale =        0
# O2 telluric shift =        0
# H2O telluric scale =        0
# H2O telluric shift =        0
      3681.83      0.89821854     0.054862637
      3685.51      0.88369741     0.045159507
      3689.20      0.87454389     0.039035649
      3692.88      0.86536720     0.034211708
      3696.58      0.85217775     0.030420485
      3700.27      0.83210676     0.028027373
      3703.98      0.82277261     0.025626260
      3707.68      0.80873692     0.023769328
      3711.39      0.79652538     0.022088744
      3715.10      0.78992509     0.021021800
      3718.81      0.77959917     0.020186446
      3722.53      0.77934915     0.019551626
      3726.26      0.78276245     0.018980333
      3729.98      0.77683364     0.018514559
      3733.71      0.78749552     0.018009061
      3737.45      0.78319817     0.017691240
      3741.18      0.78282192     0.017420815
      3744.93      0.77682689     0.017189093
      3748.67      0.76716484     0.017035423
      3752.42      0.75979830     0.017070072
      3756.17      0.76114569     0.017104624
      3759.93      0.75343694     0.016951898
      3763.69      0.75602350     0.016985807
      3767.45      0.75581466     0.017023173
      3771.22      0.75525186     0.016952916
      3774.99      0.74193974     0.016905369
      3778.77      0.74954499     0.016940323
      3782.54      0.76121044     0.016872254
      3786.33      0.76934018     0.016909718
      3790.11      0.77169080     0.016863456
      3793.90      0.77802193     0.016792117
      3797.70      0.77834917     0.016830191
      3801.50      0.79010685     0.016871184
      3805.30      0.81253079     0.016712775
      3809.10      0.81986927     0.016754329
      3812.91      0.82340106     0.016684449
      3816.73      0.83931786     0.016725372
      3820.54      0.85226979     0.016767038
      3824.36      0.86610428     0.016607827
      3828.19      0.87526751     0.016650424
      3832.02      0.89145724     0.016691928
      3835.85      0.90799793     0.016625376
      3839.68      0.92798424     0.016668525
      3843.52      0.94427099     0.016623044
      3847.37      0.96058480     0.016552409
      3851.22      0.97971478     0.016596104
      3855.07      0.98705817     0.016530126
      3858.92      0.99082120     0.016575066
      3862.78      0.98986927     0.016622794
      3866.64      0.98375423     0.016459409
      3870.51      0.98237256     0.016505563
      3874.38      0.98088037     0.016556781
      3878.26      0.98582397     0.016487373
      3882.13      0.97507876     0.016536979
      3886.02      0.95964976     0.016472171
      3889.90      0.94869724     0.016420292
      3893.79      0.93137505     0.016474894
      3897.69      0.93202852     0.016405245
      3901.59      0.92063851     0.016456811
      3905.49      0.91065734     0.016391758
      3909.39      0.90840684     0.016444351
      3913.30      0.90187628     0.016499493
      3917.22      0.91676656     0.016329456
      3921.13      0.91373812     0.016382683
      3925.06      0.90978248     0.016316797
      3928.98      0.90999242     0.016374219
      3932.91      0.90946657     0.016430949
      3936.84      0.90616608     0.016365381
      3940.78      0.90811272     0.016425628
      3944.72      0.90597341     0.016358154
      3948.67      0.91033440     0.016420585
      3952.61      0.92073948     0.016484125
      3956.57      0.93996038     0.016302828
      3960.52      0.94121766     0.016370117
      3964.48      0.93449587     0.016300747
      3968.45      0.93658815     0.016364083
      3972.42      0.94162218     0.016298901
      3976.39      0.94147465     0.016366081
      3980.37      0.94401834     0.016433412
      3984.35      0.94971351     0.016368118
      3988.33      0.94417836     0.016439912
      3992.32      0.94622588     0.016371976
      3996.31      0.95849651     0.016444979
      4000.31      0.96190967     0.016381169
      4004.31      0.96568978     0.016453320
      4008.31      0.96805591     0.016530559
      4012.32      0.97649418     0.016466238
      4016.33      0.96618081     0.016412780
      4020.35      0.96652569     0.016345757
      4024.37      0.95655584     0.016430883
      4028.40      0.96016505     0.016360545
      4032.42      0.95508023     0.016439708
      4036.46      0.95718375     0.016373771
      4040.50      0.96339420     0.016461637
      4044.54      0.95694090     0.016392758
      4048.58      0.93837464     0.016477825
      4052.63      0.93118589     0.016575434
      4056.68      0.93395848     0.016504264
      4060.74      0.93593184     0.016435334
      4064.80      0.93577968     0.016368901
      4068.86      0.94195822     0.016322691
      4072.93      0.94984386     0.016253212
      4077.01      0.96081741     0.016186285
      4081.08      0.96575484     0.016121245
      4085.17      0.97542096     0.016075447
      4089.25      0.99113889     0.016006978
      4093.34      0.99392301     0.015940678
      4097.43       1.0048592     0.015739389
      4101.53       1.0129777     0.015677320
      4105.63       1.0064416     0.015764605
      4109.74       1.0069686     0.015699486
      4113.85       1.0110514     0.015501118
      4117.96       1.0036637     0.015439494
      4122.08      0.99783045     0.015379272
      4126.20      0.99305109     0.015461960
      4130.33      0.98814909     0.015265802
      4134.46      0.97946326     0.015204459
      4138.59      0.97254556     0.015144599
      4142.73      0.97381758     0.015086336
      4146.88      0.98138285     0.015035594
      4151.02      0.98319236     0.014974357
      4155.18      0.97883708     0.014914262
      4159.33      0.98597020     0.014855617
      4163.49      0.99586495     0.014798183
      4167.65      0.99616327     0.014612537
      4171.82      0.98745852     0.014688068
      4175.99      0.98770968     0.014629474
      4180.17      0.97971517     0.014571808
      4184.35      0.96786401     0.014394123
      4188.54      0.97206150     0.014334373
      4192.72      0.97525994     0.014275809
      4196.92      0.97014851     0.014350237
      4201.11      0.97531033     0.014293164
      4205.31      0.98180855     0.014121488
      4209.52      0.98117616     0.014062939
      4213.73      0.98224065     0.014005153
      4217.94      0.98960255     0.013948105
      4222.16      0.99576706     0.013891763
      4226.38      0.99947440     0.013836424
      4230.61       1.0039011     0.013798268
      4234.84       1.0160884     0.013741313
      4239.08       1.0225570     0.013684991
      4243.32       1.0283870     0.013629308
      4247.56       1.0182711     0.013574218
      4251.81       1.0148547     0.013519731
      4256.06       1.0106426     0.013353996
      4260.32       1.0004742     0.013301317
      4264.58      0.99672239     0.013249253
      4268.84       1.0020925     0.013319305
      4273.11      0.99467749     0.013265370
      4277.38      0.98608802     0.013211927
      4281.66      0.99120745     0.013049768
      4285.94      0.99309403     0.012997677
      4290.23      0.99829462     0.012945977
      4294.52      0.99916220     0.012895004
      4298.81      0.99607362     0.012844767
      4303.11       1.0090237     0.012794809
      4307.42       1.0263909     0.012745143
      4311.72       1.0417230     0.012695757
      4316.04       1.0594047     0.012540822
      4320.35       1.0729942     0.012490860
      4324.67       1.0871830     0.012552847
      4329.00       1.0941872     0.012503277
      4333.33       1.1065810     0.012454289
      4337.66       1.1146855     0.012405529
      4342.00       1.1218744     0.012357007
      4346.34       1.1275293     0.012308716
      4350.69       1.1335312     0.012260626
      4355.04       1.1301579     0.012116417
      4359.39       1.1331429     0.012068324
      4363.75       1.1449294     0.012020821
      4368.12       1.1566222     0.011973522
      4372.48       1.1721397     0.011926447
      4376.86       1.1809317     0.011879589
      4381.23       1.1934190     0.011832942
      4385.61       1.2164524     0.011786714
      4390.00       1.2268606     0.011740787
      4394.39       1.2320770     0.011695155
      4398.79       1.2385462     0.011649934
      4403.18       1.2471416     0.011604876
      4407.59       1.2585122     0.011559980
      4412.00       1.2641432     0.011422837
      4416.41       1.2675315     0.011378631
      4420.82       1.2689335     0.011334820
      4425.25       1.2689002     0.011291418
      4429.67       1.2669436     0.011248161
      4434.10       1.2763978     0.011205064
      4438.54       1.2776471     0.011162187
      4442.97       1.2807176     0.011119432
      4447.42       1.2928969     0.011076847
      4451.86       1.3033157     0.011034619
      4456.32       1.3098441     0.010992830
      4460.77       1.3162087     0.010951172
      4465.24       1.3236160     0.010909671
      4469.70       1.3290375     0.010868345
      4474.17       1.3275952     0.010827178
      4478.65       1.3307390     0.010786172
      4483.12       1.3321750     0.010745318
      4487.61       1.3389837     0.010704894
      4492.09       1.3394349     0.010664816
      4496.59       1.3262399     0.010533729
      4501.08       1.3171426     0.010494326
      4505.58       1.3119123     0.010455089
      4510.09       1.3057935     0.010416029
      4514.60       1.2912028     0.010377351
      4519.12       1.2869048     0.010338958
      4523.63       1.2768319     0.010300942
      4528.16       1.2684690     0.010263115
      4532.69       1.2632142     0.010225481
      4537.22       1.2513429     0.010188081
      4541.76       1.2414129     0.010150888
      4546.30       1.2338332     0.010114093
      4550.85       1.2312289     0.010077612
      4555.40       1.2256415    0.0099532681
      4559.95       1.2241568    0.0099167913
      4564.51       1.2299972    0.0098805380
      4569.08       1.2217505    0.0098445054
      4573.65       1.2152526    0.0098087187
      4578.22       1.2088557    0.0097731611
      4582.80       1.2024479    0.0097380822
      4587.38       1.1954742    0.0097795910
      4591.97       1.1823617    0.0097449940
      4596.56       1.1719074    0.0096287035
      4601.16       1.1663785    0.0095936395
      4605.76       1.1595757    0.0095588494
      4610.37       1.1547093    0.0095243502
      4614.98       1.1434807    0.0094903490
      4619.59       1.1363634    0.0094568500
      4624.21       1.1342813    0.0094236583
      4628.84       1.1299139    0.0093129023
      4633.47       1.1284473    0.0092806675
      4638.10       1.1287076    0.0092487864
      4642.74       1.1346423    0.0092172660
      4647.38       1.1449304    0.0092540447
      4652.03       1.1520874    0.0092216675
      4656.68       1.1491863    0.0091135453
      4661.34       1.1466687    0.0090822615
      4666.00       1.1484781    0.0090513907
      4670.67       1.1360862    0.0090209489
      4675.33       1.1206684    0.0089909285
      4680.01       1.1143306    0.0089616522
      4684.69       1.1133125    0.0088550190
      4689.38       1.1031817    0.0088921793
      4694.07       1.0952874    0.0088624584
      4698.76       1.0889097    0.0088332270
      4703.46       1.0858789    0.0088044909
      4708.16       1.0810549    0.0087019553
      4712.87       1.0801533    0.0086727457
      4717.58       1.0717810    0.0086440144
      4722.30       1.0696359    0.0086814412
      4727.03       1.0728594    0.0086535600
      4731.75       1.0781800    0.0085543577
      4736.48       1.0825173    0.0085257176
      4741.22       1.0795762    0.0084977745
      4745.96       1.0812530    0.0084704558
      4750.71       1.0792327    0.0084399704
      4755.46       1.0756748    0.0084117291
      4760.22       1.0726919    0.0083841030
      4764.97       1.0740982    0.0083570918
      4769.74       1.0779022    0.0082639872
      4774.51       1.0776415    0.0082387303
      4779.29       1.0756128    0.0082737447
      4784.07       1.0788492    0.0082472338
      4788.85       1.0738117    0.0081557026
      4793.64       1.0669773    0.0081308065
      4798.43       1.0572698    0.0081066314
      4803.23       1.0563061    0.0081404235
      4808.03       1.0474864    0.0080505741
      4812.84       1.0436662    0.0080264334
      4817.66       1.0397117    0.0080030480
      4822.48       1.0399984    0.0079804754
      4827.30       1.0320252    0.0079490298
      4832.12       1.0300623    0.0079255482
      4836.96       1.0329742    0.0079029773
      4841.79       1.0337263    0.0078159228
      4846.63       1.0358963    0.0078505854
      4851.48       1.0405378    0.0078280027
      4856.33       1.0387964    0.0077436644
      4861.19       1.0389645    0.0077204154
      4866.05       1.0425780    0.0077552002
      4870.92       1.0455251    0.0077337363
      4875.79       1.0438880    0.0076502702
      4880.66       1.0381733    0.0076281279
      4885.55       1.0315654    0.0076635085
      4890.43       1.0298618    0.0075819412
      4895.32       1.0305806    0.0075599446
      4900.22       1.0247970    0.0075390141
      4905.12       1.0236200    0.0075154960
      4910.02       1.0253181    0.0074937918
      4914.94       1.0276519    0.0074731424
      4919.85       1.0273319    0.0073961169
      4924.77       1.0288838    0.0074292738
      4929.70       1.0343517    0.0074088735
      4934.62       1.0427189    0.0073329054
      4939.56       1.0426054    0.0073665723
      4944.50       1.0447956    0.0072903636
      4949.44       1.0521755    0.0072718556
      4954.39       1.0592000    0.0072544470
      4959.35       1.0679859    0.0072302818
      4964.31       1.0720435    0.0072122177
      4969.27       1.0781315    0.0071955689
      4974.24       1.0867061    0.0071720213
      4979.22       1.0929999    0.0071547576
      4984.20       1.0998865    0.0070817895
      4989.18       1.1105874    0.0071153537
      4994.17       1.1167321    0.0070987468
      4999.16       1.1246495    0.0070264059
      5004.16       1.1283661    0.0070605194
      5009.17       1.1344815    0.0069901543
      5014.18       1.1377704    0.0069728709
      5019.19       1.1416365    0.0070075241
      5024.21       1.1535100    0.0069373232
      5029.23       1.1570942    0.0069210118
      5034.26       1.1571929    0.0069030453
      5039.30       1.1625846    0.0068863662
      5044.34       1.1710645    0.0068699267
      5049.39       1.1780744    0.0068528914
      5054.43       1.1862066    0.0068372832
      5059.49       1.1934883    0.0068204162
      5064.55       1.2107940    0.0068044792
      5069.61       1.2205501    0.0067398790
      5074.68       1.2295347    0.0067727027
      5079.76       1.2382641    0.0067080832
      5084.84       1.2457949    0.0067417577
      5089.92       1.2473673    0.0066772947
      5095.01       1.2524490    0.0066641720
      5100.11       1.2569694    0.0066473979
      5105.21       1.2639229    0.0066342210
      5110.31       1.2684619    0.0066675832
      5115.42       1.2790320    0.0066051467
      5120.54       1.2921113    0.0065934953
      5125.66       1.3009140    0.0065767927
      5130.79       1.3125359    0.0065652147
      5135.92       1.3281813    0.0065493217
      5141.05       1.3463529    0.0065377244
      5146.20       1.3662950    0.0065225365
      5151.34       1.3763631    0.0065109856
      5156.49       1.3936660    0.0064503371
      5161.65       1.4092577    0.0064850852
      5166.81       1.4092113    0.0064252360
      5171.98       1.4174234    0.0064599994
      5177.15       1.4189920    0.0064006857
      5182.33       1.4246636    0.0063892701
      5187.51       1.4291548    0.0063767279
      5192.70       1.4324809    0.0063657857
      5197.89       1.4336094    0.0063535206
      5203.09       1.4343843    0.0062979925
      5208.29       1.4385713    0.0063309582
      5213.50       1.4454074    0.0062758941
      5218.72       1.4493641    0.0063090294
      5223.93       1.4545827    0.0062545796
      5229.16       1.4642925    0.0062876670
      5234.39       1.4736728    0.0062338758
      5239.62       1.4879239    0.0062225342
      5244.86       1.4927832    0.0062138825
      5250.11       1.4974120    0.0062027340
      5255.36       1.5059490    0.0061946344
      5260.61       1.5054486    0.0061835194
      5265.87       1.5075198    0.0061759786
      5271.14       1.5192369    0.0061650512
      5276.41       1.5299650    0.0061127706
      5281.69       1.5389240    0.0061472462
      5286.97       1.5434367    0.0060950577
      5292.26       1.5491547    0.0061301382
      5297.55       1.5504270    0.0061206346
      5302.85       1.5560357    0.0060698767
      5308.15       1.5602293    0.0061042303
      5313.46       1.5586409    0.0060534990
      5318.77       1.5565758    0.0060885485
      5324.09       1.5595291    0.0060378538
      5329.42       1.5631718    0.0060308055
      5334.75       1.5624689    0.0060228999
      5340.08       1.5657213    0.0060156987
      5345.42       1.5644395    0.0059676194
      5350.77       1.5663581    0.0060014138
      5356.12       1.5691466    0.0059951905
      5361.48       1.5686231    0.0059879093
      5366.83       1.5725631    0.0059813825
      5372.20       1.5755564    0.0059343653
      5377.58       1.5771167    0.0059683848
      5382.95       1.5737954    0.0059627243
      5388.34       1.5636903    0.0059158374
      5393.72       1.5579954    0.0059505122
      5399.12       1.5490900    0.0059049010
      5404.52       1.5374699    0.0058986429
      5409.92       1.5249817    0.0059337988
      5415.33       1.5148576    0.0058884421
      5420.75       1.5064549    0.0058827930
      5426.17       1.4992956    0.0058377469
      5431.60       1.4911128    0.0058732736
      5437.03       1.4821378    0.0058681210
      5442.47       1.4738899    0.0058236687
      5447.91       1.4671232    0.0058594260
      5453.36       1.4537286    0.0058547372
      5458.81       1.4462584    0.0058106329
      5464.27       1.4273022    0.0058074866
      5469.73       1.4254984    0.0058023681
      5475.20       1.4201367    0.0057988187
      5480.68       1.4135651    0.0057959506
      5486.16       1.4042819    0.0057913387
      5491.65       1.3950764    0.0057880101
      5497.14       1.3910784    0.0057853624
      5502.64       1.3876527    0.0057434496
      5508.14       1.3769548    0.0057783759
      5513.65       1.3704122    0.0057758711
      5519.16       1.3639501    0.0057348830
      5524.68       1.3557791    0.0057319802
      5530.20       1.3490996    0.0057675421
      5535.73       1.3394201    0.0057656994
      5541.27       1.3270465    0.0057248784
      5546.81       1.3135803    0.0057225552
      5552.36       1.2979378    0.0057585733
      5557.91       1.2744657    0.0057189538
      5563.47       1.2620705    0.0057168023
      5569.04       1.2444611    0.0057150822
      5574.60       1.2362858    0.0056753033
      5580.18       1.2296515    0.0057122911
      5585.76       1.2202977    0.0057105867
      5591.35       1.2152176    0.0057093436
      5596.94       1.2121728    0.0056699155
      5602.53       1.2077254    0.0056694431
      5608.14       1.2042859    0.0057062894
      5613.75       1.1967136    0.0057053224
      5619.36       1.1920960    0.0056662356
      5624.98       1.1858047    0.0056660257
      5630.60       1.1825150    0.0056661773
      5636.23       1.1802996    0.0056666513
      5641.87       1.1739506    0.0056643245
      5647.51       1.1641405    0.0056642745
      5653.16       1.1525699    0.0056645849
      5658.82       1.1409351    0.0056651575
      5664.47       1.1337524    0.0056282700
      5670.14       1.1301446    0.0056284842
      5675.81       1.1216006    0.0056288973
      5681.48       1.1096758    0.0056654605
      5687.17       1.1031693    0.0056664157
      5692.85       1.0970865    0.0056304427
      5698.55       1.0976815    0.0056310922
      5704.25       1.0980224    0.0056319108
      5709.95       1.1003622    0.0056328855
      5715.66       1.0994803    0.0056341274
      5721.38       1.0991390    0.0055982268
      5727.10       1.0984866    0.0056362554
      5732.83       1.0982545    0.0056373644
      5738.56       1.1001862    0.0056385959
      5744.30       1.0956006    0.0056400893
      5750.04       1.0894929    0.0056418348
      5755.79       1.0852715    0.0056065977
      5761.55       1.0791631    0.0056093638
      5767.31       1.0774805    0.0056121309
      5773.08       1.0784041    0.0056147229
      5778.85       1.0650318    0.0056177961
      5784.63       1.0526447    0.0056218485
      5790.41       1.0392436    0.0056277076
      5796.21       1.0296906    0.0055968656
      5802.00       1.0270204    0.0056382315
      5807.81       1.0182014    0.0056458882
      5813.61       1.0149222    0.0056544309
      5819.43       1.0004764    0.0056635505
      5825.25      0.98949918    0.0056713703
      5831.07      0.98109391    0.0056771501
      5836.90      0.97005972    0.0056817842
      5842.74      0.96192035    0.0056492175
      5848.58      0.95295236    0.0056521677
      5854.43      0.94468809    0.0056542424
      5860.29      0.93950623    0.0056559117
      5866.15      0.93651945    0.0056578188
      5872.01      0.93141726    0.0056601326
      5877.89      0.92460900    0.0056623112
      5883.76      0.92687008    0.0056637803
      5889.65      0.91254328    0.0056645726
      5895.54      0.91077893    0.0056648877
      5901.43      0.90594903    0.0056653491
      5907.34      0.90495162    0.0056657043
      5913.24      0.90528212    0.0056652440
      5919.16      0.89827334    0.0056282593
      5925.08      0.89567722    0.0056286498
      5931.00      0.88611645    0.0056302126
      5936.93      0.88571730    0.0056314574
      5942.87      0.88245351    0.0056321882
      5948.81      0.87817311    0.0056337210
      5954.76      0.87689130    0.0056024697
      5960.72      0.87418639    0.0056053817
      5966.68      0.87124155    0.0056084412
      5972.64      0.86879902    0.0056118652
      5978.62      0.86358925    0.0056156696
      5984.60      0.85712672    0.0056196057
      5990.58      0.85513028    0.0056234895
      5996.57      0.85796901    0.0056274583
      6002.57      0.85271625    0.0056315365
      6008.57      0.85325184    0.0056357049
      6014.58      0.84785079    0.0056400257
      6020.60      0.84338567    0.0056443952
      6026.62      0.84133040    0.0056487572
      6032.65      0.83657585    0.0056187710
      6038.68      0.83528315    0.0056229255
      6044.72      0.83286195    0.0056272111
      6050.76      0.83055091    0.0056314159
      6056.81      0.82367507    0.0056356753
      6062.87      0.81919672    0.0056399729
      6068.93      0.81579722    0.0056442881
      6075.00      0.81243961    0.0056487401
      6081.08      0.80771165    0.0056565341
      6087.16      0.80889428    0.0056605826
      6093.25      0.80590823    0.0056646951
      6099.34      0.80671755    0.0056688551
      6105.44      0.81228596    0.0056731579
      6111.54      0.81390661    0.0056774790
      6117.66      0.82212209    0.0056818700
      6123.78      0.82744391    0.0056533589
      6129.90      0.83642699    0.0056578774
      6136.03      0.84869481    0.0056629015
      6142.17      0.86224763    0.0056695742
      6148.31      0.87235190    0.0056775391
      6154.46      0.88863890    0.0056838422
      6160.61      0.90055843    0.0056879721
      6166.77      0.91009504    0.0056954188
      6172.94      0.91808465    0.0057060610
      6179.11      0.92756800    0.0057197472
      6185.29      0.94055800    0.0057360580
      6191.48      0.95093765    0.0057218750
      6197.67      0.95691674    0.0057391356
      6203.87      0.96846196    0.0057553939
      6210.07      0.97211680    0.0058067519
      6216.28      0.97832404    0.0057834859
      6222.50      0.98485085    0.0057883385
      6228.72      0.99178329    0.0057891301
      6234.95      0.99908111    0.0057863424
      6241.19       1.0011348    0.0057473453
      6247.42       1.0120175    0.0057740940
      6253.67       1.0177368    0.0057680367
      6259.93       1.0215172    0.0057654394
      6266.19       1.0245265    0.0057321659
      6272.46       1.0308676    0.0057306512
      6278.73       1.0374883    0.0057287787
      6285.01       1.0402661    0.0057623161
      6291.29       1.0386439    0.0057293231
      6297.58       1.0387903    0.0057302393
      6303.88       1.0472271    0.0057318493
      6310.19       1.0509749    0.0057001010
      6316.50       1.0553065    0.0057362985
      6322.81       1.0595802    0.0057387687
      6329.14       1.0632432    0.0057420738
      6335.47       1.0680911    0.0057122275
      6341.80       1.0712670    0.0057505452
      6348.14       1.0725416    0.0057544065
      6354.49       1.0726224    0.0057255438
      6360.85       1.0706164    0.0057299310
      6367.21       1.0685723    0.0057707199
      6373.57       1.0631377    0.0057464405
      6379.95       1.0600664    0.0057544883
      6386.33       1.0531339    0.0057622545
      6392.72       1.0455337    0.0057726627
      6399.11       1.0367291    0.0057786041
      6405.51       1.0290067    0.0057845204
      6411.92       1.0207295    0.0057578354
      6418.32       1.0162727    0.0057957024
      6424.74       1.0189040    0.0057652371
      6431.17       1.0154920    0.0057666498
      6437.60       1.0152905    0.0058009973
      6444.04       1.0113675    0.0057689102
      6450.48       1.0133891    0.0057702114
      6456.94       1.0125771    0.0057726235
      6463.39       1.0138437    0.0057753177
      6469.85       1.0160105    0.0057771159
      6476.33       1.0186726    0.0057449959
      6482.80       1.0150733    0.0057785678
      6489.28       1.0113929    0.0057459058
      6495.77       1.0080289    0.0057455722
      6502.27       1.0018623    0.0057802029
      6508.77      0.99274177    0.0057470987
      6515.28      0.98559150    0.0057457067
      6521.80      0.97893483    0.0057468784
      6528.32      0.97442626    0.0057467094
      6534.85      0.96701906    0.0057161141
      6541.38      0.96140222    0.0057501441
      6547.92      0.95840682    0.0057510096
      6554.47      0.95423296    0.0057541978
      6561.03      0.94819888    0.0057548465
      6567.59      0.94082511    0.0057244737
      6574.16      0.93798169    0.0057582149
      6580.73      0.93122041    0.0057274116
      6587.31      0.92817554    0.0057289445
      6593.90      0.92053107    0.0057303687
      6600.50      0.91298142    0.0057315133
      6607.10      0.90127271    0.0057328323
      6613.70      0.89291923    0.0057335666
      6620.32      0.88406402    0.0057021009
      6626.94      0.87775249    0.0057353017
      6633.57      0.86906501    0.0057036822
      6640.20      0.86478901    0.0057364913
      6646.84      0.85697270    0.0057047250
      6653.49      0.85119793    0.0057372132
      6660.14      0.84778951    0.0057052599
      6666.80      0.84144223    0.0057047589
      6673.47      0.83632307    0.0057052658
      6680.14      0.82771638    0.0057044763
      6686.82      0.81861114    0.0057046573
      6693.51      0.80827371    0.0056727905
      6700.20      0.79922775    0.0057034538
      6706.90      0.78484076    0.0056714039
      6713.61      0.77346341    0.0057029110
      6720.32      0.75740394    0.0056821215
      6727.05      0.74695736    0.0057305148
      6733.77      0.73507684    0.0057099019
      6740.51      0.72410518    0.0057001197
      6747.25      0.71559511    0.0057077603
      6754.00      0.70927526    0.0057430403
      6760.75      0.70325586    0.0057883221
      6767.51      0.70320886    0.0058643633
      6774.28      0.69825657    0.0059189219
      6781.05      0.69780244    0.0060368369
      6787.84      0.69999751    0.0060904912
      6794.62      0.69708643    0.0061965761
      6801.42      0.69714762    0.0062079253
      6808.22      0.69998845    0.0062260171
      6815.03      0.69950308    0.0062111773
      6821.85      0.69415958    0.0061616543
      6828.67      0.69153934    0.0060873731
      6835.50      0.68934482    0.0060179648
      6842.33      0.69144881    0.0059376734
      6849.17      0.68788734    0.0058524111
      6856.02      0.68672709    0.0058493786
      6862.88      0.68098224    0.0057775961
      6869.74      0.67504498    0.0057256430
      6876.61      0.66963649    0.0057246464
      6883.49      0.66673933    0.0056699005
      6890.37      0.66106049    0.0056449733
      6897.27      0.65294830    0.0056277060
      6904.16      0.64257708    0.0056103550
      6911.07      0.63920359    0.0055979755
      6917.98      0.63099355    0.0055901349
      6924.89      0.62117407    0.0055817670
      6931.82      0.60907392    0.0055439547
      6938.75      0.59946636    0.0055337080
      6945.69      0.58443943    0.0055515262
      6952.64      0.57486962    0.0055075443
      6959.59      0.57446696    0.0054919261
      6966.55      0.57931302    0.0054779535
      6973.52      0.58548328    0.0054655609
      6980.49      0.58572278    0.0054519903
      6987.47      0.58908720    0.0054381796
      6994.46      0.58675957    0.0053965834
      7001.46      0.59204831    0.0054129721
      7008.46      0.59660296    0.0054013132
      7015.46      0.60136837    0.0053649561
      7022.48      0.60183474    0.0053597164
      7029.51      0.60389442    0.0053822861
      7036.53      0.60486686    0.0053519825
      7043.57      0.60658895    0.0053493226
      7050.62      0.59544260    0.0053524525
      7057.66      0.58752613    0.0053358611
      7064.72      0.57583263    0.0053834551
      7071.79      0.56715348    0.0054219170
      7078.86      0.56017087    0.0054413317
      7085.94      0.55424487    0.0054357615
      7093.03      0.55230388    0.0054149039
      7100.12      0.55244616    0.0054051148
      7107.22      0.54661769    0.0053589945
      7114.33      0.53469734    0.0053065946
      7121.44      0.52006696    0.0052489982
      7128.56      0.50716449    0.0051844314
      7135.69      0.49774223    0.0051179304
      7142.83      0.49252363    0.0050503946
      7149.97      0.48743422    0.0049825509
      7157.12      0.48585762    0.0049384360
      7164.28      0.48357665    0.0048759912
      7171.44      0.47791947    0.0047990277
      7178.62      0.47577546    0.0047434859
      7185.80      0.46828993    0.0046863572
      7192.98      0.46237737    0.0046472778
      7200.17      0.45895330    0.0045809376
      7207.38      0.45186253    0.0045103697
      7214.58      0.44681896    0.0044374252
      7221.80      0.43826055    0.0043515758
      7229.02      0.42895886    0.0042794765
      7236.25      0.42036590    0.0042114293
      7243.49      0.41574646    0.0041655299
      7250.73      0.40499762    0.0041049985
      7257.98      0.39679503    0.0040460035
      7265.24      0.38980775    0.0039875600
      7272.51      0.37973897    0.0039305644
      7279.78      0.36966250    0.0038658647
      7287.06      0.35936802    0.0038134404
      7294.35      0.34744202    0.0037632527
      7301.64      0.33833972    0.0037149978
      7308.94      0.32821612    0.0036679963
      7316.25      0.32320746    0.0036219841
      7323.57      0.31389284    0.0035774995
      7330.89      0.30877982    0.0035341458
      7338.22      0.30504601    0.0035438106
      7345.56      0.30150066    0.0035774807
      7352.91      0.29837624    0.0036293868
      7360.26      0.29691785    0.0036934174
      7367.62      0.29699220    0.0037736078
      7374.99      0.29560546    0.0038763960
      7382.37      0.29485845    0.0040095932
      7389.75      0.29581788    0.0041840484
      7397.14      0.29935877    0.0044151809
      7404.53      0.30186214    0.0047208025
      7411.94      0.30642536    0.0051242913
      7419.35      0.31274579    0.0056542408
      7426.77      0.31949115    0.0063412927
      7434.20      0.32595953    0.0073307089
      7441.63      0.33378991    0.0084737666
      7449.07      0.34157787    0.0099113788
