# starting wavelength =        3678.2800
# ending wavelength =        7455.9400
# O2 telluric scale =        0
# O2 telluric shift =        0
# H2O telluric scale =        0
# H2O telluric shift =        0
      3681.83      0.84445178     0.043439431
      3685.51      0.84402189     0.035773120
      3689.20      0.83909185     0.030935216
      3692.88      0.83327265     0.027124015
      3696.58      0.82402899     0.024128742
      3700.27      0.81375914     0.022249062
      3703.98      0.81037068     0.020351766
      3707.68      0.81078367     0.018885212
      3711.39      0.81254586     0.017559357
      3715.10      0.80854095     0.016718912
      3718.81      0.81231082     0.016061965
      3722.53      0.81405451     0.015568103
      3726.26      0.80784933     0.015119893
      3729.98      0.80167286     0.014755394
      3733.71      0.79882528     0.014361853
      3737.45      0.79692880     0.014114761
      3741.18      0.78698934     0.013905217
      3744.93      0.77911146     0.013726339
      3748.67      0.77302043     0.013618256
      3752.42      0.76601118     0.013660447
      3756.17      0.77084351     0.013702646
      3759.93      0.76185842     0.013594913
      3763.69      0.75990336     0.013636592
      3767.45      0.75758920     0.013681118
      3771.22      0.74988550     0.013642164
      3774.99      0.74487500     0.013615562
      3778.77      0.74048210     0.013658248
      3782.54      0.73597963     0.013620864
      3786.33      0.73864427     0.013665655
      3790.11      0.74426993     0.013639961
      3793.90      0.74770378     0.013599746
      3797.70      0.74925573     0.013645117
      3801.50      0.75241339     0.013692945
      3805.30      0.75755101     0.013579028
      3809.10      0.75240610     0.013627318
      3812.91      0.76396085     0.013587976
      3816.73      0.77360593     0.013635852
      3820.54      0.78583497     0.013684426
      3824.36      0.79392184     0.013569140
      3828.19      0.80573938     0.013618486
      3832.02      0.82126954     0.013667029
      3835.85      0.83215880     0.013630101
      3839.68      0.83686120     0.013680091
      3843.52      0.84359066     0.013654499
      3847.37      0.85402360     0.013614035
      3851.22      0.85524554     0.013664585
      3855.07      0.86759059     0.013627835
      3858.92      0.88038480     0.013679514
      3862.78      0.87906462     0.013733591
      3866.64      0.88662074     0.013613321
      3870.51      0.89597282     0.013666113
      3874.38      0.90788173     0.013723193
      3878.26      0.91677491     0.013683320
      3882.13      0.91504233     0.013739189
      3886.02      0.91830681     0.013703031
      3889.90      0.91402445     0.013671645
      3893.79      0.91192286     0.013731795
      3897.69      0.90970006     0.013691416
      3901.59      0.92480416     0.013749171
      3905.49      0.94006281     0.013712521
      3909.39      0.94527171     0.013771225
      3913.30      0.95427756     0.013832219
      3917.22      0.95833381     0.013704474
      3921.13      0.96771178     0.013763878
      3925.06      0.98222315     0.013726233
      3928.98      0.98706272     0.013789288
      3932.91      0.98878250     0.013851885
      3936.84      0.98760604     0.013814433
      3940.78      0.99249484     0.013880106
      3944.72      0.99440646     0.013840934
      3948.67       1.0005324     0.013908637
      3952.61       1.0116479     0.013977402
      3956.57       1.0111254     0.013838599
      3960.52       1.0148412     0.013910579
      3964.48       1.0124936     0.013869494
      3968.45       1.0139338     0.013938282
      3972.42       1.0190953     0.013900644
      3976.39       1.0212230     0.013972859
      3980.37       1.0208054     0.014045326
      3984.35       1.0086426     0.014007536
      3988.33       1.0106347     0.014083998
      3992.32       1.0139905     0.014043845
      3996.31       1.0313965     0.014121522
      4000.31       1.0407689     0.014084811
      4004.31       1.0426609     0.014161935
      4008.31       1.0464731     0.014243583
      4012.32       1.0582149     0.014206376
      4016.33       1.0674037     0.014172372
      4020.35       1.0853442     0.014132602
      4024.37       1.0935787     0.014221316
      4028.40       1.1103054     0.014178585
      4032.42       1.1186955     0.014262324
      4036.46       1.1122506     0.014223321
      4040.50       1.1145837     0.014314836
      4044.54       1.1077455     0.014273163
      4048.58       1.1080110     0.014362450
      4052.63       1.1241484     0.014462849
      4056.68       1.1289163     0.014419130
      4060.74       1.1181375     0.014377219
      4064.80       1.1174328     0.014337355
      4068.86       1.1192868     0.014309016
      4072.93       1.1409972     0.014266248
      4077.01       1.1502893     0.014225562
      4081.08       1.1663757     0.014186399
      4085.17       1.1760966     0.014158067
      4089.25       1.2034859     0.014115656
      4093.34       1.2117630     0.014075010
      4097.43       1.2132620     0.013911997
      4101.53       1.2234197     0.013874672
      4105.63       1.2257475     0.013966565
      4109.74       1.2290777     0.013926437
      4113.85       1.2232826     0.013764979
      4117.96       1.2106053     0.013727538
      4122.08       1.2087586     0.013691216
      4126.20       1.2051549     0.013779206
      4130.33       1.2059804     0.013618691
      4134.46       1.2002133     0.013580999
      4138.59       1.1988422     0.013544499
      4142.73       1.2037768     0.013509288
      4146.88       1.2073087     0.013475071
      4151.02       1.2184678     0.013436961
      4155.18       1.2242596     0.013399740
      4159.33       1.2407752     0.013363693
      4163.49       1.2454355     0.013328601
      4167.65       1.2562884     0.013175068
      4171.82       1.2551781     0.013256834
      4175.99       1.2526319     0.013220331
      4180.17       1.2606145     0.013184522
      4184.35       1.2624355     0.013037230
      4188.54       1.2741205     0.012999127
      4192.72       1.2733348     0.012961979
      4196.92       1.2678770     0.013042886
      4201.11       1.2695990     0.013006982
      4205.31       1.2694379     0.012863947
      4209.52       1.2695953     0.012826309
      4213.73       1.2756358     0.012789236
      4217.94       1.2837515     0.012752699
      4222.16       1.2819432     0.012716674
      4226.38       1.2847590     0.012681426
      4230.61       1.2917548     0.012656701
      4234.84       1.2935800     0.012619753
      4239.08       1.3045090     0.012583248
      4243.32       1.3085134     0.012547275
      4247.56       1.3141927     0.012511558
      4251.81       1.3089701     0.012476336
      4256.06       1.3163369     0.012335770
      4260.32       1.3252178     0.012301846
      4264.58       1.3389607     0.012268289
      4268.84       1.3547691     0.012345463
      4273.11       1.3539761     0.012310133
      4277.38       1.3735460     0.012275116
      4281.66       1.3732978     0.012136488
      4285.94       1.3789448     0.012102362
      4290.23       1.3757429     0.012068464
      4294.52       1.3807555     0.012035119
      4298.81       1.3831244     0.012002328
      4303.11       1.3792672     0.011969672
      4307.42       1.3796651     0.011937162
      4311.72       1.3706827     0.011904787
      4316.04       1.3642564     0.011770950
      4320.35       1.3633509     0.011737673
      4324.67       1.3558050     0.011807284
      4329.00       1.3476559     0.011774253
      4333.33       1.3435640     0.011741640
      4337.66       1.3554353     0.011709116
      4342.00       1.3613817     0.011676689
      4346.34       1.3730899     0.011644348
      4350.69       1.3852467     0.011612078
      4355.04       1.3912019     0.011486387
      4359.39       1.4125568     0.011453766
      4363.75       1.4026208     0.011421570
      4368.12       1.4141078     0.011389443
      4372.48       1.4146932     0.011357403
      4376.86       1.4232149     0.011325445
      4381.23       1.4278312     0.011293556
      4385.61       1.4241861     0.011261945
      4390.00       1.4148418     0.011230495
      4394.39       1.4143217     0.011199201
      4398.79       1.4090460     0.011168176
      4403.18       1.4068335     0.011137182
      4407.59       1.3940213     0.011106218
      4412.00       1.3855765     0.010984442
      4416.41       1.3778131     0.010953793
      4420.82       1.3744429     0.010923431
      4425.25       1.3673384     0.010893334
      4429.67       1.3568367     0.010863244
      4434.10       1.3523464     0.010833183
      4438.54       1.3367710     0.010803227
      4442.97       1.3311442     0.010773257
      4447.42       1.3257942     0.010743321
      4451.86       1.3239306     0.010713630
      4456.32       1.3246066     0.010684232
      4460.77       1.3253891     0.010654842
      4465.24       1.3248034     0.010625485
      4469.70       1.3193005     0.010596179
      4474.17       1.3168837     0.010566907
      4478.65       1.3286239     0.010537673
      4483.12       1.3289509     0.010508459
      4487.61       1.3340396     0.010479555
      4492.09       1.3384148     0.010450864
      4496.59       1.3435190     0.010334531
      4501.08       1.3435527     0.010306163
      4505.58       1.3429477     0.010277844
      4510.09       1.3442394     0.010249577
      4514.60       1.3377640     0.010221577
      4519.12       1.3413665     0.010193732
      4523.63       1.3315079     0.010166118
      4528.16       1.3288389     0.010138632
      4532.69       1.3324659     0.010111203
      4537.22       1.3223143     0.010083867
      4541.76       1.3240592     0.010056629
      4546.30       1.3212395     0.010029681
      4550.85       1.3174197     0.010002924
      4555.40       1.3131170    0.0098903139
      4559.95       1.3117323    0.0098632349
      4564.51       1.3123168    0.0098362731
      4569.08       1.3110110    0.0098094126
      4573.65       1.3185221    0.0097826803
      4578.22       1.3211798    0.0097560671
      4582.80       1.3224850    0.0097298289
      4587.38       1.3234014    0.0097814992
      4591.97       1.3237835    0.0097555629
      4596.56       1.3277619    0.0096491024
      4601.16       1.3282382    0.0096223925
      4605.76       1.3333326    0.0095958495
      4610.37       1.3283628    0.0095694883
      4614.98       1.3300254    0.0095435094
      4619.59       1.3317571    0.0095179314
      4624.21       1.3327757    0.0094925543
      4628.84       1.3327456    0.0093901884
      4633.47       1.3303262    0.0093654800
      4638.10       1.3245705    0.0093410214
      4642.74       1.3190754    0.0093168224
      4647.38       1.3176165    0.0093628658
      4652.03       1.3137180    0.0093376304
      4656.68       1.3112471    0.0092367611
      4661.34       1.3133275    0.0092123553
      4666.00       1.3097006    0.0091882481
      4670.67       1.3093657    0.0091644765
      4675.33       1.3093080    0.0091410347
      4680.01       1.3074377    0.0091182393
      4684.69       1.3094056    0.0090177176
      4689.38       1.3073647    0.0090634463
      4694.07       1.3065204    0.0090399026
      4698.76       1.2993107    0.0090167163
      4703.46       1.3008888    0.0089939347
      4708.16       1.3043988    0.0088966776
      4712.87       1.3061895    0.0088731423
      4717.58       1.3077938    0.0088499974
      4722.30       1.3092674    0.0088955634
      4727.03       1.3092347    0.0088731297
      4731.75       1.3085468    0.0087784103
      4736.48       1.3087483    0.0087549230
      4741.22       1.3097172    0.0087320615
      4745.96       1.3092104    0.0087097443
      4750.71       1.3103324    0.0086859458
      4755.46       1.3150219    0.0086624609
      4760.22       1.3197332    0.0086395052
      4764.97       1.3267268    0.0086170848
      4769.74       1.3337354    0.0085272601
      4774.51       1.3407569    0.0085064061
      4779.29       1.3494869    0.0085485877
      4784.07       1.3596246    0.0085262762
      4788.85       1.3570885    0.0084374332
      4793.64       1.3673861    0.0084165533
      4798.43       1.3762247    0.0083963271
      4803.23       1.3807690    0.0084368757
      4808.03       1.3922951    0.0083491536
      4812.84       1.3968356    0.0083286646
      4817.66       1.4028344    0.0083088662
      4822.48       1.4060730    0.0082898294
      4827.30       1.4111032    0.0082629047
      4832.12       1.4169560    0.0082427194
      4836.96       1.4208919    0.0082233864
      4841.79       1.4227333    0.0081374983
      4846.63       1.4322402    0.0081782284
      4851.48       1.4362651    0.0081586017
      4856.33       1.4474403    0.0080751098
      4861.19       1.4601988    0.0080545695
      4866.05       1.4725972    0.0080951246
      4870.92       1.4823301    0.0080762963
      4875.79       1.4891054    0.0079931628
      4880.66       1.4951663    0.0079734164
      4885.55       1.5064592    0.0080142995
      4890.43       1.5146860    0.0079327500
      4895.32       1.5243990    0.0079128821
      4900.22       1.5339086    0.0078940456
      4905.12       1.5410727    0.0078734048
      4910.02       1.5466818    0.0078535749
      4914.94       1.5482370    0.0078347699
      4919.85       1.5478386    0.0077572003
      4924.77       1.5467864    0.0077951083
      4929.70       1.5525087    0.0077763012
      4934.62       1.5557468    0.0076994792
      4939.56       1.5650285    0.0077376800
      4944.50       1.5655111    0.0076603571
      4949.44       1.5729504    0.0076431768
      4954.39       1.5791381    0.0076270788
      4959.35       1.5860683    0.0076044741
      4964.31       1.5943813    0.0075875359
      4969.27       1.6018311    0.0075719606
      4974.24       1.6135350    0.0075497429
      4979.22       1.6203667    0.0075333861
      4984.20       1.6267988    0.0074585589
      4989.18       1.6375077    0.0074958672
      4994.17       1.6370433    0.0074799654
      4999.16       1.6424159    0.0074054918
      5004.16       1.6444079    0.0074431466
      5009.17       1.6322321    0.0073705404
      5014.18       1.6304748    0.0073536020
      5019.19       1.6318922    0.0073916084
      5024.21       1.6370022    0.0073188861
      5029.23       1.6387690    0.0073027628
      5034.26       1.6418184    0.0072851427
      5039.30       1.6413195    0.0072684761
      5044.34       1.6463336    0.0072522737
      5049.39       1.6543678    0.0072350840
      5054.43       1.6552770    0.0072193359
      5059.49       1.6556433    0.0072024049
      5064.55       1.6602421    0.0071861682
      5069.61       1.6635396    0.0071185363
      5074.68       1.6657810    0.0071537510
      5079.76       1.6650694    0.0070859297
      5084.84       1.6626013    0.0071218874
      5089.92       1.6520309    0.0070540675
      5095.01       1.6480681    0.0070403933
      5100.11       1.6427159    0.0070228335
      5105.21       1.6312075    0.0070089719
      5110.31       1.6265711    0.0070442285
      5115.42       1.6195957    0.0069781681
      5120.54       1.6148264    0.0069657307
      5125.66       1.6120335    0.0069478230
      5130.79       1.6080489    0.0069353499
      5135.92       1.5999512    0.0069181366
      5141.05       1.5947152    0.0069055233
      5146.20       1.5927813    0.0068888801
      5151.34       1.5819025    0.0068761854
      5156.49       1.5807939    0.0068114785
      5161.65       1.5803051    0.0068474737
      5166.81       1.5750578    0.0067834864
      5171.98       1.5797211    0.0068193521
      5177.15       1.5788735    0.0067558108
      5182.33       1.5773292    0.0067426435
      5187.51       1.5724335    0.0067285125
      5192.70       1.5701023    0.0067156944
      5197.89       1.5711319    0.0067017503
      5203.09       1.5656400    0.0066419414
      5208.29       1.5585954    0.0066754282
      5213.50       1.5528989    0.0066160089
      5218.72       1.5454798    0.0066495385
      5223.93       1.5384950    0.0065906740
      5229.16       1.5265491    0.0066240220
      5234.39       1.5182429    0.0065657607
      5239.62       1.5055868    0.0065519382
      5244.86       1.4981017    0.0065413728
      5250.11       1.4858770    0.0065276373
      5255.36       1.4783731    0.0065175677
      5260.61       1.4717079    0.0065037473
      5265.87       1.4687445    0.0064941790
      5271.14       1.4665422    0.0064804470
      5276.41       1.4594771    0.0064236074
      5281.69       1.4553213    0.0064576459
      5286.97       1.4436404    0.0064007078
      5292.26       1.4407784    0.0064353964
      5297.55       1.4374042    0.0064228851
      5302.85       1.4307992    0.0063673578
      5308.15       1.4197683    0.0064010990
      5313.46       1.4119099    0.0063455656
      5318.77       1.4041277    0.0063799012
      5324.09       1.3945490    0.0063243410
      5329.42       1.3881152    0.0063141316
      5334.75       1.3840575    0.0063037005
      5340.08       1.3759283    0.0062932451
      5345.42       1.3707078    0.0062403583
      5350.77       1.3656900    0.0062730746
      5356.12       1.3638645    0.0062635139
      5361.48       1.3612494    0.0062535894
      5366.83       1.3590543    0.0062436330
      5372.20       1.3521162    0.0061917819
      5377.58       1.3486601    0.0062244702
      5382.95       1.3455909    0.0062153078
      5388.34       1.3347108    0.0061635608
      5393.72       1.3311162    0.0061967782
      5399.12       1.3208935    0.0061463423
      5404.52       1.3064280    0.0061364341
      5409.92       1.2929339    0.0061700115
      5415.33       1.2833769    0.0061198358
      5420.75       1.2759187    0.0061104873
      5426.17       1.2700652    0.0060606357
      5431.60       1.2665381    0.0060944311
      5437.03       1.2609757    0.0060855262
      5442.47       1.2560947    0.0060362927
      5447.91       1.2516384    0.0060701925
      5453.36       1.2509612    0.0060617007
      5458.81       1.2436607    0.0060128371
      5464.27       1.2276513    0.0060059144
      5469.73       1.2250631    0.0059978605
      5475.20       1.2197716    0.0059904910
      5480.68       1.2173048    0.0059837996
      5486.16       1.2098183    0.0059762308
      5491.65       1.2032633    0.0059690411
      5497.14       1.1985673    0.0059625234
      5502.64       1.1935014    0.0059160404
      5508.14       1.1802487    0.0059486954
      5513.65       1.1742334    0.0059423038
      5519.16       1.1656475    0.0058968056
      5524.68       1.1657701    0.0058909801
      5530.20       1.1596789    0.0059231928
      5535.73       1.1556742    0.0059174482
      5541.27       1.1511029    0.0058722003
      5546.81       1.1503792    0.0058659788
      5552.36       1.1479361    0.0058995160
      5557.91       1.1415221    0.0058555628
      5563.47       1.1292763    0.0058495152
      5569.04       1.1169873    0.0058439060
      5574.60       1.1167570    0.0057998847
      5580.18       1.1183159    0.0058343237
      5585.76       1.1149455    0.0058287404
      5591.35       1.1087717    0.0058236329
      5596.94       1.1030646    0.0057800809
      5602.53       1.0938027    0.0057758002
      5608.14       1.0905338    0.0058099993
      5613.75       1.0799441    0.0058052051
      5619.36       1.0771599    0.0057621106
      5624.98       1.0694452    0.0057581503
      5630.60       1.0624098    0.0057545490
      5636.23       1.0527992    0.0057512923
      5641.87       1.0511317    0.0057461385
      5647.51       1.0489266    0.0057423774
      5653.16       1.0464194    0.0057389957
      5658.82       1.0406948    0.0057359021
      5664.47       1.0322370    0.0056953799
      5670.14       1.0283823    0.0056919832
      5675.81       1.0190475    0.0056888139
      5681.48       1.0169677    0.0057226193
      5687.17       1.0160385    0.0057200167
      5692.85       1.0067118    0.0056806272
      5698.55      0.99507770    0.0056777878
      5704.25      0.99015298    0.0056751452
      5709.95      0.98409651    0.0056726883
      5715.66      0.98319191    0.0056705348
      5721.38      0.97859315    0.0056314647
      5727.10      0.97556384    0.0056667833
      5732.83      0.96759517    0.0056645845
      5738.56      0.95984495    0.0056625396
      5744.30      0.95332407    0.0056607931
      5750.04      0.95191255    0.0056593377
      5755.79      0.95078201    0.0056212428
      5761.55      0.95178639    0.0056209085
      5767.31      0.95378233    0.0056206141
      5773.08      0.95658895    0.0056201803
      5778.85      0.96293686    0.0056202659
      5784.63      0.95476639    0.0056213753
      5790.41      0.95066176    0.0056243403
      5796.21      0.94721338    0.0055910535
      5802.00      0.94188524    0.0056299047
      5807.81      0.93665266    0.0056347703
      5813.61      0.93665026    0.0056405615
      5819.43      0.92523779    0.0056469744
      5825.25      0.92047658    0.0056521251
      5831.07      0.91518042    0.0056552786
      5836.90      0.90703849    0.0056573461
      5842.74      0.90228619    0.0056227648
      5848.58      0.89047352    0.0056232868
      5854.43      0.88108254    0.0056229966
      5860.29      0.87785641    0.0056223626
      5866.15      0.87270617    0.0056220217
      5872.01      0.86955143    0.0056221436
      5877.89      0.86549300    0.0056221882
      5883.76      0.86631146    0.0056215950
      5889.65      0.86895898    0.0056203988
      5895.54      0.86291304    0.0056187965
      5901.43      0.86215448    0.0056174031
      5907.34      0.86770181    0.0056159706
      5913.24      0.87393207    0.0056138068
      5919.16      0.87483903    0.0055757529
      5925.08      0.88268108    0.0055745623
      5931.00      0.88676471    0.0055746098
      5936.93      0.89536912    0.0055744170
      5942.87      0.90358210    0.0055737948
      5948.81      0.90689144    0.0055740361
      5954.76      0.91272407    0.0055417945
      5960.72      0.91114947    0.0055435568
      5966.68      0.91413403    0.0055455559
      5972.64      0.91468485    0.0055479842
      5978.62      0.91060940    0.0055508706
      5984.60      0.91492725    0.0055539561
      5990.58      0.92275982    0.0055570730
      5996.57      0.93268292    0.0055603566
      6002.57      0.94011871    0.0055638313
      6008.57      0.94251097    0.0055674747
      6014.58      0.94657644    0.0055713503
      6020.60      0.95242648    0.0055753659
      6026.62      0.95707799    0.0055794482
      6032.65      0.96559798    0.0055497121
      6038.68      0.97621869    0.0055537961
      6044.72      0.98032421    0.0055580707
      6050.76      0.98535776    0.0055623716
      6056.81      0.99530070    0.0055668129
      6062.87       1.0017621    0.0055713891
      6068.93       1.0090513    0.0055760720
      6075.00       1.0126647    0.0055809852
      6081.08       1.0146804    0.0055894646
      6087.16       1.0181996    0.0055941939
      6093.25       1.0207597    0.0055990830
      6099.34       1.0256958    0.0056041183
      6105.44       1.0308554    0.0056093932
      6111.54       1.0346395    0.0056147866
      6117.66       1.0352216    0.0056203521
      6123.78       1.0358051    0.0055936526
      6129.90       1.0362483    0.0055995535
      6136.03       1.0363168    0.0056060574
      6142.17       1.0385216    0.0056142880
      6148.31       1.0375775    0.0056238968
      6154.46       1.0291991    0.0056324686
      6160.61       1.0227573    0.0056385442
      6166.77       1.0150644    0.0056480002
      6172.94       1.0140524    0.0056607348
      6179.11       1.0119217    0.0056765972
      6185.29       1.0045015    0.0056951938
      6191.48      0.99948656    0.0056839762
      6197.67      0.99564052    0.0057037961
      6203.87      0.99201989    0.0057227688
      6210.07      0.98491128    0.0057771680
      6216.28      0.97955328    0.0057575431
      6222.50      0.97765479    0.0057656145
      6228.72      0.97861886    0.0057697555
      6234.95      0.98235286    0.0057704289
      6241.19      0.97985749    0.0057355268
      6247.42      0.97805217    0.0057663236
      6253.67      0.97965390    0.0057640500
      6259.93      0.97860280    0.0057653730
      6266.19      0.97419167    0.0057365706
      6272.46      0.97076719    0.0057392817
      6278.73      0.97085550    0.0057416343
      6285.01      0.96583775    0.0057801877
      6291.29      0.96833881    0.0057522473
      6297.58      0.97250708    0.0057577651
      6303.88      0.96641894    0.0057641550
      6310.19      0.96276787    0.0057377546
      6316.50      0.95916715    0.0057798744
      6322.81      0.95138468    0.0057875656
      6329.14      0.94038868    0.0057962322
      6335.47      0.92274937    0.0057722422
      6341.80      0.91815848    0.0058172794
      6348.14      0.91372350    0.0058269497
      6354.49      0.90524074    0.0058043689
      6360.85      0.89147598    0.0058148490
      6367.21      0.88143736    0.0058632153
      6373.57      0.87772724    0.0058456878
      6379.95      0.86846942    0.0058603545
      6386.33      0.86021792    0.0058749226
      6392.72      0.85270644    0.0058941122
      6399.11      0.84625925    0.0059072068
      6405.51      0.83571945    0.0059204360
      6411.92      0.83074921    0.0059013502
      6418.32      0.82252245    0.0059485970
      6424.74      0.81151485    0.0059259333
      6431.17      0.79980580    0.0059351667
      6437.60      0.78941512    0.0059794708
      6444.04      0.77615389    0.0059555228
      6450.48      0.75901441    0.0059651174
      6456.94      0.74378681    0.0059760284
      6463.39      0.74070476    0.0059895695
      6469.85      0.73079738    0.0060002025
      6476.33      0.72157929    0.0059768527
      6482.80      0.71197887    0.0060219875
      6489.28      0.70425549    0.0059983519
      6495.77      0.70097816    0.0060074132
      6502.27      0.69201493    0.0060544661
      6508.77      0.68539065    0.0060307844
      6515.28      0.67925194    0.0060392002
      6521.80      0.67551890    0.0060530367
      6528.32      0.67027171    0.0060630930
      6534.85      0.66868598    0.0060425711
      6541.38      0.66353116    0.0060905146
      6547.92      0.66003541    0.0061022606
      6554.47      0.65413609    0.0061194465
      6561.03      0.65063084    0.0061313641
      6567.59      0.64383385    0.0061118184
      6574.16      0.63459640    0.0061608836
      6580.73      0.63011467    0.0061411715
      6587.31      0.62730127    0.0061547764
      6593.90      0.61938018    0.0061715140
      6600.50      0.61165334    0.0061851239
      6607.10      0.60543310    0.0062022693
      6613.70      0.59769261    0.0062158611
      6620.32      0.59038511    0.0061963097
      6626.94      0.58442172    0.0062472248
      6633.57      0.57990561    0.0062278297
      6640.20      0.57027507    0.0062789830
      6646.84      0.56023989    0.0062597481
      6653.49      0.54886513    0.0063112209
      6660.14      0.54023068    0.0062921111
      6666.80      0.52772604    0.0063060050
      6673.47      0.51613947    0.0063249131
      6680.14      0.50471020    0.0063389363
      6686.82      0.49153694    0.0063580622
      6693.51      0.48332989    0.0063397790
      6700.20      0.47262868    0.0063916060
      6706.90      0.46827823    0.0063734466
      6713.61      0.45874747    0.0064268754
      6720.32      0.44523818    0.0064210548
      6727.05      0.44072349    0.0064931733
      6733.77      0.43392662    0.0064880942
      6740.51      0.42443140    0.0064990281
      6747.25      0.41529755    0.0065248328
      6754.00      0.40808238    0.0065860823
      6760.75      0.39877404    0.0066549282
      6767.51      0.38519243    0.0067641843
      6774.28      0.37817441    0.0068476332
      6781.05      0.37126674    0.0070059664
      6787.84      0.36809555    0.0070916795
      6794.62      0.35957804    0.0072404961
      6801.42      0.35512739    0.0072804846
      6808.22      0.34903710    0.0073325317
      6815.03      0.34682577    0.0073398151
      6821.85      0.34880202    0.0073115527
      6828.67      0.34943512    0.0072522116
      6835.50      0.35541069    0.0071915152
      6842.33      0.36276000    0.0071225080
      6849.17      0.36706639    0.0070453228
      6856.02      0.37239777    0.0070684687
      6862.88      0.36448917    0.0070073625
      6869.74      0.35436679    0.0069712574
      6876.61      0.34527002    0.0069953219
      6883.49      0.33538782    0.0069543547
      6890.37      0.32428915    0.0069524624
      6897.27      0.31142199    0.0069543133
      6904.16      0.29883700    0.0069622156
      6911.07      0.28514891    0.0069769379
      6917.98      0.27302233    0.0069918067
      6924.89      0.25901707    0.0070128106
      6931.82      0.24280724    0.0069939827
      6938.75      0.22363163    0.0070132773
      6945.69      0.20969646    0.0070652844
      6952.64      0.20071617    0.0070389021
      6959.59      0.19980649    0.0070521460
      6966.55      0.21008973    0.0070680183
      6973.52      0.22421042    0.0070794624
      6980.49      0.23696223    0.0070965333
      6987.47      0.24424966    0.0071135673
      6994.46      0.24327965    0.0070909307
      7001.46      0.25643328    0.0071447083
      7008.46      0.26791065    0.0071656226
      7015.46      0.27464605    0.0071499604
      7022.48      0.28012829    0.0071792389
      7029.51      0.28293383    0.0072429199
      7036.53      0.28276553    0.0072359023
      7043.57      0.28470285    0.0072706226
      7050.62      0.27633753    0.0073137265
      7057.66      0.26646477    0.0073264512
      7064.72      0.24738729    0.0074278711
      7071.79      0.23219497    0.0075214293
      7078.86      0.23077368    0.0075852570
      7085.94      0.22663653    0.0076199810
      7093.03      0.23533263    0.0076362935
      7100.12      0.24180259    0.0076654309
      7107.22      0.24474250    0.0076484785
      7114.33      0.24349975    0.0076218089
      7121.44      0.24464867    0.0075773633
      7128.56      0.24277878    0.0075316068
      7135.69      0.24467094    0.0074816703
      7142.83      0.24317321    0.0074292028
      7149.97      0.24720636    0.0073757596
      7157.12      0.25245610    0.0073527686
      7164.28      0.25770491    0.0073076791
      7171.44      0.26197597    0.0072362180
      7178.62      0.25934542    0.0072020504
      7185.80      0.25535193    0.0071655501
      7192.98      0.25250769    0.0071514503
      7200.17      0.25634518    0.0071000519
      7207.38      0.25794327    0.0070407110
      7214.58      0.25745900    0.0069761448
      7221.80      0.25232855    0.0068852846
      7229.02      0.25031448    0.0068194591
      7236.25      0.25162557    0.0067598556
      7243.49      0.25612084    0.0067309607
      7250.73      0.24835668    0.0066835875
      7257.98      0.24135272    0.0066378744
      7265.24      0.24139951    0.0065918287
      7272.51      0.23459627    0.0065473120
      7279.78      0.22616354    0.0064847096
      7287.06      0.21855337    0.0064469798
      7294.35      0.21396587    0.0064129179
      7301.64      0.20977316    0.0063820350
      7308.94      0.20933769    0.0063529788
      7316.25      0.20413479    0.0063252724
      7323.57      0.20115352    0.0063002674
      7330.89      0.19846926    0.0062771679
      7338.22      0.19675757    0.0063259908
      7345.56      0.19634786    0.0064017294
      7352.91      0.19776193    0.0065158522
      7360.26      0.19848868    0.0066526274
      7367.62      0.20593186    0.0068198101
      7374.99      0.20599092    0.0070296068
      7382.37      0.20622283    0.0072967105
      7389.75      0.20770824    0.0076414755
      7397.14      0.20990535    0.0080929677
      7404.53      0.21784899    0.0086851420
      7411.94      0.22655321    0.0094625712
      7419.35      0.23783874     0.010480040
      7426.77      0.24761368     0.011797129
      7434.20      0.25453892     0.013664966
      7441.63      0.26069582     0.015853468
      7449.07      0.26789192     0.018610618
