# starting wavelength =        3430.2863
# ending wavelength =        10121.775
# O2 telluric scale =        0
# O2 telluric shift =        0
# H2O telluric scale =        0
# H2O telluric shift =        0
      3433.02       1.0841965     0.034967607
      3436.45       1.1151709     0.031778660
      3439.89       1.1353389     0.025825780
      3443.33       1.1488156     0.023893945
      3446.78       1.1627418     0.020156990
      3450.22       1.1700242     0.018250765
      3453.67       1.1732728     0.017344981
      3457.13       1.1739516     0.015578582
      3460.58       1.1776213     0.015011858
      3464.04       1.1837108     0.013954005
      3467.51       1.1900249     0.013578462
      3470.98       1.1979378     0.012940533
      3474.45       1.2092821     0.012475283
      3477.92       1.2200363     0.012237362
      3481.40       1.2258463     0.011898326
      3484.88       1.2227259     0.011707840
      3488.37       1.2213031     0.011482530
      3491.86       1.2231606     0.011321293
      3495.35       1.2271174     0.011169890
      3498.84       1.2346670     0.010999880
      3502.34       1.2292434     0.010966188
      3505.84       1.2227221     0.011044626
      3509.35       1.2258808     0.011012812
      3512.86       1.2251467     0.010982191
      3516.37       1.2191378     0.010952770
      3519.89       1.2190511     0.010891182
      3523.41       1.2152536     0.010858466
      3526.93       1.2111909     0.010826972
      3530.46       1.2069289     0.010796731
      3533.99       1.2061724     0.010871993
      3537.53       1.2036446     0.010837921
      3541.06       1.2043365     0.010805197
      3544.60       1.2018230     0.010643212
      3548.15       1.1942205     0.010721115
      3551.70       1.1905295     0.010686253
      3555.25       1.1912335     0.010652799
      3558.80       1.1953692     0.010620732
      3562.36       1.1928879     0.010571893
      3565.92       1.1921099     0.010536350
      3569.49       1.1944180     0.010502241
      3573.06       1.1986755     0.010469583
      3576.64       1.1964087     0.010549798
      3580.21       1.2005381     0.010519736
      3583.79       1.2105492     0.010353283
      3587.38       1.2245252     0.010430342
      3590.96       1.2357100     0.010398258
      3594.55       1.2447474     0.010367644
      3598.15       1.2533194     0.010338862
      3601.75       1.2606139     0.010412433
      3605.35       1.2640905     0.010248356
      3608.96       1.2692650     0.010217550
      3612.56       1.2728474     0.010188362
      3616.18       1.2861811     0.010262469
      3619.79       1.2946813     0.010229252
      3623.41       1.3018103     0.010068935
      3627.04       1.3060291     0.010148902
      3630.66       1.3089746     0.010113719
      3634.29       1.3149432     0.010080384
      3637.93       1.3216445     0.010048880
      3641.57       1.3252704     0.010001297
      3645.21       1.3299918    0.0099660939
      3648.86       1.3344074    0.0099327752
      3652.50       1.3378236     0.010012750
      3656.16       1.3434426    0.0099828359
      3659.81       1.3479901    0.0098195252
      3663.47       1.3542750    0.0097863854
      3667.14       1.3589451    0.0098648567
      3670.80       1.3658816    0.0098352074
      3674.48       1.3746822    0.0098076217
      3678.15       1.3850139    0.0097496526
      3681.83       1.3924052    0.0097183302
      3685.51       1.3979971    0.0096890979
      3689.20       1.4056892    0.0097659753
      3692.88       1.4144785    0.0097324498
      3696.58       1.4267969    0.0095731660
      3700.27       1.4376781    0.0095445258
      3703.98       1.4460773    0.0096190174
      3707.68       1.4551220    0.0095861484
      3711.39       1.4604771    0.0095556106
      3715.10       1.4615306    0.0095076453
      3718.81       1.4653370    0.0094732507
      3722.53       1.4717571    0.0094412496
      3726.26       1.4783648    0.0095235303
      3729.98       1.4743135    0.0093622250
      3733.71       1.4781406    0.0093288338
      3737.45       1.4836352    0.0094083888
      3741.18       1.4829863    0.0093794653
      3744.93       1.4808812    0.0093531320
      3748.67       1.4807680    0.0092951067
      3752.42       1.4811281    0.0092648945
      3756.17       1.4777886    0.0092373033
      3759.93       1.4767311    0.0093121500
      3763.69       1.4737179    0.0091520656
      3767.45       1.4703947    0.0091233140
      3771.22       1.4674414    0.0092006344
      3774.99       1.4661837    0.0091674270
      3778.77       1.4694109    0.0090109637
      3782.54       1.4708226    0.0090904067
      3786.33       1.4727853    0.0090561022
      3790.11       1.4748098    0.0090247648
      3793.90       1.4774108    0.0091098373
      3797.70       1.4787150    0.0089460123
      3801.50       1.4852936    0.0089137430
      3805.30       1.4957167    0.0089964577
      3809.10       1.5033930    0.0089699101
      3812.91       1.5147895    0.0089149865
      3816.73       1.5228892    0.0088844181
      3820.54       1.5291184    0.0088570856
      3824.36       1.5386126    0.0089342892
      3828.19       1.5460247    0.0087735725
      3832.02       1.5546036    0.0087455754
      3835.85       1.5622981    0.0088236644
      3839.68       1.5730783    0.0087910731
      3843.52       1.5872009    0.0086352710
      3847.37       1.5967791    0.0087138967
      3851.22       1.6065856    0.0086807890
      3855.07       1.6172784    0.0087674544
      3858.92       1.6247721    0.0086049218
      3862.78       1.6303933    0.0085714335
      3866.64       1.6386396    0.0086562348
      3870.51       1.6452691    0.0086297930
      3874.38       1.6517248    0.0084629036
      3878.26       1.6604748    0.0085460244
      3882.13       1.6714254    0.0085193869
      3886.02       1.6798597    0.0084674064
      3889.90       1.6870146    0.0084367324
      3893.79       1.6930836    0.0084100759
      3897.69       1.6992026    0.0084882141
      3901.59       1.7110039    0.0083283625
      3905.49       1.7206106    0.0084144797
      3909.39       1.7269488    0.0083789326
      3913.30       1.7331550    0.0083478406
      3917.22       1.7375387    0.0083056201
      3921.13       1.7424928    0.0082703799
      3925.06       1.7472732    0.0082396616
      3928.98       1.7502791    0.0081973591
      3932.91       1.7540037    0.0081625981
      3936.84       1.7572917    0.0082489575
      3940.78       1.7598863    0.0082229494
      3944.72       1.7594571    0.0081711964
      3948.67       1.7560924    0.0081410560
      3952.61       1.7496839    0.0081158038
      3956.57       1.7397225    0.0080634202
      3960.52       1.7358665    0.0080341565
      3964.48       1.7325341    0.0081203517
      3968.45       1.7299376    0.0080861441
      3972.42       1.7253648    0.0079283321
      3976.39       1.7237959    0.0080114883
      3980.37       1.7228370    0.0079785392
      3984.35       1.7248127    0.0079406550
      3988.33       1.7267754    0.0079035400
      3992.32       1.7323880    0.0079931524
      3996.31       1.7378167    0.0079667501
      4000.31       1.7433572    0.0077966114
      4004.31       1.7489006    0.0078861487
      4008.31       1.7541991    0.0078615104
      4012.32       1.7591605    0.0078092275
      4016.33       1.7653192    0.0077805250
      4020.35       1.7739871    0.0078693508
      4024.37       1.7812427    0.0077030266
      4028.40       1.7845122    0.0076764215
      4032.42       1.7878228    0.0077604104
      4036.46       1.7886000    0.0077291324
      4040.50       1.7872716    0.0076884156
      4044.54       1.7865818    0.0076530125
      4048.58       1.7869330    0.0077508727
      4052.63       1.7827905    0.0075799629
      4056.68       1.7777650    0.0076726116
      4060.74       1.7711937    0.0076463475
      4064.80       1.7635941    0.0074732985
      4068.86       1.7597412    0.0075671083
      4072.93       1.7568326    0.0075441029
      4077.01       1.7508918    0.0074908198
      4081.08       1.7432935    0.0074638985
      4085.17       1.7334763    0.0075531151
      4089.25       1.7301068    0.0073865265
      4093.34       1.7239032    0.0074812778
      4097.43       1.7217380    0.0074454520
      4101.53       1.7242806    0.0074119445
      4105.63       1.7232959    0.0073720528
      4109.74       1.7215833    0.0073406220
      4113.85       1.7182253    0.0073010492
      4117.96       1.7183180    0.0072658079
      4122.08       1.7183236    0.0072321993
      4126.20       1.7158503    0.0071932452
      4130.33       1.7144321    0.0070341460
      4134.46       1.7168388    0.0071227221
      4138.59       1.7181703    0.0070888039
      4142.73       1.7180303    0.0070541116
      4146.88       1.7235073    0.0070167824
      4151.02       1.7300177    0.0068624232
      4155.18       1.7329947    0.0069465522
      4159.33       1.7345396    0.0067903071
      4163.49       1.7387306    0.0068779857
      4167.65       1.7436060    0.0068430243
      4171.82       1.7449301    0.0066940169
      4175.99       1.7488541    0.0067729791
      4180.17       1.7561189    0.0066224231
      4184.35       1.7578802    0.0067043623
      4188.54       1.7576144    0.0065522813
      4192.72       1.7583243    0.0065288906
      4196.92       1.7618482    0.0066024862
      4201.11       1.7637941    0.0064581782
      4205.31       1.7639650    0.0065338794
      4209.52       1.7643434    0.0063883784
      4213.73       1.7663199    0.0064663747
      4217.94       1.7701111    0.0063197912
      4222.16       1.7720709    0.0062981294
      4226.38       1.7749894    0.0062522773
      4230.61       1.7756616    0.0062287273
      4234.84       1.7756442    0.0061857504
      4239.08       1.7749333    0.0061604235
      4243.32       1.7732405    0.0062328935
      4247.56       1.7693306    0.0060931230
      4251.81       1.7662991    0.0060740207
      4256.06       1.7677153    0.0060267601
      4260.32       1.7670246    0.0060061340
      4264.58       1.7612149    0.0059612260
      4268.84       1.7597293    0.0059391972
      4273.11       1.7596722    0.0058964742
      4277.38       1.7592589    0.0058731471
      4281.66       1.7579092    0.0057378342
      4285.94       1.7554358    0.0058078952
      4290.23       1.7551100    0.0056754379
      4294.52       1.7572420    0.0057434081
      4298.81       1.7558728    0.0056136021
      4303.11       1.7547721    0.0056796227
      4307.42       1.7520349    0.0055522819
      4311.72       1.7518606    0.0056164825
      4316.04       1.7504080    0.0054914535
      4320.35       1.7481133    0.0055539573
      4324.67       1.7455849    0.0054311028
      4329.00       1.7421756    0.0054032281
      4333.33       1.7381396    0.0053711773
      4337.66       1.7356100    0.0053428058
      4342.00       1.7301103    0.0053116434
      4346.34       1.7275306    0.0052828755
      4350.69       1.7233351    0.0052524860
      4355.04       1.7194667    0.0052234328
      4359.39       1.7150699    0.0051937103
      4363.75       1.7142738    0.0051644373
      4368.12       1.7135803    0.0051352828
      4372.48       1.7149013    0.0051059014
      4376.86       1.7176171    0.0050771772
      4381.23       1.7198505    0.0050477976
      4385.61       1.7258621    0.0050194292
      4390.00       1.7298724    0.0049901211
      4394.39       1.7364141    0.0049619906
      4398.79       1.7379471    0.0049328524
      4403.18       1.7419015    0.0049049189
      4407.59       1.7469260    0.0048760453
      4412.00       1.7486391    0.0048481322
      4416.41       1.7517404    0.0048196500
      4420.82       1.7553094    0.0047917429
      4425.25       1.7598406    0.0047636892
      4429.67       1.7645553    0.0046617900
      4434.10       1.7679159    0.0047081708
      4438.54       1.7722585    0.0046077186
      4442.97       1.7780078    0.0046531236
      4447.42       1.7857110    0.0045541743
      4451.86       1.7941978    0.0045985458
      4456.32       1.8063183    0.0045698509
      4460.77       1.8141740    0.0045444467
      4465.24       1.8250271    0.0045153909
      4469.70       1.8314212    0.0044136094
      4474.17       1.8361507    0.0044614005
      4478.65       1.8404562    0.0043614593
      4483.12       1.8427456    0.0044078720
      4487.61       1.8482484    0.0043098508
      4492.09       1.8510201    0.0043548618
      4496.59       1.8511770    0.0042588011
      4501.08       1.8524774    0.0043023861
      4505.58       1.8539602    0.0042083357
      4510.09       1.8532527    0.0042504544
      4514.60       1.8504497    0.0041584829
      4519.12       1.8485528    0.0041267042
      4523.63       1.8471858    0.0041092644
      4528.16       1.8452374    0.0040768971
      4532.69       1.8424590    0.0040607157
      4537.22       1.8403124    0.0040277237
      4541.76       1.8337280    0.0040128566
      4546.30       1.8231341    0.0039792084
      4550.85       1.8180999    0.0038914987
      4555.40       1.8111312    0.0039313964
      4559.95       1.8035051    0.0039016483
      4564.51       1.7977217    0.0038843112
      4569.08       1.7918741    0.0038537587
      4573.65       1.7879307    0.0038379901
      4578.22       1.7829713    0.0038066257
      4582.80       1.7812430    0.0037233112
      4587.38       1.7788195    0.0037602691
      4591.97       1.7755392    0.0036768358
      4596.56       1.7719693    0.0037147259
      4601.16       1.7702181    0.0036311499
      4605.76       1.7696013    0.0036700446
      4610.37       1.7666289    0.0036401316
      4614.98       1.7629556    0.0035603959
      4619.59       1.7605936    0.0035953837
      4624.21       1.7554497    0.0035154065
      4628.84       1.7476971    0.0035515620
      4633.47       1.7415092    0.0034712933
      4638.10       1.7381609    0.0034469386
      4642.74       1.7358228    0.0034280994
      4647.38       1.7319634    0.0034027258
      4652.03       1.7282879    0.0034366587
      4656.68       1.7262576    0.0033594647
      4661.34       1.7253224    0.0033362392
      4666.00       1.7251497    0.0033172048
      4670.67       1.7271645    0.0032928839
      4675.33       1.7273796    0.0033250981
      4680.01       1.7299854    0.0032505863
      4684.69       1.7335245    0.0032281503
      4689.38       1.7363319    0.0032093547
      4694.07       1.7380988    0.0031857863
      4698.76       1.7377888    0.0031171694
      4703.46       1.7406970    0.0031445651
      4708.16       1.7431800    0.0031226410
      4712.87       1.7444242    0.0031045248
      4717.58       1.7447765    0.0030814249
      4722.30       1.7476797    0.0030152628
      4727.03       1.7513362    0.0030414280
      4731.75       1.7525403    0.0030197611
      4736.48       1.7514732    0.0029533085
      4741.22       1.7518552    0.0029798511
      4745.96       1.7555327    0.0029164709
      4750.71       1.7574606    0.0029412490
      4755.46       1.7605054    0.0029196602
      4760.22       1.7629557    0.0028562252
      4764.97       1.7665309    0.0028812159
      4769.74       1.7709407    0.0028209021
      4774.51       1.7730354    0.0027973775
      4779.29       1.7745560    0.0028224810
      4784.07       1.7754216    0.0027623501
      4788.85       1.7777449    0.0027398392
      4793.64       1.7811516    0.0027286999
      4798.43       1.7848715    0.0027051439
      4803.23       1.7904073    0.0026835363
      4808.03       1.7957567    0.0026718709
      4812.84       1.8012002    0.0026492169
      4817.66       1.8054624    0.0026723404
      4822.48       1.8081006    0.0026163623
      4827.30       1.8122148    0.0025944893
      4832.12       1.8172254    0.0025850213
      4836.96       1.8247646    0.0025621038
      4841.79       1.8287744    0.0025409360
      4846.63       1.8331462    0.0025312736
      4851.48       1.8363939    0.0025090595
      4856.33       1.8408833    0.0024885166
      4861.19       1.8432047    0.0024356273
      4866.05       1.8453028    0.0024572004
      4870.92       1.8498290    0.0024371996
      4875.79       1.8537365    0.0023854641
      4880.66       1.8576134    0.0024065012
      4885.55       1.8636605    0.0023869768
      4890.43       1.8701523    0.0023363297
      4895.32       1.8781746    0.0023569480
      4900.22       1.8857472    0.0023378427
      4905.12       1.8932964    0.0022882041
      4910.02       1.9006328    0.0023085341
      4914.94       1.9070571    0.0022583701
      4919.85       1.9140563    0.0022411187
      4924.77       1.9213402    0.0022612665
      4929.70       1.9271247    0.0022120500
      4934.62       1.9348541    0.0021950609
      4939.56       1.9385357    0.0021792442
      4944.50       1.9434992    0.0021668253
      4949.44       1.9502250    0.0021500505
      4954.39       1.9563431    0.0021344057
      4959.35       1.9610983    0.0021227100
      4964.31       1.9651715    0.0021061251
      4969.27       1.9713626    0.0020906131
      4974.24       1.9786800    0.0021087086
      4979.22       1.9867831    0.0020633048
      4984.20       1.9971402    0.0020479033
      4989.18       2.0098504    0.0020335172
      4994.17       2.0202536    0.0020216180
      4999.16       2.0311408    0.0020063083
      5004.16       2.0426516    0.0019919554
      5009.17       2.0565715    0.0019502236
      5014.18       2.0687434    0.0019658570
      5019.19       2.0818009    0.0019515359
      5024.21       2.0946475    0.0019115583
      5029.23       2.1093183    0.0019265991
      5034.26       2.1224951    0.0019122930
      5039.30       2.1362139    0.0018988443
      5044.34       2.1487000    0.0018592169
      5049.39       2.1606363    0.0018742723
      5054.43       2.1713463    0.0018607991
      5059.49       2.1834209    0.0018230871
      5064.55       2.1972227    0.0018090096
      5069.61       2.2072920    0.0018240206
      5074.68       2.2158619    0.0017882487
      5079.76       2.2233304    0.0017741835
      5084.84       2.2298074    0.0017608390
      5089.92       2.2334325    0.0017757438
      5095.01       2.2375231    0.0017406937
      5100.11       2.2391139    0.0017273297
      5105.21       2.2455001    0.0017146398
      5110.31       2.2495131    0.0017085846
      5115.42       2.2505640    0.0016952037
      5120.54       2.2524493    0.0016824776
      5125.66       2.2543835    0.0016703800
      5130.79       2.2580567    0.0016645131
      5135.92       2.2623536    0.0016517458
      5141.05       2.2660210    0.0016395862
      5146.20       2.2715495    0.0016280235
      5151.34       2.2756250    0.0015959135
      5156.49       2.2802480    0.0016102895
      5161.65       2.2870344    0.0015986513
      5166.81       2.2904981    0.0015875740
      5171.98       2.2897922    0.0015563834
      5177.15       2.2887451    0.0015708332
      5182.33       2.2883017    0.0015596701
      5187.51       2.2851703    0.0015490351
      5192.70       2.2826007    0.0015187019
      5197.89       2.2775853    0.0015091351
      5203.09       2.2749567    0.0015226598
      5208.29       2.2670239    0.0015124319
      5213.50       2.2598074    0.0014828985
      5218.72       2.2511359    0.0014736885
      5223.93       2.2427536    0.0014649204
      5229.16       2.2348902    0.0014778022
      5234.39       2.2254212    0.0014490905
      5239.62       2.2143351    0.0014404732
      5244.86       2.2052151    0.0014322777
      5250.11       2.1963724    0.0014248738
      5255.36       2.1888574    0.0014374623
      5260.61       2.1811182    0.0014103913
      5265.87       2.1717264    0.0014034659
      5271.14       2.1613428    0.0013976474
      5276.41       2.1514437    0.0013930732
      5281.69       2.1409117    0.0013885221
      5286.97       2.1295505    0.0013846566
      5292.26       2.1204318    0.0013823912
      5297.55       2.1089691    0.0013810646
      5302.85       2.1012387    0.0013806667
      5308.15       2.0908928    0.0013602431
      5313.46       2.0808006    0.0013777527
      5318.77       2.0700762    0.0013777024
      5324.09       2.0586050    0.0013778995
      5329.42       2.0475734    0.0013783071
      5334.75       2.0373588    0.0013587612
      5340.08       2.0270503    0.0013587944
      5345.42       2.0168446    0.0013767498
      5350.77       2.0067451    0.0013771499
      5356.12       1.9978734    0.0013777220
      5361.48       1.9867448    0.0013588282
      5366.83       1.9752512    0.0013587507
      5372.20       1.9619618    0.0013588240
      5377.58       1.9487024    0.0013590457
      5382.95       1.9361014    0.0013771899
      5388.34       1.9252642    0.0013590571
      5393.72       1.9138044    0.0013588354
      5399.12       1.9019098    0.0013587538
      5404.52       1.8936309    0.0013587930
      5409.92       1.8816836    0.0013589813
      5415.33       1.8689581    0.0013592778
      5420.75       1.8579233    0.0013591808
      5426.17       1.8460985    0.0013589210
      5431.60       1.8364008    0.0013587809
      5437.03       1.8273632    0.0013587556
      5442.47       1.8182270    0.0013588405
      5447.91       1.8088521    0.0013590327
      5453.36       1.7992316    0.0013403281
      5458.81       1.7908178    0.0013406999
      5464.27       1.7812298    0.0013589261
      5469.73       1.7723709    0.0013587891
      5475.20       1.7640367    0.0013587494
      5480.68       1.7561858    0.0013588008
      5486.16       1.7511357    0.0013589449
      5491.65       1.7446761    0.0013401756
      5497.14       1.7354202    0.0013404667
      5502.64       1.7268920    0.0013408333
      5508.14       1.7193698    0.0013412643
      5513.65       1.7113244    0.0013587828
      5519.16       1.7027006    0.0013587499
      5524.68       1.6945990    0.0013587898
      5530.20       1.6879089    0.0013399208
      5535.73       1.6824355    0.0013400869
      5541.27       1.6761352    0.0013403113
      5546.81       1.6702864    0.0013405960
      5552.36       1.6630747    0.0013409240
      5557.91       1.6547599    0.0013413100
      5563.47       1.6487590    0.0013417421
      5569.04       1.6430815    0.0013422197
      5574.60       1.6375557    0.0013397929
      5580.18       1.6323086    0.0013398618
      5585.76       1.6259845    0.0013399696
      5591.35       1.6205573    0.0013401193
      5596.94       1.6124337    0.0013403151
      5602.53       1.6033924    0.0013405365
      5608.14       1.5957138    0.0013407968
      5613.75       1.5894411    0.0013410891
      5619.36       1.5854129    0.0013414148
      5624.98       1.5802699    0.0013233997
      5630.60       1.5761239    0.0013233723
      5636.23       1.5733594    0.0013233759
      5641.87       1.5700839    0.0013234053
      5647.51       1.5661699    0.0013232143
      5653.16       1.5627902    0.0013235395
      5658.82       1.5591539    0.0013400696
      5664.47       1.5547534    0.0013401986
      5670.14       1.5518284    0.0013403443
      5675.81       1.5485196    0.0013405070
      5681.48       1.5441597    0.0013406883
      5687.17       1.5374133    0.0013236391
      5692.85       1.5296894    0.0013235525
      5698.55       1.5200345    0.0013234850
      5704.25       1.5097773    0.0013234359
      5709.95       1.4992011    0.0013234002
      5715.66       1.4876820    0.0013233336
      5721.38       1.4767682    0.0013233714
      5727.10       1.4669120    0.0013233742
      5732.83       1.4570126    0.0013233851
      5738.56       1.4486451    0.0013234050
      5744.30       1.4403141    0.0013234323
      5750.04       1.4324478    0.0013234638
      5755.79       1.4266875    0.0013235005
      5761.55       1.4207777    0.0013235487
      5767.31       1.4162947    0.0013236335
      5773.08       1.4113337    0.0013062659
      5778.85       1.4081015    0.0013064796
      5784.63       1.4046959    0.0013066561
      5790.41       1.4003657    0.0013068063
      5796.21       1.3941315    0.0013070398
      5802.00       1.3847279    0.0013074896
      5807.81       1.3744927    0.0013083325
      5813.61       1.3635824    0.0013094931
      5819.43       1.3532757    0.0013107031
      5825.25       1.3440508    0.0013119570
      5831.07       1.3372044    0.0013133845
      5836.90       1.3321492    0.0013148076
      5842.74       1.3282477    0.0013158052
      5848.58       1.3267744    0.0013163901
      5854.43       1.3266291    0.0013167592
      5860.29       1.3282289    0.0013169326
      5866.15       1.3306679    0.0013168710
      5872.01       1.3318906    0.0013166078
      5877.89       1.3342602    0.0013162947
      5883.76       1.3369126    0.0013160829
      5889.65       1.3395481    0.0013159170
      5895.54       1.3410986    0.0013156183
      5901.43       1.3402103    0.0013151151
      5907.34       1.3378625    0.0013144473
      5913.24       1.3347392    0.0013136770
      5919.16       1.3331896    0.0013129558
      5925.08       1.3313941    0.0013121748
      5931.00       1.3306718    0.0013111696
      5936.93       1.3299275    0.0013103269
      5942.87       1.3305696    0.0013098634
      5948.81       1.3314913    0.0013095749
      5954.76       1.3326485    0.0012940224
      5960.72       1.3357991    0.0012938838
      5966.68       1.3383767    0.0012942905
      5972.64       1.3407626    0.0012953475
      5978.62       1.3419948    0.0012971017
      5984.60       1.3424685    0.0012996139
      5990.58       1.3425040    0.0013029643
      5996.57       1.3417288    0.0013071739
      6002.57       1.3419247    0.0013121485
      6008.57       1.3415224    0.0013178125
      6014.58       1.3403487    0.0013240745
      6020.60       1.3400397    0.0013308088
      6026.62       1.3410650    0.0013378717
      6032.65       1.3412268    0.0013451333
      6038.68       1.3427109    0.0013525185
      6044.72       1.3434165    0.0013453639
      6050.76       1.3451483    0.0013528302
      6056.81       1.3486729    0.0013604813
      6062.87       1.3528048    0.0013682418
      6068.93       1.3565839    0.0013761103
      6075.00       1.3611709    0.0013840888
      6081.08       1.3674709    0.0014119832
      6087.16       1.3730874    0.0014203179
      6093.25       1.3781573    0.0014287741
      6099.34       1.3833269    0.0014373489
      6105.44       1.3881433    0.0014460492
      6111.54       1.3929053    0.0014401521
      6117.66       1.3977273    0.0014486311
      6123.78       1.4008727    0.0014572274
      6129.90       1.4027846    0.0014659446
      6136.03       1.4048317    0.0014747802
      6142.17       1.4057956    0.0014837422
      6148.31       1.4065697    0.0014928460
      6154.46       1.4079841    0.0015021513
      6160.61       1.4090079    0.0015118887
      6166.77       1.4126231    0.0015077264
      6172.94       1.4148847    0.0015382925
      6179.11       1.4148736    0.0015478193
      6185.29       1.4134151    0.0015583002
      6191.48       1.4114119    0.0015697164
      6197.67       1.4116413    0.0015820571
      6203.87       1.4106838    0.0015952204
      6210.07       1.4093147    0.0015940735
      6216.28       1.4096688    0.0016077779
      6222.50       1.4106249    0.0016213422
      6228.72       1.4109765    0.0016344560
      6234.95       1.4115006    0.0016698015
      6241.19       1.4119162    0.0016803041
      6247.42       1.4123470    0.0016897302
      6253.67       1.4133408    0.0016814211
      6259.93       1.4126188    0.0016892305
      6266.19       1.4125152    0.0016969219
      6272.46       1.4123919    0.0017051393
      6278.73       1.4142812    0.0017144836
      6285.01       1.4162598    0.0017247307
      6291.29       1.4138678    0.0017389028
      6297.58       1.4110309    0.0017482830
      6303.88       1.4089200    0.0017583395
      6310.19       1.4055908    0.0017686444
      6316.50       1.4021976    0.0017792545
      6322.81       1.3986708    0.0017902221
      6329.14       1.3940322    0.0017829100
      6335.47       1.3910953    0.0017935970
      6341.80       1.3883437    0.0018293702
      6348.14       1.3855067    0.0018409655
      6354.49       1.3830742    0.0018529108
      6360.85       1.3800882    0.0018651856
      6367.21       1.3763196    0.0018584542
      6373.57       1.3712638    0.0018703408
      6379.95       1.3653663    0.0019087146
      6386.33       1.3593842    0.0019218773
      6392.72       1.3538882    0.0019358031
      6399.11       1.3503311    0.0019315779
      6405.51       1.3455242    0.0019449743
      6411.92       1.3404283    0.0019584629
      6418.32       1.3374865    0.0019721840
      6424.74       1.3352381    0.0019952160
      6431.17       1.3313991    0.0020078805
      6437.60       1.3275145    0.0020203554
      6444.04       1.3251129    0.0020326902
      6450.48       1.3212927    0.0020450086
      6456.94       1.3195960    0.0020661645
      6463.39       1.3155665    0.0020778552
      6469.85       1.3114562    0.0020900658
      6476.33       1.3068979    0.0021028208
      6482.80       1.3016723    0.0020965037
      6489.28       1.2950709    0.0021096318
      6495.77       1.2870947    0.0021500324
      6502.27       1.2790950    0.0021621256
      6508.77       1.2699171    0.0021745462
      6515.28       1.2609139    0.0021674171
      6521.80       1.2529443    0.0021808761
      6528.32       1.2426181    0.0022215933
      6534.85       1.2336513    0.0022338842
      6541.38       1.2258407    0.0022262561
      6547.92       1.2171019    0.0022398612
      6554.47       1.2092057    0.0022828706
      6561.03       1.2024738    0.0022751487
      6567.59       1.1965684    0.0022889624
      6574.16       1.1903662    0.0023032503
      6580.73       1.1856087    0.0023179781
      6587.31       1.1815733    0.0023398379
      6593.90       1.1764139    0.0023539295
      6600.50       1.1718507    0.0023684881
      6607.10       1.1673251    0.0023835415
      6613.70       1.1632600    0.0024059405
      6620.32       1.1580794    0.0024203721
      6626.94       1.1523858    0.0024352825
      6633.57       1.1465398    0.0024271614
      6640.20       1.1413622    0.0024412447
      6646.84       1.1352454    0.0024880439
      6653.49       1.1278455    0.0025033230
      6660.14       1.1204543    0.0024944596
      6666.80       1.1137484    0.0025088889
      6673.47       1.1079455    0.0025569266
      6680.14       1.1042978    0.0025485575
      6686.82       1.0995593    0.0025628347
      6693.51       1.0955378    0.0025776851
      6700.20       1.0922232    0.0026270597
      6706.90       1.0883518    0.0026176002
      6713.61       1.0823211    0.0026323384
      6720.32       1.0754362    0.0026823153
      6727.05       1.0689705    0.0026731669
      6733.77       1.0619224    0.0026885320
      6740.51       1.0532121    0.0027074556
      6747.25       1.0440781    0.0027440388
      6754.00       1.0378086    0.0027591036
      6760.75       1.0292477    0.0027723113
      6767.51       1.0178595    0.0027725456
      6774.28       1.0061655    0.0028415786
      6781.05      0.99420267    0.0028810732
      6787.84      0.98197794    0.0029094785
      6794.62      0.97054980    0.0030120996
      6801.42      0.96082262    0.0030691857
      6808.22      0.95105620    0.0031026545
      6815.03      0.94038842    0.0032059171
      6821.85      0.93200366    0.0032453335
      6828.67      0.92414151    0.0032406929
      6835.50      0.91552159    0.0032548797
      6842.33      0.90679992    0.0032888996
      6849.17      0.89867069    0.0032414767
      6856.02      0.89097768    0.0032259060
      6862.88      0.88588222    0.0032047403
      6869.74      0.88027607    0.0032000706
      6876.61      0.87468076    0.0032051454
      6883.49      0.87094499    0.0032029652
      6890.37      0.86205271    0.0031994516
      6897.27      0.85206115    0.0032046714
      6904.16      0.84242970    0.0032163144
      6911.07      0.83255715    0.0032245473
      6917.98      0.82100067    0.0032046686
      6924.89      0.80845079    0.0032534461
      6931.82      0.79697735    0.0032682680
      6938.75      0.78649644    0.0032538023
      6945.69      0.77635724    0.0033102124
      6952.64      0.76673362    0.0032970417
      6959.59      0.75759936    0.0033113084
      6966.55      0.74867196    0.0033662892
      6973.52      0.74051191    0.0033480299
      6980.49      0.73355266    0.0033605278
      6987.47      0.72940529    0.0033850631
      6994.46      0.72573448    0.0033984410
      7001.46      0.72156179    0.0034543461
      7008.46      0.71726087    0.0034371535
      7015.46      0.71395132    0.0034511423
      7022.48      0.71095631    0.0034780465
      7029.51      0.70463201    0.0034925015
      7036.53      0.69799723    0.0035093951
      7043.57      0.69153480    0.0035406456
      7050.62      0.68457762    0.0035592343
      7057.66      0.67536215    0.0035942668
      7064.72      0.66636962    0.0036146742
      7071.79      0.65766169    0.0036119873
      7078.86      0.64905894    0.0036893560
      7085.94      0.63936174    0.0037267334
      7093.03      0.62855702    0.0037464824
      7100.12      0.61890165    0.0038525151
      7107.22      0.61165416    0.0038787993
      7114.33      0.60498253    0.0039836370
      7121.44      0.59771333    0.0039912832
      7128.56      0.59062379    0.0040265028
      7135.69      0.58485585    0.0040681252
      7142.83      0.58025272    0.0040895397
      7149.97      0.57681283    0.0041120478
      7157.12      0.57277057    0.0041224598
      7164.28      0.56888084    0.0041766578
      7171.44      0.56673355    0.0041562124
      7178.62      0.56449057    0.0041779359
      7185.80      0.56269343    0.0042123078
      7192.98      0.56014923    0.0042361018
      7200.17      0.55786945    0.0042665052
      7207.38      0.55540799    0.0042817124
      7214.58      0.55275794    0.0042943193
      7221.80      0.54956259    0.0042979222
      7229.02      0.54665644    0.0042575368
      7236.25      0.54606740    0.0043117967
      7243.49      0.54361832    0.0042718448
      7250.73      0.54085800    0.0043188703
      7257.98      0.53832347    0.0042738529
      7265.24      0.53710359    0.0043182222
      7272.51      0.53698626    0.0042771323
      7279.78      0.53593163    0.0043267895
      7287.06      0.53564086    0.0042913739
      7294.35      0.53658908    0.0043448569
      7301.64      0.53768663    0.0043157860
      7308.94      0.53806386    0.0043266549
      7316.25      0.53698390    0.0043484313
      7323.57      0.53611431    0.0043596009
      7330.89      0.53668860    0.0043798946
      7338.22      0.53638948    0.0043913096
      7345.56      0.53515951    0.0044141285
      7352.91      0.53311486    0.0043894736
      7360.26      0.53292881    0.0044529931
      7367.62      0.53350786    0.0044297464
      7374.99      0.53277646    0.0044947251
      7382.37      0.52943818    0.0044718083
      7389.75      0.52693279    0.0045380854
      7397.14      0.52659774    0.0045162536
      7404.53      0.52770192    0.0045835086
      7411.94      0.52680403    0.0045618197
      7419.35      0.52463712    0.0046298833
      7426.77      0.52432043    0.0046086774
      7434.20      0.52537463    0.0046376138
      7441.63      0.52617239    0.0046565668
      7449.07      0.52582608    0.0046936264
      7456.52      0.52377804    0.0047355010
      7463.98      0.52258357    0.0048246454
      7471.45      0.52291878    0.0048766490
      7478.92      0.52407284    0.0048949104
      7486.40      0.51991382    0.0048767541
      7493.88      0.51690068    0.0050257499
      7501.38      0.51581339    0.0051659489
      7508.88      0.51438716    0.0054325252
      7516.39      0.50905685    0.0058098470
      7523.91      0.50328289    0.0061083158
      7531.43      0.49846834    0.0066056592
      7538.96      0.49769259    0.0069525094
      7546.50      0.49608064    0.0074165303
      7554.05      0.49297221    0.0075678866
      7561.60      0.49252079    0.0077980603
      7569.16      0.49723891    0.0075830510
      7576.73      0.50170920    0.0072932788
      7584.31      0.50759117    0.0070601734
      7591.89      0.51205210    0.0066005128
      7599.49      0.51618623    0.0062274539
      7607.09      0.52383710    0.0060356522
      7614.70      0.53238537    0.0058171914
      7622.31      0.53811619    0.0056791877
      7629.93      0.54065785    0.0055464703
      7637.56      0.54577834    0.0054429354
      7645.20      0.55260643    0.0054657411
      7652.85      0.55567262    0.0054328365
      7660.50      0.55582864    0.0053618218
      7668.16      0.55658005    0.0054044335
      7675.83      0.56030956    0.0053569518
      7683.50      0.56427506    0.0054159976
      7691.19      0.56587247    0.0054370326
      7698.88      0.56630282    0.0054047504
      7706.58      0.56856289    0.0054764578
      7714.29      0.57129441    0.0054482784
      7722.00      0.57310629    0.0054759815
      7729.73      0.57366745    0.0055517667
      7737.45      0.57311313    0.0055239274
      7745.19      0.57633062    0.0055529797
      7752.94      0.57955911    0.0055734073
      7760.69      0.58073603    0.0056015979
      7768.45      0.57884184    0.0056314836
      7776.22      0.57917549    0.0056524188
      7784.00      0.58430319    0.0056834796
      7791.78      0.58752544    0.0057167412
      7799.57      0.58679882    0.0057394507
      7807.37      0.58458242    0.0057737668
      7815.18      0.59044912    0.0058099795
      7822.99      0.59789352    0.0057830827
      7830.82      0.60184695    0.0058637041
      7838.65      0.60334214    0.0058316787
      7846.49      0.60798421    0.0058623602
      7854.34      0.61533392    0.0059416418
      7862.19      0.62413555    0.0059079115
      7870.05      0.62667240    0.0059371421
      7877.93      0.62803298    0.0060168603
      7885.80      0.63398247    0.0059825937
      7893.69      0.64422462    0.0060136836
      7901.58      0.64867873    0.0060467843
      7909.49      0.65035811    0.0060633671
      7917.40      0.65033824    0.0060945903
      7925.31      0.65687588    0.0061266955
      7933.24      0.66559705    0.0060936831
      7941.17      0.66914574    0.0061712911
      7949.11      0.66964261    0.0061996059
      7957.06      0.67244977    0.0061658526
      7965.02      0.68173444    0.0061939686
      7972.98      0.69066451    0.0062723188
      7980.96      0.69490442    0.0063009936
      7988.94      0.69626397    0.0062692874
      7996.93      0.70063346    0.0063026384
      8004.93      0.70659027    0.0063890934
      8012.93      0.71212144    0.0063700083
      8020.95      0.70996953    0.0064183453
      8028.97      0.70533246    0.0064760587
      8036.99      0.70376754    0.0065220269
      8045.03      0.70092087    0.0066014718
      8053.08      0.69441034    0.0066925070
      8061.13      0.68454853    0.0067913396
      8069.20      0.67880242    0.0068622978
      8077.26      0.67628284    0.0069722317
      8085.34      0.67870626    0.0070638532
      8093.43      0.67595759    0.0071180499
      8101.52      0.67323256    0.0070805517
      8109.62      0.67203327    0.0071782697
      8117.73      0.67771234    0.0072041543
      8125.85      0.68191656    0.0071525810
      8133.98      0.68438507    0.0071661574
      8142.11      0.68911985    0.0071739472
      8150.25      0.69565940    0.0072443034
      8158.41      0.70083108    0.0071819970
      8166.56      0.70470130    0.0071980241
      8174.73      0.70812613    0.0072132926
      8182.91      0.71064008    0.0072222416
      8191.09      0.71674172    0.0072893290
      8199.28      0.71754381    0.0072244712
      8207.48      0.71808306    0.0072251306
      8215.69      0.72096237    0.0072279544
      8223.91      0.72992170    0.0072477766
      8232.13      0.73901922    0.0072010686
      8240.36      0.75026825    0.0072784786
      8248.60      0.75167434    0.0072640031
      8256.85      0.75630531    0.0072513040
      8265.11      0.76509786    0.0072459410
      8273.37      0.77478061    0.0071783121
      8281.65      0.78011548    0.0071789390
      8289.93      0.78518347    0.0071823525
      8298.22      0.78947633    0.0072446601
      8306.52      0.79183271    0.0072489393
      8314.83      0.79685498    0.0071924292
      8323.14      0.80206711    0.0072044118
      8331.46      0.80630758    0.0072191697
      8339.80      0.80244004    0.0072338690
      8348.13      0.79895292    0.0072506131
      8356.48      0.79631798    0.0072624892
      8364.84      0.79932995    0.0072813684
      8373.21      0.80185057    0.0073016064
      8381.58      0.79758520    0.0073231176
      8389.96      0.78989882    0.0073460248
      8398.35      0.78598290    0.0073695938
      8406.75      0.78302428    0.0073242306
      8415.16      0.78063209    0.0073500073
      8423.57      0.77646825    0.0073759194
      8432.00      0.76860519    0.0074016118
      8440.43      0.75974347    0.0074859571
      8448.87      0.75374185    0.0075101369
      8457.32      0.75180642    0.0075333312
      8465.78      0.75070187    0.0074844103
      8474.25      0.74484857    0.0075065965
      8482.72      0.73563791    0.0075285585
      8491.20      0.72755997    0.0075507736
      8499.69      0.72545539    0.0075735809
      8508.19      0.72822172    0.0075965003
      8516.70      0.72683915    0.0076187905
      8525.22      0.72301496    0.0075695524
      8533.75      0.71611321    0.0075916207
      8542.28      0.71064779    0.0076148459
      8550.82      0.70802257    0.0076984631
      8559.37      0.70289914    0.0077224972
      8567.93      0.69493623    0.0077465653
      8576.50      0.68730070    0.0077707898
      8585.08      0.68219160    0.0077947426
      8593.66      0.67869501    0.0078181878
      8602.26      0.67466750    0.0077709218
      8610.86      0.67054444    0.0077925682
      8619.47      0.66762714    0.0078138239
      8628.09      0.66524868    0.0078347225
      8636.72      0.66193621    0.0078555065
      8645.36      0.66250879    0.0078765138
      8654.00      0.66582269    0.0078978437
      8662.66      0.66823596    0.0079198281
      8671.32      0.66887455    0.0079421447
      8679.99      0.67002456    0.0079640903
      8688.67      0.67315274    0.0079864898
      8697.36      0.67305777    0.0080095262
      8706.06      0.67065427    0.0080322756
      8714.76      0.66570406    0.0080548988
      8723.48      0.66411304    0.0080038025
      8732.21      0.66625555    0.0080260043
      8740.93      0.66884388    0.0080483544
      8749.68      0.66549644    0.0080707368
      8758.43      0.65983299    0.0080934708
      8767.19      0.65706891    0.0081170308
      8775.96      0.65772812    0.0081407614
      8784.73      0.65773210    0.0081660899
      8793.52      0.65442406    0.0081952399
      8802.31      0.64899113    0.0082273914
      8811.11      0.64512414    0.0082608798
      8819.92      0.64133884    0.0083016629
      8828.75      0.63551827    0.0083569458
      8837.57      0.62675729    0.0084204363
      8846.41      0.61623689    0.0084997852
      8855.26      0.60595015    0.0086017141
      8864.12      0.59446711    0.0087229284
      8872.98      0.57920499    0.0088017793
      8881.85      0.56236369    0.0089435363
      8890.73      0.55508372    0.0090855464
      8899.63      0.55337209    0.0092145902
      8908.52      0.55182358    0.0093163139
      8917.43      0.54694130    0.0093751942
      8926.35      0.54500442    0.0093905303
      8935.28      0.54989472    0.0093761571
      8944.22      0.55782026    0.0093450823
      8953.16      0.56085722    0.0093143336
      8962.11      0.56176833    0.0093040310
      8971.08      0.56460053    0.0093131852
      8980.05      0.56549582    0.0093307326
      8989.03      0.56909041    0.0093108598
      8998.02      0.56631237    0.0093763654
      9007.02      0.55981539    0.0094418880
      9016.02      0.55027763    0.0095034253
      9025.04      0.54487194    0.0095545847
      9034.07      0.54110884    0.0095899786
      9043.10      0.53184106    0.0096095374
      9052.14      0.51755381    0.0097071457
      9061.20      0.51376779    0.0097157266
      9070.26      0.52139297    0.0096370504
      9079.33      0.53197114    0.0096239651
      9088.41      0.53267151    0.0095856474
      9097.50      0.52780029    0.0095314175
      9106.60      0.53067839    0.0094791735
      9115.70      0.54476441    0.0094336072
      9124.82      0.55659124    0.0093946646
      9133.94      0.56313758    0.0093184486
      9143.08      0.56231284    0.0093337886
      9152.22      0.56452391    0.0093687361
      9161.37      0.57150889    0.0094363768
      9170.54      0.56841008    0.0096301997
      9179.71      0.55213612    0.0097967490
      9188.89      0.52957981     0.010029751
      9198.08      0.51222381     0.010328240
      9207.28      0.49745024     0.010752786
      9216.48      0.46923394     0.011268518
      9225.70      0.42768823     0.011865074
      9234.92      0.38862297     0.012512052
      9244.16      0.37038919     0.013168293
      9253.40      0.36184487     0.013940476
      9262.66      0.33944786     0.014350741
      9271.92      0.31794000     0.014558427
      9281.20      0.31119815     0.014546793
      9290.48      0.32556495     0.014375766
      9299.77      0.33928003     0.013893588
      9309.07      0.34029413     0.013613960
      9318.38      0.33544651     0.013389649
      9327.69      0.34184225     0.013346090
      9337.02      0.34527233     0.013204931
      9346.36      0.34941955     0.013273868
      9355.71      0.34330746     0.013366401
      9365.07      0.33174107     0.013427312
      9374.43      0.32497975     0.013503166
      9383.80      0.32509551     0.013543192
      9393.19      0.32168970     0.013441229
      9402.58      0.31362322     0.013288657
      9411.98      0.30765756     0.013181268
      9421.40      0.31421422     0.012991065
      9430.82      0.32947384     0.012884667
      9440.25      0.34003630     0.012886645
      9449.69      0.33772361     0.012798957
      9459.14      0.33138244     0.012578642
      9468.60      0.34022792     0.012284525
      9478.07      0.35436797     0.012168744
      9487.55      0.35390273     0.011925391
      9497.04      0.34072811     0.011666752
      9506.53      0.34473245     0.011353758
      9516.04      0.35979627     0.011221795
      9525.56      0.37468120     0.010964490
      9535.08      0.37214668     0.010712373
      9544.62      0.37370858     0.010417527
      9554.16      0.38095480     0.010252577
      9563.72      0.39279709    0.0099772184
      9573.29      0.40006545    0.0097303956
      9582.85      0.39803690    0.0094626993
      9592.44      0.39934731    0.0093407868
      9602.03      0.40388900    0.0091613208
      9611.63      0.40137239    0.0090151413
      9621.25      0.39568601    0.0089054458
      9630.87      0.39031919    0.0087618148
      9640.50      0.39027119    0.0087210134
      9650.14      0.38736521    0.0086384052
      9659.79      0.37578381    0.0085722884
      9669.45      0.36446080    0.0084560426
      9679.12      0.36119662    0.0083836349
      9688.80      0.36395078    0.0083626271
      9698.49      0.36451856    0.0082807699
      9708.19      0.35815089    0.0081912160
      9717.90      0.35490579    0.0080589746
      9727.62      0.36166838    0.0079589262
      9737.34      0.37576933    0.0078672483
      9747.08      0.38883955    0.0077793267
      9756.83      0.39806608    0.0077108618
      9766.59      0.40953806    0.0076320851
      9776.35      0.42436660    0.0075649782
      9786.13      0.44338604    0.0075026907
      9795.92      0.46611650    0.0074457265
      9805.71      0.48614714    0.0073573248
      9815.52      0.50683387    0.0073048639
      9825.34      0.52639186    0.0072538398
      9835.17      0.54426839    0.0072405489
      9845.00      0.56345777    0.0071968860
      9854.84      0.58654985    0.0071568627
      9864.70      0.60737427    0.0070856743
      9874.56      0.62618392    0.0070457563
      9884.44      0.64122469    0.0070068386
      9894.32      0.65664135    0.0069716293
      9904.22      0.67320490    0.0069372492
      9914.13      0.69058049    0.0068736516
      9924.04      0.70437937    0.0068403262
      9933.96      0.71494371    0.0068074981
      9943.90      0.72474687    0.0067752568
      9953.84      0.73339645    0.0068022964
      9963.79      0.74338925    0.0068950688
      9973.76      0.75385531    0.0069794789
      9983.74      0.76401500    0.0071223973
      9993.72      0.77076591    0.0072668745
