# starting wavelength =        3479.7227
# ending wavelength =        10063.442
# O2 telluric scale =        0
# O2 telluric shift =        0
# H2O telluric scale =        0
# H2O telluric shift =        0
      3481.40       1.5826778     0.025646148
      3484.88       1.5814706     0.025562241
      3488.37       1.5790825     0.025481636
      3491.86       1.5758335     0.025404222
      3495.35       1.5646428     0.025330078
      3498.84       1.5398036     0.025219908
      3502.34       1.5306947     0.025135871
      3505.84       1.5290537     0.025055248
      3509.35       1.5294176     0.024978028
      3512.86       1.5241682     0.025202916
      3516.37       1.5285610     0.025131665
      3519.89       1.5429217     0.025064051
      3523.41       1.5558887     0.024632058
      3526.93       1.5373327     0.024850014
      3530.46       1.5221490     0.024775942
      3533.99       1.5243712     0.024705669
      3537.53       1.5384972     0.024639226
      3541.06       1.5494485     0.024843093
      3544.60       1.5471726     0.024425938
      3548.15       1.5373910     0.024353247
      3551.70       1.5326567     0.024284518
      3555.25       1.5318375     0.024495981
      3558.80       1.5283204     0.024415530
      3562.36       1.5270818     0.024339432
      3565.92       1.5291141     0.023935146
      3569.49       1.5341551     0.024152565
      3573.06       1.5348943     0.024069982
      3576.64       1.5334544     0.023991893
      3580.21       1.5320496     0.023918305
      3583.79       1.5269642     0.023812158
      3587.38       1.5284696     0.023727752
      3590.96       1.5372050     0.023648017
      3594.55       1.5480370     0.023872508
      3598.15       1.5516330     0.023801039
      3601.75       1.5565992     0.023734546
      3605.35       1.5711773     0.023307218
      3608.96       1.5781945     0.023526112
      3612.56       1.5864858     0.023453553
      3616.18       1.5949970     0.023386083
      3619.79       1.6020320     0.023601072
      3623.41       1.6059765     0.023182784
      3627.04       1.6125462     0.023109514
      3630.66       1.6193461     0.023041510
      3634.29       1.6253833     0.023256286
      3637.93       1.6444179     0.023175594
      3641.57       1.6670526     0.023100687
      3645.21       1.6796675     0.023000150
      3648.86       1.6785581     0.022913414
      3652.50       1.6781232     0.022832718
      3656.16       1.6818868     0.022757919
      3659.81       1.6862853     0.022995679
      3663.47       1.6859875     0.022572515
      3667.14       1.6896212     0.022492198
      3670.80       1.6955164     0.022720819
      3674.48       1.6987630     0.022651693
      3678.15       1.7014129     0.022589105
      3681.83       1.7143500     0.022453470
      3685.51       1.7271899     0.022378937
      3689.20       1.7356983     0.022311059
      3692.88       1.7406630     0.022249849
      3696.58       1.7534132     0.022112977
      3700.27       1.7705201     0.022040038
      3703.98       1.7865912     0.021973928
      3707.68       1.7990737     0.022189128
      3711.39       1.8055079     0.022109578
      3715.10       1.8169649     0.021704377
      3718.81       1.8289387     0.021931226
      3722.53       1.8349600     0.021846679
      3726.26       1.8402276     0.021769767
      3729.98       1.8514005     0.022013519
      3733.71       1.8511368     0.021588629
      3737.45       1.8462148     0.021507151
      3741.18       1.8347998     0.021742527
      3744.93       1.8182794     0.021675715
      3748.67       1.7989905     0.021248881
      3752.42       1.7862097     0.021476421
      3756.17       1.7706676     0.021405345
      3759.93       1.7541266     0.021342735
      3763.69       1.7329346     0.021558439
      3767.45       1.7128536     0.021139442
      3771.22       1.7033704     0.021073024
      3774.99       1.6950782     0.021296558
      3778.77       1.6960525     0.021215728
      3782.54       1.7033280     0.020807528
      3786.33       1.6987760     0.021037853
      3790.11       1.7067328     0.020953338
      3793.90       1.7212399     0.020878609
      3797.70       1.7340641     0.020781771
      3801.50       1.7431976     0.020693904
      3805.30       1.7560898     0.020616056
      3809.10       1.7762712     0.020865646
      3812.91       1.7902428     0.020436954
      3816.73       1.8035313     0.020671133
      3820.54       1.8136135     0.020599082
      3824.36       1.8204294     0.020537685
      3828.19       1.8224233     0.020409931
      3832.02       1.8331345     0.020335437
      3835.85       1.8457768     0.020271841
      3839.68       1.8576166     0.020497057
      3843.52       1.8714469     0.020074352
      3847.37       1.8905537     0.020008903
      3851.22       1.9105555     0.020235812
      3855.07       1.9280233     0.020155437
      3858.92       1.9476942     0.020070647
      3862.78       1.9619410     0.019976208
      3866.64       1.9757314     0.019894482
      3870.51       1.9890369     0.020155293
      3874.38       1.9939415     0.019717976
      3878.26       1.9974120     0.019962577
      3882.13       2.0024522     0.019890975
      3886.02       2.0123727     0.019832815
      3889.90       2.0282937     0.019700722
      3893.79       2.0378872     0.019628795
      3897.69       2.0451098     0.019570521
      3901.59       2.0484734     0.019794795
      3905.49       2.0558389     0.019368718
      3909.39       2.0617531     0.019620034
      3913.30       2.0687493     0.019531558
      3917.22       2.0786960     0.019110777
      3921.13       2.0895545     0.019357312
      3925.06       2.0993882     0.019269992
      3928.98       2.1158205     0.019544818
      3932.91       2.1210185     0.019095737
      3936.84       2.1191737     0.019010057
      3940.78       2.1149328     0.019281825
      3944.72       2.1115671     0.018835388
      3948.67       2.1035101     0.019090308
      3952.61       2.0968975     0.019021219
      3956.57       2.0933304     0.018969302
      3960.52       2.0947502     0.018829232
      3964.48       2.1032528     0.018763202
      3968.45       2.1095563     0.018319162
      3972.42       2.1151980     0.018570389
      3976.39       2.1260147     0.018507992
      3980.37       2.1395314     0.018063846
      3984.35       2.1484999     0.018314070
      3988.33       2.1588735     0.018255885
      3992.32       2.1740086     0.018131785
      3996.31       2.1842693     0.018060650
      4000.31       2.1951273     0.017641330
      4004.31       2.2032283     0.017876402
      4008.31       2.2084569     0.017810475
      4012.32       2.2055305     0.017388589
      4016.33       2.1987533     0.017624122
      4020.35       2.1899684     0.017563949
      4024.37       2.1785778     0.017138758
      4028.40       2.1764133     0.017375403
      4032.42       2.1876539     0.016972989
      4036.46       2.1947102     0.016892298
      4040.50       2.2012752     0.017130742
      4044.54       2.2107400     0.016723598
      4048.58       2.2205873     0.016948564
      4052.63       2.2303665     0.016562184
      4056.68       2.2349521     0.016478174
      4060.74       2.2396966     0.016705768
      4064.80       2.2413570     0.016313501
      4068.86       2.2435812     0.016237158
      4072.93       2.2456624     0.016155084
      4077.01       2.2463556     0.016069327
      4081.08       2.2407398     0.016287812
      4085.17       2.2329825     0.015907452
      4089.25       2.2198426     0.015830305
      4093.34       2.1951501     0.015751066
      4097.43       2.1808452     0.015665146
      4101.53       2.1707107     0.015596943
      4105.63       2.1678140     0.015505098
      4109.74       2.1660478     0.015428699
      4113.85       2.1634153     0.015349838
      4117.96       2.1595923     0.015265362
      4122.08       2.1560891     0.014924234
      4126.20       2.1523761     0.015106507
      4130.33       2.1528605     0.015032351
      4134.46       2.1560262     0.014951687
      4138.59       2.1590450     0.014870247
      4142.73       2.1646795     0.014538930
      4146.88       2.1719313     0.014711976
      4151.02       2.1764628     0.014376642
      4155.18       2.1817399     0.014557240
      4159.33       2.1830283     0.014480284
      4163.49       2.1777603     0.014160111
      4167.65       2.1672790     0.014322348
      4171.82       2.1616860     0.013998930
      4175.99       2.1648637     0.014167520
      4180.17       2.1662378     0.013840851
      4184.35       2.1624712     0.013788522
      4188.54       2.1602285     0.013938643
      4192.72       2.1549722     0.013628278
      4196.92       2.1514203     0.013783628
      4201.11       2.1591477     0.013470824
      4205.31       2.1687872     0.013631061
      4209.52       2.1810890     0.013315903
      4213.73       2.1855162     0.013265826
      4217.94       2.1915250     0.013163287
      4222.16       2.1937719     0.013109050
      4226.38       2.1926952     0.013012728
      4230.61       2.1916024     0.012954600
      4234.84       2.1909293     0.013103166
      4239.08       2.1901482     0.012802266
      4243.32       2.1867329     0.012756941
      4247.56       2.1827703     0.012651860
      4251.81       2.1854470     0.012603176
      4256.06       2.1914819     0.012503203
      4260.32       2.1865089     0.012451403
      4264.58       2.1763672     0.012356094
      4268.84       2.1704006     0.012301510
      4273.11       2.1667370     0.012014299
      4277.38       2.1676035     0.012153204
      4281.66       2.1666560     0.011872223
      4285.94       2.1674143     0.012006481
      4290.23       2.1562368     0.011731332
      4294.52       2.1404311     0.011861178
      4298.81       2.1292526     0.011591517
      4303.11       2.1175721     0.011717204
      4307.42       2.1040347     0.011670023
      4311.72       2.0857343     0.011574421
      4316.04       2.0781214     0.011525587
      4320.35       2.0712071     0.011249913
      4324.67       2.0646764     0.011382493
      4329.00       2.0675653     0.011111607
      4333.33       2.0738210     0.011240682
      4337.66       2.0827706     0.010974295
      4342.00       2.0879521     0.011100087
      4346.34       2.0932415     0.010837886
      4350.69       2.0959120     0.010960710
      4355.04       2.0981605     0.010702383
      4359.39       2.1068026     0.010822298
      4363.75       2.1130389     0.010567705
      4368.12       2.1178035     0.010685019
      4372.48       2.1181985     0.010433887
      4376.86       2.1180283     0.010548774
      4381.23       2.1201750     0.010300862
      4385.61       2.1253632     0.010248011
      4390.00       2.1265138     0.010168624
      4394.39       2.1292361     0.010116036
      4398.79       2.1353293     0.010037186
      4403.18       2.1393508    0.0098111842
      4407.59       2.1458932    0.0099065621
      4412.00       2.1528194    0.0096833196
      4416.41       2.1605223    0.0097767698
      4420.82       2.1650300    0.0095564318
      4425.25       2.1701216    0.0096477749
      4429.67       2.1738443    0.0094305289
      4434.10       2.1738620    0.0095196287
      4438.54       2.1771285    0.0093056236
      4442.97       2.1835763    0.0093921973
      4447.42       2.1918849    0.0091817518
      4451.86       2.1959585    0.0092660756
      4456.32       2.1981008    0.0090589232
      4460.77       2.1977527    0.0091406732
      4465.24       2.1998305    0.0089371762
      4469.70       2.2060813    0.0090162870
      4474.17       2.2079382    0.0088165369
      4478.65       2.2049193    0.0087369657
      4483.12       2.2025653    0.0086970573
      4487.61       2.2007439    0.0086167729
      4492.09       2.2014405    0.0085787574
      4496.59       2.2025456    0.0084976547
      4501.08       2.1988550    0.0085784704
      4505.58       2.1970945    0.0083797105
      4510.09       2.1965253    0.0084572105
      4514.60       2.1948643    0.0082629659
      4519.12       2.1893191    0.0083371334
      4523.63       2.1816175    0.0081474712
      4528.16       2.1798148    0.0080734435
      4532.69       2.1789385    0.0080333019
      4537.22       2.1754517    0.0079579729
      4541.76       2.1690471    0.0079204941
      4546.30       2.1621398    0.0078438082
      4550.85       2.1590015    0.0078091227
      4555.40       2.1559711    0.0077310311
      4559.95       2.1422177    0.0075508764
      4564.51       2.1278261    0.0076197039
      4569.08       2.1127972    0.0075489394
      4573.65       2.1049388    0.0075098862
      4578.22       2.0946028    0.0074374736
      4582.80       2.0849444    0.0074016422
      4587.38       2.0772844    0.0073275516
      4591.97       2.0729857    0.0071566147
      4596.56       2.0685058    0.0072192475
      4601.16       2.0657883    0.0070482935
      4605.76       2.0580913    0.0071126392
      4610.37       2.0562734    0.0069416000
      4614.98       2.0567513    0.0068797988
      4619.59       2.0567117    0.0069361995
      4624.21       2.0527222    0.0067729111
      4628.84       2.0527090    0.0068312618
      4633.47       2.0548820    0.0066677651
      4638.10       2.0551966    0.0066086824
      4642.74       2.0518372    0.0065644431
      4647.38       2.0425193    0.0065033711
      4652.03       2.0386211    0.0065567338
      4656.68       2.0413610    0.0063999464
      4661.34       2.0430646    0.0063428919
      4666.00       2.0420611    0.0062985096
      4670.67       2.0433034    0.0062393269
      4675.33       2.0460280    0.0061990787
      4680.01       2.0491405    0.0061378635
      4684.69       2.0522510    0.0060821646
      4689.38       2.0551715    0.0060385005
      4694.07       2.0596788    0.0059806356
      4698.76       2.0637708    0.0059413112
      4703.46       2.0638764    0.0058813801
      4708.16       2.0672209    0.0058265419
      4712.87       2.0704682    0.0057843642
      4717.58       2.0722847    0.0057273534
      4722.30       2.0722950    0.0055922629
      4727.03       2.0724562    0.0056305381
      4731.75       2.0748621    0.0055761428
      4736.48       2.0757074    0.0055361626
      4741.22       2.0775565    0.0054795944
      4745.96       2.0792133    0.0053507426
      4750.71       2.0784366    0.0053855794
      4755.46       2.0751590    0.0053312689
      4760.22       2.0763357    0.0052029979
      4764.97       2.0748748    0.0052376708
      4769.74       2.0711039    0.0051155301
      4774.51       2.0653571    0.0050579394
      4779.29       2.0619974    0.0050922490
      4784.07       2.0598695    0.0049711350
      4788.85       2.0587579    0.0049154035
      4793.64       2.0577551    0.0048869082
      4798.43       2.0586387    0.0048293282
      4803.23       2.0597329    0.0048595400
      4808.03       2.0621320    0.0047459146
      4812.84       2.0681191    0.0046899859
      4817.66       2.0738480    0.0047194507
      4822.48       2.0790793    0.0046074618
      4827.30       2.0827170    0.0045530006
      4832.12       2.0869563    0.0045277091
      4836.96       2.0944809    0.0044714553
      4841.79       2.0971342    0.0044183037
      4846.63       2.1010876    0.0043927479
      4851.48       2.1064135    0.0043378144
      4856.33       2.1089826    0.0042858106
      4861.19       2.1150475    0.0042602408
      4866.05       2.1237746    0.0042064861
      4870.92       2.1300840    0.0041554979
      4875.79       2.1403508    0.0040545393
      4880.66       2.1504791    0.0040774309
      4885.55       2.1600433    0.0040273602
      4890.43       2.1676738    0.0039289427
      4895.32       2.1789575    0.0039506289
      4900.22       2.1884489    0.0038518122
      4905.12       2.2000884    0.0038053854
      4910.02       2.2083432    0.0038260741
      4914.94       2.2135920    0.0037297022
      4919.85       2.2209063    0.0036838751
      4924.77       2.2256147    0.0037037609
      4929.70       2.2278670    0.0036097336
      4934.62       2.2286595    0.0035644431
      4939.56       2.2311691    0.0035210786
      4944.50       2.2346891    0.0034919314
      4949.44       2.2384229    0.0034471024
      4954.39       2.2457690    0.0034041182
      4959.35       2.2533179    0.0033763156
      4964.31       2.2595682    0.0033319284
      4969.27       2.2689875    0.0032892718
      4974.24       2.2767981    0.0032629357
      4979.22       2.2863852    0.0032189440
      4984.20       2.2945127    0.0031765969
      4989.18       2.3059615    0.0031358549
      4994.17       2.3161976    0.0031081896
      4999.16       2.3267904    0.0030661506
      5004.16       2.3373496    0.0030255891
      5009.17       2.3505439    0.0029480041
      5014.18       2.3626388    0.0029579352
      5019.19       2.3714759    0.0029175836
      5024.21       2.3814627    0.0028435159
      5029.23       2.3901928    0.0028520630
      5034.26       2.3972744    0.0028119109
      5039.30       2.4048020    0.0027413623
      5044.34       2.4133708    0.0027007562
      5049.39       2.4210719    0.0027086087
      5054.43       2.4272822    0.0026699208
      5059.49       2.4339802    0.0026012652
      5064.55       2.4377267    0.0025621359
      5069.61       2.4431885    0.0025692090
      5074.68       2.4501923    0.0025041890
      5079.76       2.4539815    0.0024652975
      5084.84       2.4551777    0.0024275109
      5089.92       2.4567247    0.0024337193
      5095.01       2.4593265    0.0023709270
      5100.11       2.4630186    0.0023333458
      5105.21       2.4648867    0.0022967805
      5110.31       2.4628461    0.0023020670
      5115.42       2.4596332    0.0022417040
      5120.54       2.4525912    0.0022053341
      5125.66       2.4459378    0.0021698989
      5130.79       2.4443702    0.0021526182
      5135.92       2.4450988    0.0021164540
      5141.05       2.4474302    0.0020811999
      5146.20       2.4469622    0.0020468192
      5151.34       2.4456597    0.0019914047
      5156.49       2.4441774    0.0019951330
      5161.65       2.4438911    0.0019609331
      5166.81       2.4429321    0.0019275437
      5171.98       2.4364901    0.0018745560
      5177.15       2.4311762    0.0018777183
      5182.33       2.4232772    0.0018445158
      5187.51       2.4137767    0.0018120707
      5192.70       2.4019839    0.0017614243
      5197.89       2.3878479    0.0017307144
      5203.09       2.3730879    0.0017319570
      5208.29       2.3563285    0.0017004212
      5213.50       2.3397199    0.0016520365
      5218.72       2.3233959    0.0016221519
      5223.93       2.3103323    0.0015928685
      5229.16       2.2982850    0.0015926259
      5234.39       2.2842669    0.0015464160
      5239.62       2.2702210    0.0015173442
      5244.86       2.2526178    0.0014888343
      5250.11       2.2367932    0.0014608673
      5255.36       2.2236018    0.0014595109
      5260.61       2.2108283    0.0014163283
      5265.87       2.1967975    0.0013885989
      5271.14       2.1835149    0.0013613790
      5276.41       2.1727863    0.0013346543
      5281.69       2.1603081    0.0012950339
      5286.97       2.1474648    0.0012921871
      5292.26       2.1368390    0.0012657267
      5297.55       2.1246217    0.0012403407
      5302.85       2.1126990    0.0012159628
      5308.15       2.0993362    0.0011806351
      5313.46       2.0878980    0.0011775318
      5318.77       2.0795906    0.0011541304
      5324.09       2.0691582    0.0011324065
      5329.42       2.0597821    0.0011129944
      5334.75       2.0505461    0.0010852364
      5340.08       2.0406679    0.0010702686
      5345.42       2.0301845    0.0010583622
      5350.77       2.0218415    0.0010646556
      5356.12       2.0154749    0.0010580194
      5361.48       2.0072322    0.0010401644
      5366.83       1.9971424    0.0010366062
      5372.20       1.9862848    0.0010345731
      5377.58       1.9775506    0.0010334841
      5382.95       1.9685982    0.0010466018
      5388.34       1.9576652    0.0010460066
      5393.72       1.9449154    0.0010313816
      5399.12       1.9323467    0.0010308252
      5404.52       1.9190954    0.0010308191
      5409.92       1.9093972    0.0010309090
      5415.33       1.9018513    0.0010310910
      5420.75       1.8924992    0.0010312610
      5426.17       1.8821778    0.0010310209
      5431.60       1.8747324    0.0010308725
      5437.03       1.8687519    0.0010308101
      5442.47       1.8626124    0.0010308321
      5447.91       1.8553836    0.0010309341
      5453.36       1.8492024    0.0010167109
      5458.81       1.8435507    0.0010169454
      5464.27       1.8362953    0.0010310344
      5469.73       1.8293977    0.0010308900
      5475.20       1.8226796    0.0010308163
      5480.68       1.8137614    0.0010308145
      5486.16       1.8073967    0.0010308767
      5491.65       1.7999617    0.0010166025
      5497.14       1.7911240    0.0010167801
      5502.64       1.7866412    0.0010170135
      5508.14       1.7798391    0.0010173003
      5513.65       1.7737058    0.0010176388
      5519.16       1.7656183    0.0010308213
      5524.68       1.7549951    0.0010308105
      5530.20       1.7457916    0.0010164568
      5535.73       1.7378487    0.0010165416
      5541.27       1.7313813    0.0010166717
      5546.81       1.7246776    0.0010168429
      5552.36       1.7185846    0.0010170538
      5557.91       1.7145509    0.0010173063
      5563.47       1.7110107    0.0010175905
      5569.04       1.7053451    0.0010179124
      5574.60       1.6998740    0.0010039694
      5580.18       1.6929385    0.0010164289
      5585.76       1.6845239    0.0010165062
      5591.35       1.6820825    0.0010165499
      5596.94       1.6759413    0.0010166564
      5602.53       1.6688303    0.0010167921
      5608.14       1.6641752    0.0010169523
      5613.75       1.6540117    0.0010171370
      5619.36       1.6435984    0.0010173463
      5624.98       1.6323621    0.0010175744
      5630.60       1.6230561    0.0010040020
      5636.23       1.6138679    0.0010039744
      5641.87       1.6068377    0.0010039675
      5647.51       1.6018570    0.0010039798
      5653.16       1.5971680    0.0010040111
      5658.82       1.5952332    0.0010040574
      5664.47       1.5939158    0.0010041194
      5670.14       1.5909969    0.0010041934
      5675.81       1.5849337    0.0010167525
      5681.48       1.5808081    0.0010168600
      5687.17       1.5752905    0.0010169745
      5692.85       1.5683416    0.0010042501
      5698.55       1.5621085    0.0010041762
      5704.25       1.5542776    0.0010041164
      5709.95       1.5454669    0.0010040668
      5715.66       1.5373700    0.0010040300
      5721.38       1.5252044    0.0010040035
      5727.10       1.5146481    0.0010039843
      5732.83       1.5040762    0.0010039729
      5738.56       1.4953066    0.0010039682
      5744.30       1.4869484    0.0010039699
      5750.04       1.4797320    0.0010039760
      5755.79       1.4746198    0.0010039861
      5761.55       1.4699573    0.0010040051
      5767.31       1.4691735    0.0010040505
      5773.08       1.4664048    0.0010041583
      5778.85       1.4611918    0.0010043278
      5784.63       1.4554825   0.00099113192
      5790.41       1.4510655   0.00099123026
      5796.21       1.4453312   0.00099138865
      5802.00       1.4394392   0.00099170056
      5807.81       1.4340714   0.00099230825
      5813.61       1.4276824   0.00099316719
      5819.43       1.4201494   0.00099407765
      5825.25       1.4147461   0.00099501466
      5831.07       1.4103144   0.00099608102
      5836.90       1.4062822   0.00099716610
      5842.74       1.4041287   0.00099794689
      5848.58       1.4039886   0.00099840263
      5854.43       1.4038266   0.00099868887
      5860.29       1.4076924   0.00099882872
      5866.15       1.4111586   0.00099879431
      5872.01       1.4131635   0.00099848731
      5877.89       1.4156281   0.00099836277
      5883.76       1.4166612   0.00099819735
      5889.65       1.4168837   0.00099807580
      5895.54       1.4179339   0.00099790038
      5901.43       1.4196616   0.00099748776
      5907.34       1.4208012   0.00099700927
      5913.24       1.4221868   0.00099643426
      5919.16       1.4228612   0.00099589359
      5925.08       1.4235356   0.00099532137
      5931.00       1.4253444   0.00099457991
      5936.93       1.4287710   0.00098211078
      5942.87       1.4323116   0.00098159925
      5948.81       1.4349431   0.00098122867
      5954.76       1.4390726   0.00098075224
      5960.72       1.4425260   0.00098024092
      5966.68       1.4448850   0.00097987894
      5972.64       1.4473967   0.00097964496
      5978.62       1.4465005   0.00097948094
      5984.60       1.4469648   0.00097935349
      5990.58       1.4472878   0.00097927627
      5996.57       1.4471266   0.00097925445
      6002.57       1.4465196   0.00097924844
      6008.57       1.4464254   0.00097924234
      6014.58       1.4462050   0.00097926905
      6020.60       1.4452510   0.00097929578
      6026.62       1.4444776   0.00097935462
      6032.65       1.4443011   0.00096728409
      6038.68       1.4457117   0.00096718999
      6044.72       1.4473611   0.00096710497
      6050.76       1.4505265   0.00096702907
      6056.81       1.4566600   0.00097926604
      6062.87       1.4590286   0.00097920921
      6068.93       1.4566620   0.00097916510
      6075.00       1.4535017   0.00097913594
      6081.08       1.4503961   0.00097912313
      6087.16       1.4478130   0.00097912843
      6093.25       1.4461591   0.00097915304
      6099.34       1.4471597   0.00096772656
      6105.44       1.4468920   0.00096754407
      6111.54       1.4469990   0.00096737989
      6117.66       1.4472553   0.00096723223
      6123.78       1.4474030   0.00096710515
      6129.90       1.4482036   0.00096700083
      6136.03       1.4493880   0.00096691859
      6142.17       1.4526638   0.00096686288
      6148.31       1.4566416   0.00096684401
      6154.46       1.4637733   0.00096834382
      6160.61       1.4687820   0.00096848476
      6166.77       1.4760253   0.00096863525
      6172.94       1.4799872   0.00096836014
      6179.11       1.4773210   0.00096824596
      6185.29       1.4721950   0.00096871252
      6191.48       1.4686784   0.00096972570
      6197.67       1.4638435   0.00097125326
      6203.87       1.4594748   0.00096279534
      6210.07       1.4549865   0.00096494318
      6216.28       1.4508056   0.00096710270
      6222.50       1.4449374   0.00098139762
      6228.72       1.4401807   0.00098254044
      6234.95       1.4350647   0.00098308510
      6241.19       1.4309595   0.00098295358
      6247.42       1.4275176   0.00097091331
      6253.67       1.4241743   0.00096957449
      6259.93       1.4218179   0.00096788910
      6266.19       1.4191459   0.00096611432
      6272.46       1.4170882   0.00096458455
      6278.73       1.4146821   0.00097441226
      6285.01       1.4131936   0.00096236339
      6291.29       1.4095303   0.00096115335
      6297.58       1.4056918   0.00096016026
      6303.88       1.4018318   0.00095951670
      6310.19       1.3977827   0.00095898527
      6316.50       1.3947189   0.00095858048
      6322.81       1.3923138   0.00094668560
      6329.14       1.3896805   0.00095745634
      6335.47       1.3876061   0.00095709321
      6341.80       1.3850796   0.00095685436
      6348.14       1.3816431   0.00095676999
      6354.49       1.3780337   0.00094578001
      6360.85       1.3751460   0.00094551299
      6367.21       1.3711276   0.00094533301
      6373.57       1.3663709   0.00095677014
      6379.95       1.3610789   0.00095696134
      6386.33       1.3550466   0.00094690051
      6392.72       1.3493452   0.00094729404
      6399.11       1.3434631   0.00094788389
      6405.51       1.3372280   0.00094841854
      6411.92       1.3293791   0.00096055230
      6418.32       1.3220978   0.00095063414
      6424.74       1.3151877   0.00095068243
      6431.17       1.3082119   0.00095067211
      6437.60       1.3024522   0.00095053945
      6444.04       1.2968256   0.00095030757
      6450.48       1.2915999   0.00095082307
      6456.94       1.2842488   0.00095004963
      6463.39       1.2765383   0.00094942475
      6469.85       1.2688115   0.00094900690
      6476.33       1.2627893   0.00093923358
      6482.80       1.2570136   0.00095067246
      6489.28       1.2504484   0.00095058948
      6495.77       1.2449329   0.00095063317
      6502.27       1.2405716   0.00094169295
      6508.77       1.2358876   0.00094309666
      6515.28       1.2322165   0.00095676951
      6521.80       1.2272537   0.00096052733
      6528.32       1.2206039   0.00095763833
      6534.85       1.2145525   0.00096490714
      6541.38       1.2090863   0.00097416472
      6547.92       1.2032383   0.00099929841
      6554.47       1.1964636    0.0010049551
      6561.03       1.1901845    0.0010195769
      6567.59       1.1827759    0.0010354045
      6574.16       1.1739096    0.0010521349
      6580.73       1.1632502    0.0010776612
      6587.31       1.1546428    0.0010946647
      6593.90       1.1458950    0.0011120646
      6600.50       1.1380030    0.0011303114
      6607.10       1.1287825    0.0011581486
      6613.70       1.1213235    0.0011766528
      6620.32       1.1148436    0.0011954775
      6626.94       1.1088886    0.0012055619
      6633.57       1.1032195    0.0012431693
      6640.20       1.0977001    0.0012621963
      6646.84       1.0910476    0.0012815781
      6653.49       1.0845488    0.0012911779
      6660.14       1.0790064    0.0013101513
      6666.80       1.0723799    0.0013500164
      6673.47       1.0645534    0.0013598088
      6680.14       1.0564971    0.0013789565
      6686.82       1.0472713    0.0014199065
      6693.51       1.0373015    0.0014400988
      6700.20       1.0286390    0.0014491575
      6706.90       1.0202977    0.0014688757
      6713.61       1.0096654    0.0015115969
      6720.32       1.0015579    0.0015206997
      6727.05      0.99474572    0.0015406100
      6733.77      0.98827694    0.0015611948
      6740.51      0.98330034    0.0015967104
      6747.25      0.97819572    0.0016201579
      6754.00      0.97352989    0.0016415512
      6760.75      0.96933615    0.0016749554
      6767.51      0.96427627    0.0016996072
      6774.28      0.95870619    0.0017294870
      6781.05      0.95151692    0.0017551722
      6787.84      0.94506818    0.0018269411
      6794.62      0.93579103    0.0018718396
      6801.42      0.92413998    0.0019089399
      6808.22      0.91064898    0.0019940084
      6815.03      0.89677179    0.0020392491
      6821.85      0.88232983    0.0020639384
      6828.67      0.86788644    0.0020967248
      6835.50      0.85221448    0.0021502871
      6842.33      0.84013991    0.0021427905
      6849.17      0.83088315    0.0021489574
      6856.02      0.82252317    0.0021514603
      6862.88      0.81533475    0.0021533127
      6869.74      0.80777127    0.0021614829
      6876.61      0.79903861    0.0021840386
      6883.49      0.78991232    0.0021935206
      6890.37      0.78102252    0.0022020718
      6897.27      0.77242261    0.0022238866
      6904.16      0.76328713    0.0022406028
      6911.07      0.75274773    0.0022392512
      6917.98      0.74315473    0.0022851394
      6924.89      0.73286266    0.0023051586
      6931.82      0.72275405    0.0023076973
      6938.75      0.71348729    0.0023611032
      6945.69      0.70377871    0.0023850646
      6952.64      0.69438089    0.0023884436
      6959.59      0.68473518    0.0024433744
      6966.55      0.67803538    0.0024452206
      6973.52      0.67034699    0.0024654671
      6980.49      0.66320428    0.0025197376
      6987.47      0.65962855    0.0025198978
      6994.46      0.65620545    0.0025758574
      7001.46      0.65131884    0.0025768571
      7008.46      0.64708139    0.0025979092
      7015.46      0.64406923    0.0026343077
      7022.48      0.63949615    0.0026556215
      7029.51      0.63389548    0.0026783345
      7036.53      0.62914194    0.0027167728
      7043.57      0.62358019    0.0027411328
      7050.62      0.61801808    0.0027833776
      7057.66      0.61107141    0.0028086099
      7064.72      0.60406231    0.0028163669
      7071.79      0.59553061    0.0028850527
      7078.86      0.58447718    0.0029195496
      7085.94      0.57138755    0.0029407441
      7093.03      0.55919209    0.0030320449
      7100.12      0.54925993    0.0030657700
      7107.22      0.54016724    0.0031681496
      7114.33      0.53226491    0.0031961678
      7121.44      0.52366576    0.0032421725
      7128.56      0.51490390    0.0033024963
      7135.69      0.50971942    0.0033368685
      7142.83      0.50518819    0.0034083105
      7149.97      0.50145215    0.0034037437
      7157.12      0.49895134    0.0034624767
      7164.28      0.49920418    0.0034546976
      7171.44      0.49945630    0.0034787093
      7178.62      0.50224516    0.0035212700
      7185.80      0.50292636    0.0035523647
      7192.98      0.50446850    0.0035989098
      7200.17      0.50511268    0.0036271622
      7207.38      0.50244512    0.0036631942
      7214.58      0.50069601    0.0036802170
      7221.80      0.49996060    0.0036594316
      7229.02      0.50099562    0.0037166480
      7236.25      0.50357374    0.0036968161
      7243.49      0.50491022    0.0037558073
      7250.73      0.50512231    0.0037311054
      7257.98      0.50587808    0.0037820649
      7265.24      0.50841752    0.0037565929
      7272.51      0.51104740    0.0038099897
      7279.78      0.51294564    0.0037897529
      7287.06      0.51319931    0.0038033737
      7294.35      0.51445367    0.0038303785
      7301.64      0.51560575    0.0038482950
      7308.94      0.51509478    0.0038815973
      7316.25      0.51526283    0.0039014664
      7323.57      0.51462340    0.0039351279
      7330.89      0.51578882    0.0039538544
      7338.22      0.51675544    0.0039879081
      7345.56      0.51537338    0.0040082383
      7352.91      0.51449800    0.0040447969
      7360.26      0.51491331    0.0040669185
      7367.62      0.51422165    0.0041055401
      7374.99      0.51287912    0.0040954648
      7382.37      0.50960987    0.0041676238
      7389.75      0.50890440    0.0041580735
      7397.14      0.50956152    0.0042321433
      7404.53      0.51261850    0.0042228159
      7411.94      0.51498459    0.0042975356
      7419.35      0.51321050    0.0042884376
      7426.77      0.50991808    0.0043642521
      7434.20      0.50794971    0.0043551852
      7441.63      0.50622754    0.0043966772
      7449.07      0.50513186    0.0044277197
      7456.52      0.50550156    0.0044996926
      7463.98      0.50505676    0.0045638216
      7471.45      0.50445343    0.0046446738
      7478.92      0.50259731    0.0046649932
      7486.40      0.49998101    0.0047082881
      7493.88      0.49963486    0.0047832743
      7501.38      0.50026016    0.0049891288
      7508.88      0.50070355    0.0052063919
      7516.39      0.50131434    0.0055360373
      7523.91      0.50158821    0.0059811369
      7531.43      0.50455421    0.0063429362
      7538.96      0.51214962    0.0068267260
      7546.50      0.51958204    0.0071174311
      7554.05      0.52317921    0.0075098576
      7561.60      0.51784279    0.0075069487
      7569.16      0.51689729    0.0074206960
      7576.73      0.51871352    0.0072404188
      7584.31      0.52110633    0.0068696409
      7591.89      0.52394950    0.0066185668
      7599.49      0.52730151    0.0062217735
      7607.09      0.53108634    0.0059650886
      7614.70      0.53327148    0.0058197817
      7622.31      0.53512301    0.0056361118
      7629.93      0.53809661    0.0055497024
      7637.56      0.54090540    0.0055017303
      7645.20      0.54476012    0.0054767010
      7652.85      0.54724951    0.0054550696
      7660.50      0.54822824    0.0054434995
      7668.16      0.54968028    0.0053936787
      7675.83      0.55111223    0.0054550204
      7683.50      0.55329149    0.0054243832
      7691.19      0.55541067    0.0054542529
      7698.88      0.55475085    0.0055348864
      7706.58      0.55596735    0.0055135169
      7714.29      0.55903572    0.0055519861
      7722.00      0.56038863    0.0056384181
      7729.73      0.56048725    0.0056181341
      7737.45      0.56215275    0.0056590322
      7745.19      0.56552541    0.0056858251
      7752.94      0.56919062    0.0057261466
      7760.69      0.56869349    0.0057677158
      7768.45      0.56797536    0.0057944329
      7776.22      0.56972292    0.0058363207
      7784.00      0.57428173    0.0058170564
      7791.78      0.57666126    0.0059095560
      7799.57      0.57471268    0.0059547163
      7807.37      0.57403245    0.0059372376
      7815.18      0.57985069    0.0060332549
      7822.99      0.58532208    0.0060788858
      7830.82      0.58659383    0.0060558265
      7838.65      0.58680216    0.0061489986
      7846.49      0.59029677    0.0061893085
      7854.34      0.59865684    0.0061632606
      7862.19      0.60654502    0.0062046301
      7870.05      0.60898577    0.0062948394
      7877.93      0.61011188    0.0062669604
      7885.80      0.61742524    0.0063086019
      7893.69      0.62583720    0.0064020071
      7901.58      0.63032114    0.0063755352
      7909.49      0.63147772    0.0064186208
      7917.40      0.63410076    0.0064626732
      7925.31      0.64176661    0.0064855624
      7933.24      0.65104960    0.0065268042
      7941.17      0.65307161    0.0065670531
      7949.11      0.65398768    0.0065366336
      7957.06      0.65825335    0.0066273637
      7965.02      0.66834974    0.0066680006
      7972.98      0.67571737    0.0066384056
      7980.96      0.67801649    0.0066763928
      7988.94      0.67988731    0.0067688678
      7996.93      0.68296027    0.0067464195
      8004.93      0.69012824    0.0067938803
      8012.93      0.69442571    0.0068495824
      8020.95      0.69176947    0.0069608517
      8028.97      0.68892619    0.0069565621
      8036.99      0.68875499    0.0070377979
      8045.03      0.68668018    0.0071351161
      8053.08      0.68275157    0.0072066530
      8061.13      0.67552016    0.0073180635
      8069.20      0.66934064    0.0074405121
      8077.26      0.66743827    0.0075683234
      8085.34      0.66810210    0.0075802879
      8093.43      0.66270734    0.0077143931
      8101.52      0.65882462    0.0077655397
      8109.62      0.66017813    0.0078108562
      8117.73      0.66167130    0.0077667176
      8125.85      0.66409358    0.0077974729
      8133.98      0.66617793    0.0078877734
      8142.11      0.67209179    0.0079026998
      8150.25      0.67797042    0.0078371479
      8158.41      0.68438832    0.0078560145
      8166.56      0.68648784    0.0078827959
      8174.73      0.68921670    0.0079704181
      8182.91      0.69479646    0.0079096900
      8191.09      0.70059573    0.0079232624
      8199.28      0.70068594    0.0079334287
      8207.48      0.70184141    0.0079413910
      8215.69      0.70437539    0.0078775739
      8223.91      0.70803506    0.0079642504
      8232.13      0.71546947    0.0080037816
      8240.36      0.72018181    0.0080218968
      8248.60      0.71509886    0.0080111745
      8256.85      0.71699684    0.0079338957
      8265.11      0.71940251    0.0079317393
      8273.37      0.72078152    0.0079993231
      8281.65      0.72281655    0.0080076798
      8289.93      0.72577128    0.0080175902
      8298.22      0.72312847    0.0079523125
      8306.52      0.72052224    0.0079607009
      8314.83      0.71856889    0.0079745787
      8323.14      0.71972351    0.0079945135
      8331.46      0.72205368    0.0080817832
      8339.80      0.71733044    0.0080296318
      8348.13      0.71201745    0.0080514237
      8356.48      0.70746832    0.0080751359
      8364.84      0.71005648    0.0081018322
      8373.21      0.71049287    0.0081296760
      8381.58      0.70521574    0.0081589865
      8389.96      0.69871883    0.0081115574
      8398.35      0.69278092    0.0081422592
      8406.75      0.68864816    0.0082394269
      8415.16      0.68969701    0.0082712405
      8423.57      0.68536150    0.0083033093
      8432.00      0.67683500    0.0083352515
      8440.43      0.66794498    0.0082870182
      8448.87      0.66287496    0.0083181098
      8457.32      0.66022433    0.0083478869
      8465.78      0.65850417    0.0083770093
      8474.25      0.65274884    0.0084056570
      8482.72      0.64669096    0.0084340215
      8491.20      0.64160376    0.0084626145
      8499.69      0.64012216    0.0084751608
      8508.19      0.64308461    0.0085030548
      8516.70      0.64220284    0.0085301634
      8525.22      0.63677384    0.0085573173
      8533.75      0.63248054    0.0085852190
      8542.28      0.62990367    0.0086148383
      8550.82      0.62867501    0.0086449625
      8559.37      0.62451078    0.0086746360
      8567.93      0.61868483    0.0087043142
      8576.50      0.61516571    0.0086529564
      8585.08      0.60992069    0.0086810593
      8593.66      0.60516499    0.0087085495
      8602.26      0.60034708    0.0087354684
      8610.86      0.59722646    0.0087617507
      8619.47      0.59478700    0.0087874949
      8628.09      0.59226098    0.0088127188
      8636.72      0.59164377    0.0088377486
      8645.36      0.59258719    0.0088629448
      8654.00      0.59413803    0.0088884022
      8662.66      0.59308143    0.0089145129
      8671.32      0.59069564    0.0088590866
      8679.99      0.58869718    0.0088847336
      8688.67      0.58744019    0.0089105712
      8697.36      0.58705201    0.0089370184
      8706.06      0.58292462    0.0089630320
      8714.76      0.57926539    0.0089887538
      8723.48      0.57629805    0.0090143251
      8732.21      0.57810108    0.0090396131
      8740.93      0.57993355    0.0090649573
      8749.68      0.57514923    0.0090902003
      8758.43      0.56956151    0.0091158033
      8767.19      0.57050510    0.0091421635
      8775.96      0.57362308    0.0091685750
      8784.73      0.57319804    0.0091970328
      8793.52      0.56482337    0.0092297218
      8802.31      0.55759003    0.0092654636
      8811.11      0.55027655    0.0093026482
      8819.92      0.54247306    0.0093492239
      8828.75      0.53322006    0.0094116499
      8837.57      0.51679430    0.0094830528
      8846.41      0.50270264    0.0095734002
      8855.26      0.48868395    0.0096890355
      8864.12      0.47548136    0.0098253315
      8872.98      0.46243669    0.0099744447
      8881.85      0.44980806     0.010134147
      8890.73      0.43939702     0.010293844
      8899.63      0.43855442     0.010437864
      8908.52      0.44208816     0.010474825
      8917.43      0.44064213     0.010532883
      8926.35      0.44373548     0.010542843
      8935.28      0.45555471     0.010521048
      8944.22      0.46208785     0.010481809
      8953.16      0.46374572     0.010445410
      8962.11      0.46333830     0.010433105
      8971.08      0.46704227     0.010441106
      8980.05      0.46886273     0.010458733
      8989.03      0.47046389     0.010507146
      8998.02      0.46721368     0.010577870
      9007.02      0.45746230     0.010646853
      9016.02      0.44598501     0.010642263
      9025.04      0.44305700     0.010693220
      9034.07      0.43988921     0.010725938
      9043.10      0.43011983     0.010741749
      9052.14      0.41707297     0.010750889
      9061.20      0.41073208     0.010752790
      9070.26      0.41765406     0.010749655
      9079.33      0.42612595     0.010735879
      9088.41      0.43011441     0.010601584
      9097.50      0.42333244     0.010616005
      9106.60      0.42620672     0.010552659
      9115.70      0.43749273     0.010496481
      9124.82      0.44612649     0.010448815
      9133.94      0.44923431     0.010426923
      9143.08      0.44381339     0.010432033
      9152.22      0.44585615     0.010408623
      9161.37      0.44961566     0.010481754
      9170.54      0.44374504     0.010601034
      9179.71      0.42768765     0.010766650
      9188.89      0.40829842     0.011006832
      9198.08      0.39974333     0.011495245
      9207.28      0.38790856     0.011943215
      9216.48      0.36512697     0.012513142
      9225.70      0.33358871     0.013169377
      9234.92      0.30891461     0.013876886
      9244.16      0.30370938     0.014588009
      9253.40      0.30369783     0.015227021
      9262.66      0.29380828     0.015595261
      9271.92      0.27171364     0.016022939
      9281.20      0.26926453     0.015974752
      9290.48      0.28637460     0.015757849
      9299.77      0.29417304     0.015425972
      9309.07      0.29356334     0.014894145
      9318.38      0.28656211     0.014643298
      9327.69      0.28947882     0.014496788
      9337.02      0.29654286     0.014523215
      9346.36      0.30104925     0.014501751
      9355.71      0.29586869     0.014584790
      9365.07      0.28645068     0.014635753
      9374.43      0.28130219     0.014701887
      9383.80      0.28258308     0.014724132
      9393.19      0.28270877     0.014496773
      9402.58      0.27357299     0.014188602
      9411.98      0.26584209     0.014060992
      9421.40      0.27133878     0.013733322
      9430.82      0.28129366     0.013485094
      9440.25      0.28162694     0.013267644
      9449.69      0.27042250     0.013171211
      9459.14      0.27180073     0.012873315
      9468.60      0.27753012     0.012631220
      9478.07      0.28237922     0.012493858
      9487.55      0.27329289     0.012221430
      9497.04      0.27242287     0.011886400
      9506.53      0.28105897     0.011630366
      9516.04      0.28522911     0.011479460
      9525.56      0.28277704     0.011218485
      9535.08      0.28047217     0.010900478
      9544.62      0.29222196     0.010628288
      9554.16      0.29890481     0.010454009
      9563.72      0.29759312     0.010165629
      9573.29      0.29164810    0.0098627103
      9582.85      0.29412003    0.0096412024
      9592.44      0.30429766    0.0095167642
      9602.03      0.30586391    0.0093286581
      9611.63      0.29968590    0.0091315453
      9621.25      0.29105043    0.0089961950
      9630.87      0.29287301    0.0088882484
      9640.50      0.29757372    0.0088372689
      9650.14      0.29678224    0.0087297637
      9659.79      0.29012332    0.0085965832
      9669.45      0.28985738    0.0085117795
      9679.12      0.29465807    0.0084220923
      9688.80      0.30301871    0.0083837374
      9698.49      0.30983301    0.0082531777
      9708.19      0.31051318    0.0081546350
      9717.90      0.32380797    0.0080515930
      9727.62      0.33807254    0.0079436722
      9737.34      0.35486428    0.0078364806
      9747.08      0.37319063    0.0077063094
      9756.83      0.39194126    0.0076554909
      9766.59      0.41289695    0.0075630392
      9776.35      0.43293640    0.0074804764
      9786.13      0.45264809    0.0074025243
      9795.92      0.47425111    0.0073010696
      9805.71      0.50226050    0.0072338638
      9815.52      0.52976051    0.0071687547
      9825.34      0.55048599    0.0071043753
      9835.17      0.56845022    0.0070773419
      9845.00      0.58709550    0.0069901663
      9854.84      0.60918033    0.0069320964
      9864.70      0.63144206    0.0068778502
      9874.56      0.65124424    0.0068245831
      9884.44      0.66608771    0.0067699999
      9894.32      0.68321482    0.0067486747
      9904.22      0.69858594    0.0068098136
      9914.13      0.71430640    0.0069049989
      9924.04      0.73399531    0.0070323595
      9933.96      0.75135456    0.0071610827
      9943.90      0.76425656    0.0073545368
      9953.84      0.77432601    0.0075427403
      9963.79      0.78543692    0.0078046324
      9973.76      0.79816445    0.0082154888
      9983.74      0.81335405    0.0086068146
      9993.72      0.82542394    0.0093064787
