# starting wavelength =        3371.3468
# ending wavelength =        10109.922
# O2 telluric scale =       0.17173864
# O2 telluric shift =       -2.1968249
# H2O telluric scale =        0
# H2O telluric shift =        0
      3371.81      0.60998553     0.013314752
      3375.18      0.61938697     0.011263629
      3378.56      0.62735250    0.0089391957
      3381.94      0.63564488    0.0071745027
      3385.32      0.64146047    0.0062887653
      3388.70      0.64681228    0.0058698680
      3392.09      0.65020834    0.0054637098
      3395.48      0.65099684    0.0051750213
      3398.88      0.65305719    0.0048632570
      3402.28      0.65369211    0.0047156292
      3405.68      0.65482603    0.0046438455
      3409.09      0.65429373    0.0045406360
      3412.49      0.65524585    0.0044485555
      3415.91      0.65652617    0.0043538203
      3419.32      0.65914585    0.0042831675
      3422.74      0.65872026    0.0042615842
      3426.17      0.65874989    0.0041928616
      3429.59      0.65824505    0.0041250630
      3433.02      0.65874706    0.0040890266
      3436.45      0.66042580    0.0040285332
      3439.89      0.65749354    0.0040631210
      3443.33      0.65968759    0.0040578651
      3446.78      0.65266183    0.0040435032
      3450.22      0.65043858    0.0040182080
      3453.67      0.64557611    0.0039905917
      3457.13      0.64380713    0.0039576827
      3460.58      0.64265392    0.0039243581
      3464.04      0.64071767    0.0038855352
      3467.51      0.63822253    0.0038833182
      3470.98      0.63094589    0.0038424864
      3474.45      0.62700548    0.0037771639
      3477.92      0.62603151    0.0037772304
      3481.40      0.62279726    0.0037531681
      3484.88      0.61644711    0.0037441572
      3488.37      0.61113392    0.0037330641
      3491.86      0.60422742    0.0037622370
      3495.35      0.60044570    0.0038461712
      3498.84      0.59786947    0.0039120660
      3502.34      0.59443153    0.0038369783
      3505.84      0.59040926    0.0037995178
      3509.35      0.58316703    0.0037681157
      3512.86      0.57776308    0.0037686066
      3516.37      0.57191966    0.0037689975
      3519.89      0.56559732    0.0037688436
      3523.41      0.56210813    0.0037691547
      3526.93      0.55715657    0.0038001302
      3530.46      0.55486117    0.0038013954
      3533.99      0.55064601    0.0037698112
      3537.53      0.54933431    0.0038005613
      3541.06      0.54623207    0.0038015874
      3544.60      0.54304610    0.0038030681
      3548.15      0.54163874    0.0038011281
      3551.70      0.54133420    0.0038018998
      3555.25      0.54190285    0.0038031095
      3558.80      0.54284731    0.0038351283
      3562.36      0.54077365    0.0038356432
      3565.92      0.54123517    0.0038032979
      3569.49      0.54120866    0.0038361024
      3573.06      0.54701445    0.0038363257
      3576.64      0.54949655    0.0038369686
      3580.21      0.55260370    0.0038697969
      3583.79      0.55885389    0.0038372747
      3587.38      0.56303509    0.0038375988
      3590.96      0.56853815    0.0038700686
      3594.55      0.57830718    0.0038712227
      3598.15      0.58818296    0.0038727781
      3601.75      0.59527583    0.0038706584
      3605.35      0.60415957    0.0038714343
      3608.96      0.61429687    0.0038725976
      3612.56      0.62462165    0.0039067433
      3616.18      0.63619404    0.0039071424
      3619.79      0.64248228    0.0038727947
      3623.41      0.65040793    0.0038739313
      3627.04      0.65694861    0.0039082010
      3630.66      0.66563855    0.0039085690
      3634.29      0.67385179    0.0039093050
      3637.93      0.68169145    0.0039438682
      3641.57      0.68621787    0.0039097572
      3645.21      0.69102716    0.0039100550
      3648.86      0.69644644    0.0039441335
      3652.50      0.69933067    0.0039451488
      3656.16      0.70310604    0.0039465115
      3659.81      0.70724259    0.0039482178
      3663.47      0.71111534    0.0039455919
      3667.14      0.71341963    0.0039464553
      3670.80      0.71540788    0.0039476419
      3674.48      0.71852143    0.0039839511
      3678.15      0.72213065    0.0039843124
      3681.83      0.72577941    0.0039850032
      3685.51      0.73045082    0.0040213182
      3689.20      0.73646113    0.0039859323
      3692.88      0.74226654    0.0039860912
      3696.58      0.75056403    0.0039865613
      3700.27      0.75715931    0.0040226250
      3703.98      0.76284916    0.0040237228
      3707.68      0.76993618    0.0040251230
      3711.39      0.77668280    0.0040268226
      3715.10      0.78293606    0.0040635361
      3718.81      0.79083697    0.0040249793
      3722.53      0.79850628    0.0040260654
      3726.26      0.80496008    0.0040652845
      3729.98      0.80797566    0.0040654884
      3733.71      0.81011779    0.0040659833
      3737.45      0.81727566    0.0040667433
      3741.18      0.82391049    0.0041051181
      3744.93      0.82937325    0.0041064577
      3748.67      0.83368370    0.0041080668
      3752.42      0.83908770    0.0040685251
      3756.17      0.84333975    0.0041065037
      3759.93      0.84857898    0.0041074241
      3763.69      0.85158300    0.0041086017
      3767.45      0.85410095    0.0041100136
      3771.22      0.85781056    0.0041504330
      3774.99      0.86105514    0.0041509315
      3778.77      0.86673093    0.0041516737
      3782.54      0.87165312    0.0041526546
      3786.33      0.87486167    0.0041934621
      3790.11      0.88082963    0.0041535958
      3793.90      0.88830063    0.0041538748
      3797.70      0.89454525    0.0041543794
      3801.50      0.90036377    0.0041946551
      3805.30      0.90653587    0.0041956027
      3809.10      0.91556321    0.0041967601
      3812.91      0.92668971    0.0041981209
      3816.73      0.93633558    0.0041996803
      3820.54      0.94715988    0.0042421352
      3824.36      0.95708071    0.0042427589
      3828.19      0.96575018    0.0042435814
      3832.02      0.97483559    0.0042445943
      3835.85      0.99078470    0.0042878679
      3839.68       1.0069014    0.0042892909
      3843.52       1.0220731    0.0042908966
      3847.37       1.0384298    0.0042466565
      3851.22       1.0564873    0.0042472737
      3855.07       1.0768421    0.0042901007
      3858.92       1.0954998    0.0042910617
      3862.78       1.1132263    0.0042921861
      3866.64       1.1354719    0.0042934686
      3870.51       1.1576558    0.0042948961
      3874.38       1.1790662    0.0043412214
      3878.26       1.2017664    0.0043417277
      3882.13       1.2243450    0.0043423882
      3886.02       1.2501951    0.0043431945
      3889.90       1.2754779    0.0043441376
      3893.79       1.3024934    0.0043900167
      3897.69       1.3312148    0.0043912562
      3901.59       1.3612954    0.0043926216
      3905.49       1.3898136    0.0043941017
      3909.39       1.4183646    0.0043957071
      3913.30       1.4457634    0.0044440528
      3917.22       1.4729378    0.0044447418
      3921.13       1.5006459    0.0044455510
      3925.06       1.5283144    0.0044464719
      3928.98       1.5554753    0.0044475016
      3932.91       1.5806729    0.0044964829
      3936.84       1.6066427    0.0044977390
      3940.78       1.6294824    0.0044990974
      3944.72       1.6481911    0.0045005384
      3948.67       1.6621878    0.0045020618
      3952.61       1.6750107    0.0045036718
      3956.57       1.6863592    0.0045553471
      3960.52       1.6919234    0.0045560964
      3964.48       1.6953125    0.0045569296
      3968.45       1.6984167    0.0045578432
      3972.42       1.6977520    0.0045588330
      3976.39       1.6946551    0.0045598899
      3980.37       1.6920030    0.0046122719
      3984.35       1.6894185    0.0046134837
      3988.33       1.6845299    0.0046147466
      3992.32       1.6788871    0.0046160638
      3996.31       1.6730093    0.0046174249
      4000.31       1.6679734    0.0046188311
      4004.31       1.6632901    0.0046766026
      4008.31       1.6607169    0.0046772764
      4012.32       1.6571077    0.0046780167
      4016.33       1.6541356    0.0046788075
      4020.35       1.6520428    0.0046796490
      4024.37       1.6443494    0.0046805323
      4028.40       1.6364997    0.0046814548
      4032.42       1.6283303    0.0048012239
      4036.46       1.6208960    0.0048022402
      4040.50       1.6107990    0.0048032859
      4044.54       1.6017522    0.0048043600
      4048.58       1.5926671    0.0048054564
      4052.63       1.5813468    0.0048065710
      4056.68       1.5711729    0.0048077066
      4060.74       1.5610122    0.0048088554
      4064.80       1.5531860    0.0047461242
      4068.86       1.5437540    0.0047472653
      4072.93       1.5352303    0.0047484090
      4077.01       1.5288794    0.0047495559
      4081.08       1.5256972    0.0047507085
      4085.17       1.5218338    0.0047518529
      4089.25       1.5201218    0.0047529901
      4093.34       1.5165404    0.0047541357
      4097.43       1.5109328    0.0047552673
      4101.53       1.5036199    0.0047563838
      4105.63       1.4938887    0.0047574945
      4109.74       1.4914230    0.0047585946
      4113.85       1.4920029    0.0047596950
      4117.96       1.4933123    0.0047607738
      4122.08       1.4945745    0.0047618429
      4126.20       1.4961203    0.0047629076
      4130.33       1.4964980    0.0047639532
      4134.46       1.4998575    0.0047649867
      4138.59       1.5021542    0.0047660202
      4142.73       1.5065353    0.0047670327
      4146.88       1.5125961    0.0047680388
      4151.02       1.5186708    0.0047690354
      4155.18       1.5257842    0.0047700308
      4159.33       1.5295241    0.0047710229
      4163.49       1.5314052    0.0047720087
      4167.65       1.5375660    0.0047729908
      4171.82       1.5395286    0.0047739766
      4175.99       1.5415534    0.0047748614
      4180.17       1.5437517    0.0047204182
      4184.35       1.5464177    0.0047214340
      4188.54       1.5519802    0.0047224405
      4192.72       1.5557660    0.0047234641
      4196.92       1.5597632    0.0047245025
      4201.11       1.5590109    0.0047255611
      4205.31       1.5602004    0.0047266438
      4209.52       1.5590305    0.0047277514
      4213.73       1.5609514    0.0047288900
      4217.94       1.5599740    0.0047300672
      4222.16       1.5599071    0.0047312798
      4226.38       1.5589227    0.0047325379
      4230.61       1.5579385    0.0047338427
      4234.84       1.5592423    0.0047352024
      4239.08       1.5580441    0.0047366161
      4243.32       1.5584647    0.0047380974
      4247.56       1.5608503    0.0046809783
      4251.81       1.5615928    0.0046816736
      4256.06       1.5637687    0.0046824097
      4260.32       1.5671138    0.0046831989
      4264.58       1.5696988    0.0047439448
      4268.84       1.5722261    0.0047448618
      4273.11       1.5782258    0.0047458547
      4277.38       1.5839865    0.0047469242
      4281.66       1.5879664    0.0047480861
      4285.94       1.5929444    0.0047493394
      4290.23       1.6011763    0.0046960086
      4294.52       1.6001683    0.0046962480
      4298.81       1.6009107    0.0046965814
      4303.11       1.6026087    0.0046969931
      4307.42       1.6038246    0.0046975119
      4311.72       1.6054640    0.0046981328
      4316.04       1.6071970    0.0046988721
      4320.35       1.6072828    0.0046997381
      4324.67       1.6098863    0.0047007317
      4329.00       1.6161964    0.0046497095
      4333.33       1.6232726    0.0047095272
      4337.66       1.6315248    0.0047094605
      4342.00       1.6393059    0.0047095334
      4346.34       1.6450195    0.0047097600
      4350.69       1.6527801    0.0047101408
      4355.04       1.6605221    0.0047107118
      4359.39       1.6686213    0.0047114426
      4363.75       1.6745455    0.0046600905
      4368.12       1.6842426    0.0047806610
      4372.48       1.6940128    0.0047441280
      4376.86       1.6904556    0.0046739663
      4381.23       1.6994445    0.0047246196
      4385.61       1.7069641    0.0047730033
      4390.00       1.7138667    0.0048438093
      4394.39       1.7219412    0.0048897019
      4398.79       1.7333829    0.0049623044
      4403.18       1.7482899    0.0050236436
      4407.59       1.7683128    0.0050670706
      4412.00       1.7900594    0.0050620645
      4416.41       1.8146857    0.0050393148
      4420.82       1.8392811    0.0049973332
      4425.25       1.8630090    0.0049277649
      4429.67       1.8905541    0.0048518468
      4434.10       1.9188622    0.0047778582
      4438.54       1.9457611    0.0047150751
      4442.97       1.9733140    0.0046751037
      4447.42       2.0013900    0.0046388455
      4451.86       2.0374054    0.0049046431
      4456.32       2.0679196    0.0047515197
      4460.77       2.0993252    0.0046894116
      4465.24       2.1308818    0.0046908445
      4469.70       2.1606663    0.0046391815
      4474.17       2.1927993    0.0046391225
      4478.65       2.2234576    0.0046394665
      4483.12       2.2521340    0.0046966800
      4487.61       2.2829187    0.0046978000
      4492.09       2.3155786    0.0046474345
      4496.59       2.3491124    0.0046470342
      4501.08       2.3815868    0.0046470597
      4505.58       2.4133592    0.0046475095
      4510.09       2.4458505    0.0047050026
      4514.60       2.4787240    0.0046553284
      4519.12       2.5088434    0.0046546663
      4523.63       2.5397641    0.0046544864
      4528.16       2.5699543    0.0046547846
      4532.69       2.5988826    0.0046555865
      4537.22       2.6306699    0.0046627132
      4541.76       2.6567166    0.0046619122
      4546.30       2.6845474    0.0046616450
      4550.85       2.7082358    0.0046619282
      4555.40       2.7295783    0.0046132935
      4559.95       2.7505880    0.0046695100
      4564.51       2.7666194    0.0046687279
      4569.08       2.7788653    0.0046685428
      4573.65       2.7897264    0.0046689704
      4578.22       2.7963401    0.0046204672
      4582.80       2.7983749    0.0046221227
      4587.38       2.7947373    0.0046752366
      4591.97       2.7878982    0.0046753092
      4596.56       2.7771272    0.0046264423
      4601.16       2.7606045    0.0046278668
      4605.76       2.7405465    0.0046818252
      4610.37       2.7178592    0.0046319220
      4614.98       2.6904589    0.0046324958
      4619.59       2.6562452    0.0046337728
      4624.21       2.6196833    0.0046357669
      4628.84       2.5791043    0.0046380792
      4633.47       2.5424434    0.0046385490
      4638.10       2.5016890    0.0046397769
      4642.74       2.4582473    0.0046417811
      4647.38       2.4160839    0.0046440980
      4652.03       2.3731171    0.0046445693
      4656.68       2.3266811    0.0046458544
      4661.34       2.2817753    0.0045967401
      4666.00       2.2390454    0.0045965388
      4670.67       2.1960952    0.0046505758
      4675.33       2.1542779    0.0046520442
      4680.01       2.1166960    0.0046022993
      4684.69       2.0791639    0.0046022832
      4689.38       2.0404022    0.0046566317
      4694.07       2.0066223    0.0046083449
      4698.76       1.9730154    0.0046077383
      4703.46       1.9418584    0.0046080408
      4708.16       1.9088907    0.0046628457
      4712.87       1.8799022    0.0046134029
      4717.58       1.8550094    0.0046131896
      4722.30       1.8350811    0.0046675780
      4727.03       1.8154185    0.0046191561
      4731.75       1.7965571    0.0046184797
      4736.48       1.7798881    0.0046188334
      4741.22       1.7629791    0.0046249279
      4745.96       1.7486220    0.0046238307
      4750.71       1.7387448    0.0046238194
      4755.46       1.7338857    0.0045778578
      4760.22       1.7290900    0.0046291664
      4764.97       1.7257625    0.0046288448
      4769.74       1.7248345    0.0045825784
      4774.51       1.7235737    0.0046344246
      4779.29       1.7251492    0.0046338531
      4784.07       1.7296814    0.0045873510
      4788.85       1.7341879    0.0046395601
      4793.64       1.7424240    0.0046388159
      4798.43       1.7521064    0.0045921449
      4803.23       1.7593377    0.0045938931
      4808.03       1.7671801    0.0046437032
      4812.84       1.7754211    0.0045969409
      4817.66       1.7851943    0.0045987074
      4822.48       1.7956472    0.0046011814
      4827.30       1.8072441    0.0046017384
      4832.12       1.8221971    0.0046035987
      4836.96       1.8400678    0.0046058672
      4841.79       1.8585609    0.0046065347
      4846.63       1.8795670    0.0046085882
      4851.48       1.8950731    0.0046105038
      4856.33       1.9140990    0.0046113952
      4861.19       1.9184989    0.0045645923
      4866.05       1.9228060    0.0046151257
      4870.92       1.9274445    0.0046163261
      4875.79       1.9297013    0.0045688669
      4880.66       1.9343975    0.0046197861
      4885.55       1.9405182    0.0046213955
      4890.43       1.9414556    0.0045731547
      4895.32       1.9378147    0.0046245527
      4900.22       1.9384793    0.0045779607
      4905.12       1.9404319    0.0045775180
      4910.02       1.9401404    0.0046295097
      4914.94       1.9430833    0.0045818989
      4919.85       1.9505312    0.0046329700
      4924.77       1.9651154    0.0045868040
      4929.70       1.9788394    0.0045859985
      4934.62       2.0002250    0.0045921803
      4939.56       2.0147163    0.0045904305
      4944.50       2.0252743    0.0045903772
      4949.44       2.0326736    0.0045952497
      4954.39       2.0270858    0.0045943237
      4959.35       2.0218461    0.0045502697
      4964.31       2.0211180    0.0045986417
      4969.27       2.0222284    0.0045537379
      4974.24       2.0250669    0.0046032721
      4979.22       2.0262597    0.0046024839
      4984.20       2.0270156    0.0045585929
      4989.18       2.0321208    0.0046065828
      4994.17       2.0389879    0.0045619367
      4999.16       2.0422905    0.0046109125
      5004.16       2.0479353    0.0045655173
      5009.17       2.0546766    0.0045671133
      5014.18       2.0640889    0.0045692830
      5019.19       2.0734544    0.0045702786
      5024.21       2.0847469    0.0046183555
      5029.23       2.0925257    0.0045736409
      5034.26       2.0960791    0.0046224714
      5039.30       2.0935168    0.0045771447
      5044.34       2.0888864    0.0045790662
      5049.39       2.0824471    0.0045807623
      5054.43       2.0767619    0.0045822261
      5059.49       2.0681368    0.0045844655
      5064.55       2.0667634    0.0045855052
      5069.61       2.0653455    0.0045398552
      5074.68       2.0638101    0.0045888712
      5079.76       2.0715656    0.0045435785
      5084.84       2.0824826    0.0045922891
      5089.92       2.0925176    0.0045473111
      5095.01       2.1030899    0.0045957661
      5100.11       2.1192241    0.0045510210
      5105.21       2.1368095    0.0045992537
      5110.31       2.1586943    0.0045547081
      5115.42       2.1828259    0.0046027650
      5120.54       2.2099551    0.0045583465
      5125.66       2.2352336    0.0045577408
      5130.79       2.2615725    0.0045619330
      5135.92       2.2920386    0.0045611920
      5141.05       2.3254040    0.0045654504
      5146.20       2.3591501    0.0045646328
      5151.34       2.3925230    0.0045689143
      5156.49       2.4266068    0.0045680567
      5161.65       2.4651145    0.0045722919
      5166.81       2.5028506    0.0045714644
      5171.98       2.5450758    0.0045756162
      5177.15       2.5822336    0.0045748383
      5182.33       2.6193001    0.0045788711
      5187.51       2.6521051    0.0045351958
      5192.70       2.6785884    0.0045820613
      5197.89       2.7050203    0.0045385319
      5203.09       2.7280166    0.0045852016
      5208.29       2.7444416    0.0045418811
      5213.50       2.7556921    0.0045883253
      5218.72       2.7647005    0.0045452545
      5223.93       2.7679512    0.0045914278
      5229.16       2.7700761    0.0045486686
      5234.39       2.7700691    0.0045513246
      5239.62       2.7693401    0.0045521380
      5244.86       2.7678904    0.0045544275
      5250.11       2.7656974    0.0045556860
      5255.36       2.7608868    0.0045575783
      5260.61       2.7564824    0.0045593467
      5265.87       2.7540525    0.0045608088
      5271.14       2.7481017    0.0045179141
      5276.41       2.7412036    0.0045641447
      5281.69       2.7334177    0.0045207366
      5286.97       2.7240705    0.0045676191
      5292.26       2.7141959    0.0045698866
      5297.55       2.7024135    0.0045275613
      5302.85       2.6895428    0.0045729705
      5308.15       2.6724733    0.0045300456
      5313.46       2.6539086    0.0045762352
      5318.77       2.6360548    0.0045326701
      5324.09       2.6154436    0.0045369745
      5329.42       2.5934174    0.0045355061
      5334.75       2.5703088    0.0045391326
      5340.08       2.5459941    0.0045849497
      5345.42       2.5215301    0.0045415169
      5350.77       2.4928961    0.0045459390
      5356.12       2.4627900    0.0045441745
      5361.48       2.4287270    0.0045478472
      5366.83       2.3909454    0.0045471658
      5372.20       2.3544072    0.0045500750
      5377.58       2.3192455    0.0045543732
      5382.95       2.2864078    0.0045526730
      5388.34       2.2526345    0.0045561603
      5393.72       2.2233997    0.0045144594
      5399.12       2.1918425    0.0045583557
      5404.52       2.1624295    0.0045179435
      5409.92       2.1333131    0.0045197448
      5415.33       2.1044761    0.0045641125
      5420.75       2.0764418    0.0045229433
      5426.17       2.0489043    0.0045251105
      5431.60       2.0191595    0.0045698721
      5437.03       1.9879129    0.0045280590
      5442.47       1.9525327    0.0045304949
      5447.91       1.9157367    0.0045316694
      5453.36       1.8756833    0.0045332192
      5458.81       1.8325086    0.0045358436
      5464.27       1.7890584    0.0045366779
      5469.73       1.7478974    0.0045383818
      5475.20       1.7008314    0.0044969345
      5480.68       1.6589236    0.0045417291
      5486.16       1.6189232    0.0045435190
      5491.65       1.5826008    0.0045020588
      5497.14       1.5508039    0.0045468224
      5502.64       1.5186783    0.0045486220
      5508.14       1.4841794    0.0045070703
      5513.65       1.4527097    0.0045519359
      5519.16       1.4239026    0.0045536719
      5524.68       1.3938623    0.0045119744
      5530.20       1.3624212    0.0045153942
      5535.73       1.3321459    0.0045586983
      5541.27       1.3051915    0.0045167946
      5546.81       1.2746598    0.0045200036
      5552.36       1.2452975    0.0045637214
      5557.91       1.2143224    0.0045215552
      5563.47       1.1812226    0.0045245097
      5569.04       1.1493200    0.0045282028
      5574.60       1.1155732    0.0045263087
      5580.18       1.0713954    0.0045289620
      5585.76       1.0359495    0.0045323097
      5591.35      0.99768991    0.0044915317
      5596.94      0.96160863    0.0045334165
      5602.53      0.92488024    0.0045363859
      5608.14      0.88503340    0.0044964201
      5613.75      0.84356924    0.0044983166
      5619.36      0.80752614    0.0045405140
      5624.98      0.77703660    0.0045015214
      5630.60      0.74902682    0.0045030172
      5636.23      0.72309292    0.0045050829
      5641.87      0.70730427    0.0045474718
      5647.51      0.69632038    0.0045080182
      5653.16      0.68579164    0.0045096276
      5658.82      0.67869685    0.0045117500
      5664.47      0.67311911    0.0045134338
      5670.14      0.67373169    0.0045145575
      5675.81      0.67566902    0.0045161703
      5681.48      0.67890805    0.0045182601
      5687.17      0.68047993    0.0044784571
      5692.85      0.68396785    0.0045211005
      5698.55      0.68707176    0.0045226379
      5704.25      0.69213696    0.0045246099
      5709.95      0.70267353    0.0044846124
      5715.66      0.71269974    0.0044873538
      5721.38      0.72207523    0.0045291066
      5727.10      0.73463406    0.0045308962
      5732.83      0.74956256    0.0044906264
      5738.56      0.76296960    0.0044931128
      5744.30      0.77886074    0.0044959511
      5750.04      0.79826916    0.0045371745
      5755.79      0.81591471    0.0044965776
      5761.55      0.83353244    0.0044987786
      5767.31      0.85547299    0.0045013961
      5773.08      0.87803062    0.0045045964
      5778.85      0.90160697    0.0044659149
      5784.63      0.92394218    0.0045060023
      5790.41      0.94671454    0.0045084952
      5796.21      0.96831852    0.0045115376
      5802.00      0.98972461    0.0045156428
      5807.81       1.0140766    0.0044788792
      5813.61       1.0422482    0.0044845611
      5819.43       1.0743826    0.0045283350
      5825.25       1.1061305    0.0045349939
      5831.07       1.1404059    0.0045424940
      5836.90       1.1780935    0.0045078862
      5842.74       1.2175918    0.0045131495
      5848.58       1.2542516    0.0045169993
      5854.43       1.2940419    0.0045202442
      5860.29       1.3316961    0.0045614776
      5866.15       1.3666292    0.0045236900
      5872.01       1.4015609    0.0045241427
      5877.89       1.4340804    0.0045244376
      5883.76       1.4613820    0.0045252009
      5889.65       1.4854747    0.0045263008
      5895.54       1.4995599    0.0045271022
      5901.43       1.5055300    0.0044867897
      5907.34       1.5020881    0.0044866859
      5913.24       1.4947894    0.0045252540
      5919.16       1.4806941    0.0045241639
      5925.08       1.4614874    0.0045230065
      5931.00       1.4397142    0.0045211595
      5936.93       1.4170743    0.0044791829
      5942.87       1.3919658    0.0044784750
      5948.81       1.3650472    0.0044786880
      5954.76       1.3388411    0.0044784211
      5960.72       1.3109271    0.0044780035
      5966.68       1.2858857    0.0044784354
      5972.64       1.2629257    0.0044795405
      5978.62       1.2434487    0.0044403984
      5984.60       1.2259692    0.0044779456
      5990.58       1.2120936    0.0044790922
      5996.57       1.2008700    0.0044805459
      6002.57       1.1915832    0.0044820577
      6008.57       1.1836145    0.0044835968
      6014.58       1.1755951    0.0044852216
      6020.60       1.1679085    0.0044869403
      6026.62       1.1636960    0.0044887282
      6032.65       1.1591512    0.0044514296
      6038.68       1.1564562    0.0044527532
      6044.72       1.1580763    0.0054801804
      6050.76       1.1588648    0.0054818336
      6056.81       1.1580862    0.0054835550
      6062.87       1.1602959    0.0054853393
      6068.93       1.1644712    0.0054871715
      6075.00       1.1722447    0.0054890454
      6081.08       1.1833383    0.0054909508
      6087.16       1.1929868    0.0054199322
      6093.25       1.2070345    0.0054218458
      6099.34       1.2237445    0.0054237587
      6105.44       1.2433280    0.0054256763
      6111.54       1.2578146    0.0054275960
      6117.66       1.2818608    0.0054294897
      6123.78       1.3079301    0.0070165542
      6129.90       1.3380190    0.0070196122
      6136.03       1.3872010    0.0070225422
      6142.17       1.4389121    0.0070253803
      6148.31       1.4962471    0.0070281077
      6154.46       1.5495547    0.0070307159
      6160.61       1.6172039    0.0070332632
      6166.77       1.7141685    0.0070356142
      6172.94       1.7988496    0.0070378353
      6179.11       1.8894401    0.0070400061
      6185.29       1.9688627    0.0070421443
      6191.48       2.0396593    0.0070452239
      6197.67       2.1043401    0.0070519299
      6203.87       2.1878016    0.0070643729
      6210.07       2.3028348    0.0070930746
      6216.28       2.4170207    0.0071451602
      6222.50       2.5401274    0.0071976373
      6228.72       2.6805349    0.0072245728
      6234.95       2.8276854    0.0072194562
      6241.19       2.9729393    0.0071990929
      6247.42       3.0923449    0.0071822725
      6253.67       3.1752329    0.0071624889
      6259.93       3.2268715    0.0071411865
      6266.19       3.2651464    0.0071249166
      6272.46       3.3206487    0.0071117536
      6278.73       3.3998222    0.0071016718
      6285.01       3.4945780    0.0070947756
      6291.29       3.6000273    0.0069574972
      6297.58       3.7039023    0.0069540482
      6303.88       3.7929099    0.0069512594
      6310.19       3.8495893    0.0069491401
      6316.50       3.8567498    0.0069475928
      6322.81       3.8067466    0.0069467682
      6329.14       3.7018717    0.0069467090
      6335.47       3.5598173    0.0069472140
      6341.80       3.4121229    0.0070909849
      6348.14       3.2797307    0.0070875122
      6354.49       3.1684251    0.0070851237
      6360.85       3.0742413    0.0070836988
      6367.21       3.0032416    0.0069510488
      6373.57       2.9328168    0.0069512355
      6379.95       2.8587143    0.0069523866
      6386.33       2.7731506    0.0069550393
      6392.72       2.6761380    0.0069604781
      6399.11       2.5709323    0.0069695654
      6405.51       2.4640279    0.0069831929
      6411.92       2.3707965    0.0070010047
      6418.32       2.2870153    0.0071559935
      6424.74       2.2121840    0.0070261675
      6431.17       2.1446093    0.0070220515
      6437.60       2.0844876    0.0070122035
      6444.04       2.0276077    0.0070034441
      6450.48       1.9719424    0.0070031099
      6456.94       1.9187002    0.0070093314
      6463.39       1.8651179    0.0070146934
      6469.85       1.8134102    0.0068642821
      6476.33       1.7683358    0.0070016902
      6482.80       1.7237571    0.0053952046
      6489.28       1.6800460    0.0053942036
      6495.77       1.6374375    0.0054020601
      6502.27       1.5973172    0.0054008378
      6508.77       1.5588056    0.0053975837
      6515.28       1.5184703    0.0053935130
      6521.80       1.4739686    0.0053898079
      6528.32       1.4278389    0.0053266129
      6534.85       1.3860748    0.0053249085
      6541.38       1.3432926    0.0053882256
      6547.92       1.2941095    0.0053860922
      6554.47       1.2451040    0.0053850802
      6561.03       1.1983628    0.0053248994
      6567.59       1.1545888    0.0053253543
      6574.16       1.1125145    0.0053263459
      6580.73       1.0764201    0.0053905014
      6587.31       1.0512189    0.0053895739
      6593.90       1.0301662    0.0053292394
      6600.50       1.0084077    0.0053295546
      6607.10      0.98939001    0.0053304833
      6613.70      0.97319294    0.0053320544
      6620.32      0.95991269    0.0053333584
      6626.94      0.94144461    0.0053330265
      6633.57      0.92437255    0.0053333915
      6640.20      0.90634459    0.0053344904
      6646.84      0.88415915    0.0053363442
      6653.49      0.85854162    0.0053363769
      6660.14      0.83529902    0.0053363058
      6666.80      0.82177624    0.0053370494
      6673.47      0.80937810    0.0053386441
      6680.14      0.79629062    0.0053393644
      6686.82      0.78377538    0.0053390036
      6693.51      0.76560394    0.0053395559
      6700.20      0.76044004    0.0052791613
      6706.90      0.75601144    0.0052778092
      6713.61      0.75025117    0.0053413697
      6720.32      0.74212845    0.0053419202
      6727.05      0.73016986    0.0052810920
      6733.77      0.71821662    0.0052797447
      6740.51      0.70350547    0.0053434200
      6747.25      0.69003860    0.0052846421
      6754.00      0.68209585    0.0052836595
      6760.75      0.67287582    0.0052904944
      6767.51      0.66182717    0.0053772671
      6774.28      0.64944313    0.0053266037
      6781.05      0.64612094    0.0053408255
      6787.84      0.64204418    0.0054030675
      6794.62      0.63553425    0.0055550432
      6801.42      0.63251860    0.0056862468
      6808.22      0.63042652    0.0058201742
      6815.03      0.63015208    0.0059698568
      6821.85      0.62980977    0.0060201058
      6828.67      0.63729447    0.0060116313
      6835.50      0.64847447    0.0058763429
      6842.33      0.66714140    0.0058285815
      6849.17      0.68385121    0.0057472837
      6856.02      0.70538294    0.0056172449
      6862.88      0.72678096    0.0056010948
      6869.74      0.74521703    0.0055409053
      6876.61      0.76672373    0.0054421644
      6883.49      0.78758499    0.0054734843
      6890.37      0.80516522    0.0053817688
      6897.27      0.82088534    0.0053557109
      6904.16      0.83596282    0.0053896795
      6911.07      0.85419949    0.0053144519
      6917.98      0.87131127    0.0053071648
      6924.89      0.88940314    0.0053656599
      6931.82      0.90718832    0.0053091669
      6938.75      0.92606282    0.0053133717
      6945.69      0.94635718    0.0053166175
      6952.64      0.96850823    0.0053123648
      6959.59      0.99775006    0.0053078154
      6966.55       1.0286623    0.0053004015
      6973.52       1.0614392    0.0052945199
      6980.49       1.0988985    0.0052287650
      6987.47       1.1433321    0.0052800376
      6994.46       1.1915598    0.0052747949
      7001.46       1.2436917    0.0052094564
      7008.46       1.2982673    0.0052634448
      7015.46       1.3537029    0.0051999755
      7022.48       1.4015264    0.0052532576
      7029.51       1.4407035    0.0051932461
      7036.53       1.4654075    0.0051882666
      7043.57       1.4788166    0.0052457641
      7050.62       1.4856330    0.0051870671
      7057.66       1.4881253    0.0052485480
      7064.72       1.4848553    0.0051999552
      7071.79       1.4787445    0.0052066255
      7078.86       1.4692216    0.0052321213
      7085.94       1.4579661    0.0052572768
      7093.03       1.4476462    0.0053246752
      7100.12       1.4451907    0.0053848630
      7107.22       1.4408138    0.0054103899
      7114.33       1.4480384    0.0055634839
      7121.44       1.4662438    0.0056243425
      7128.56       1.4960766    0.0056651853
      7135.69       1.5439066    0.0056482183
      7142.83       1.6094829    0.0055956033
      7149.97       1.6705962    0.0055501420
      7157.12       1.7352113    0.0055206235
      7164.28       1.7930884    0.0055136665
      7171.44       1.8428357    0.0054694255
      7178.62       1.8790351    0.0055498666
      7185.80       1.9031161    0.0055068322
      7192.98       1.9171908    0.0055661172
      7200.17       1.9263156    0.0054948559
      7207.38       1.9342545    0.0055344630
      7214.58       1.9340218    0.0054623559
      7221.80       1.9440648    0.0054470987
      7229.02       1.9467963    0.0054292074
      7236.25       1.9447296    0.0053995415
      7243.49       1.9491333    0.0053713163
      7250.73       1.9562325    0.0053311288
      7257.98       1.9572554    0.0052990903
      7265.24       1.9574564    0.0052556640
      7272.51       1.9553674    0.0052279746
      7279.78       1.9595352    0.0052009594
      7287.06       1.9591875    0.0051874105
      7294.35       1.9500476    0.0051739855
      7301.64       1.9411203    0.0051104991
      7308.94       1.9361377    0.0051539643
      7316.25       1.9239126    0.0050894869
      7323.57       1.8953926    0.0051339637
      7330.89       1.8629371    0.0050693293
      7338.22       1.8288149    0.0051161401
      7345.56       1.7873097    0.0050533102
      7352.91       1.7336523    0.0050481900
      7360.26       1.6663895    0.0050947660
      7367.62       1.5881945    0.0050363462
      7374.99       1.5071245    0.0050861212
      7382.37       1.4127258    0.0050281678
      7389.75       1.3196013    0.0050277059
      7397.14       1.2399756    0.0050220921
      7404.53       1.1619912    0.0050219298
      7411.94       1.0923315    0.0050180686
      7419.35       1.0333209    0.0050173008
      7426.77      0.99088755    0.0050185339
      7434.20      0.95931634    0.0050133957
      7441.63      0.92638528    0.0040933002
      7449.07      0.89597761    0.0040713584
      7456.52      0.87355988    0.0041189169
      7463.98      0.85191070    0.0041799484
      7471.45      0.83067461    0.0043244922
      7478.92      0.80717889    0.0045093931
      7486.40      0.78352851    0.0043359364
      7493.88      0.76000718    0.0042897974
      7501.38      0.73556817    0.0043819868
      7508.88      0.71416018    0.0045451091
      7516.39      0.69488083    0.0048143492
      7523.91      0.67725910    0.0051086087
      7531.43      0.66029779    0.0055167371
      7538.96      0.64483851    0.0059503030
      7546.50      0.63361850    0.0064289499
      7554.05      0.62696995    0.0065820510
      7561.60      0.62590800    0.0064187285
      7569.16      0.62969073    0.0061661678
      7576.73      0.63270380    0.0058964681
      7584.31      0.63977190    0.0054499175
      7591.89      0.64638478    0.0050687395
      7599.49      0.65444746    0.0048419266
      7607.09      0.66376005    0.0047139271
      7614.70      0.67432795    0.0046335267
      7622.31      0.68304154    0.0043978584
      7629.93      0.69361196    0.0042502989
      7637.56      0.70334912    0.0041709695
      7645.20      0.71413089    0.0041229015
      7652.85      0.72667130    0.0040551723
      7660.50      0.73979555    0.0040508777
      7668.16      0.75383297    0.0040246459
      7675.83      0.76670176    0.0039817450
      7683.50      0.78014980    0.0039693959
      7691.19      0.79341498    0.0039884392
      7698.88      0.80689979    0.0039573048
      7706.58      0.82110213    0.0039527848
      7714.29      0.83509392    0.0039494704
      7722.00      0.84798220    0.0039472511
      7729.73      0.85806375    0.0039452854
      7737.45      0.86692657    0.0039429123
      7745.19      0.87236039    0.0039409049
      7752.94      0.87015645    0.0039128346
      7760.69      0.86478017    0.0039375773
      7768.45      0.85548111    0.0039355473
      7776.22      0.84187370    0.0039345067
      7784.00      0.82038188    0.0039079726
      7791.78      0.79772011    0.0039085302
      7799.57      0.77272298    0.0039099284
      7807.37      0.74484503    0.0039365608
      7815.18      0.71161181    0.0039117715
      7822.99      0.67776190    0.0039125898
      7830.82      0.64729925    0.0039116044
      7838.65      0.61745303    0.0039099237
      7846.49      0.58947649    0.0038816352
      7854.34      0.56515843    0.0039041142
      7862.19      0.54415271    0.0039014037
      7870.05      0.52723589    0.0038985481
      7877.93      0.51153298    0.0038706216
      7885.80      0.49862057    0.0038677731
      7893.69      0.48670542    0.0038657391
      7901.58      0.47566948    0.0038642537
      7909.49      0.46687862    0.0038877116
      7917.40      0.45816556    0.0038611950
      7925.31      0.44857310    0.0038591699
      7933.24      0.43871133    0.0038565968
      7941.17      0.43120964    0.0038531153
      7949.11      0.42345024    0.0038493046
      7957.06      0.41269868    0.0038459079
      7965.02      0.40249819    0.0038176901
      7972.98      0.39497657    0.0038143588
      7980.96      0.38759917    0.0038112708
      7988.94      0.37843116    0.0038340925
      7996.93      0.36999555    0.0038338918
      8004.93      0.36394127    0.0038362912
      8012.93      0.35820215    0.0038163011
      8020.95      0.35264122    0.0038251445
      8028.97      0.34609851    0.0038381884
      8036.99      0.34183166    0.0038582902
      8045.03      0.33888270    0.0038854911
      8053.08      0.33742507    0.0039175209
      8061.13      0.33594920    0.0039523544
      8069.20      0.33465354    0.0039588220
      8077.26      0.33529057    0.0039988337
      8085.34      0.33752521    0.0040259538
      8093.43      0.33811500    0.0040331105
      8101.52      0.33800088    0.0040332396
      8109.62      0.33767035    0.0040313223
      8117.73      0.33835376    0.0040252474
      8125.85      0.33995045    0.0040163254
      8133.98      0.34132167    0.0040034594
      8142.11      0.34109522    0.0039623332
      8150.25      0.34170861    0.0039453346
      8158.41      0.34309874    0.0039308000
      8166.56      0.34446345    0.0039198046
      8174.73      0.34359207    0.0039079942
      8182.91      0.34494752    0.0038931515
      8191.09      0.34764004    0.0038774171
      8199.28      0.35208300    0.0038604267
      8207.48      0.35726206    0.0038426712
      8215.69      0.36122031    0.0038257969
      8223.91      0.36505335    0.0038157691
      8232.13      0.36873026    0.0038108175
      8240.36      0.37370770    0.0037966868
      8248.60      0.37783044    0.0037715346
      8256.85      0.38341334    0.0037478180
      8265.11      0.38832533    0.0037270386
      8273.37      0.39353479    0.0037075195
      8281.65      0.39998951    0.0036910378
      8289.93      0.40859644    0.0036751928
      8298.22      0.41911609    0.0036586608
      8306.52      0.43146073    0.0036434969
      8314.83      0.44459649    0.0036099179
      8323.14      0.45877550    0.0035991102
      8331.46      0.47715939    0.0035895697
      8339.80      0.50172311    0.0035799212
      8348.13      0.52914536    0.0035687503
      8356.48      0.55538588    0.0035605651
      8364.84      0.57952813    0.0035534143
      8373.21      0.60797659    0.0035466177
      8381.58      0.64152184    0.0035403783
      8389.96      0.67971395    0.0035346325
      8398.35      0.72088225    0.0035290444
      8406.75      0.75799874    0.0035239097
      8415.16      0.79541436    0.0035192140
      8423.57      0.83795252    0.0034928774
      8432.00      0.88789475    0.0034878268
      8440.43      0.93989983    0.0034827899
      8448.87      0.99058623    0.0034774332
      8457.32       1.0391231    0.0034716143
      8465.78       1.0892870    0.0034655536
      8474.25       1.1459530    0.0034593183
      8482.72       1.2092374    0.0034318591
      8491.20       1.2671676    0.0034256711
      8499.69       1.3178023    0.0034197363
      8508.19       1.3628650    0.0034138899
      8516.70       1.4132684    0.0034274790
      8525.22       1.4631783    0.0034210653
      8533.75       1.5126401    0.0033942419
      8542.28       1.5543735    0.0033887933
      8550.82       1.5892352    0.0033836473
      8559.37       1.6168016    0.0033784564
      8567.93       1.6379738    0.0033733063
      8576.50       1.6553047    0.0033471729
      8585.08       1.6708071    0.0033416185
      8593.66       1.6819390    0.0033557763
      8602.26       1.6814455    0.0033499250
      8610.86       1.6738143    0.0033439490
      8619.47       1.6632060    0.0033171778
      8628.09       1.6531503    0.0033106359
      8636.72       1.6406542    0.0033041476
      8645.36       1.6232964    0.0032978323
      8654.00       1.5934981    0.0032913124
      8662.66       1.5615080    0.0032850609
      8671.32       1.5347705    0.0032790075
      8679.99       1.5129688    0.0032729024
      8688.67       1.4809477    0.0032475182
      8697.36       1.4408145    0.0032420707
      8706.06       1.3977285    0.0032550956
      8714.76       1.3561168    0.0032491185
      8723.48       1.3115630    0.0032238300
      8732.21       1.2662617    0.0032180413
      8740.93       1.2192976    0.0032124435
      8749.68       1.1713692    0.0032055692
      8758.43       1.1258310    0.0031999126
      8767.19       1.0803988    0.0031947502
      8775.96       1.0373954    0.0031898324
      8784.73      0.99730901    0.0031661328
      8793.52      0.95888984    0.0031818576
      8802.31      0.92350404    0.0031802311
      8811.11      0.89065188    0.0031600409
      8819.92      0.85666092    0.0031613957
      8828.75      0.82703006    0.0031874795
      8837.57      0.79976367    0.0031800451
      8846.41      0.77264689    0.0031948045
      8855.26      0.74439861    0.0032170382
      8864.12      0.71655443    0.0032539391
      8872.98      0.69213504    0.0032857825
      8881.85      0.66824540    0.0033206842
      8890.73      0.64550215    0.0033386590
      8899.63      0.62575538    0.0033932914
      8908.52      0.60953733    0.0034123551
      8917.43      0.59383636    0.0033966393
      8926.35      0.57831731    0.0033863682
      8935.28      0.56354132    0.0033608944
      8944.22      0.55299045    0.0033352255
      8953.16      0.54461627    0.0033108106
      8962.11      0.53766232    0.0032900534
      8971.08      0.52914971    0.0032797999
      8980.05      0.51967326    0.0032721285
      8989.03      0.51115696    0.0032735302
      8998.02      0.50524637    0.0032807100
      9007.02      0.50087524    0.0032706480
      9016.02      0.49659731    0.0032955409
      9025.04      0.49098367    0.0032787625
      9034.07      0.48505302    0.0032745662
      9043.10      0.48203668    0.0032840698
      9052.14      0.48320349    0.0032543724
      9061.20      0.48585018    0.0032415088
      9070.26      0.48810789    0.0032243076
      9079.33      0.48837610    0.0032056361
      9088.41      0.48986218    0.0031586039
      9097.50      0.49243639    0.0031423682
      9106.60      0.49735024    0.0030933026
      9115.70      0.50223949    0.0030676433
      9124.82      0.50664761    0.0030551012
      9133.94      0.50897825    0.0030221800
      9143.08      0.51036235    0.0030261168
      9152.22      0.51210625    0.0030119507
      9161.37      0.51391165    0.0030209694
      9170.54      0.51503977    0.0030476894
      9179.71      0.51270846    0.0030823381
      9188.89      0.50745463    0.0031504144
      9198.08      0.50144225    0.0032313238
      9207.28      0.49650402    0.0033705565
      9216.48      0.49232901    0.0035086923
      9225.70      0.48665703    0.0036727604
      9234.92      0.47682215    0.0038823516
      9244.16      0.46535259    0.0040502399
      9253.40      0.45684674    0.0042248814
      9262.66      0.45435479    0.0043163554
      9271.92      0.45253386    0.0043538315
      9281.20      0.44797104    0.0043189571
      9290.48      0.44302470    0.0042144747
      9299.77      0.43811245    0.0041244031
      9309.07      0.43532496    0.0039986642
      9318.38      0.43288619    0.0039251374
      9327.69      0.42927640    0.0038529019
      9337.02      0.42435590    0.0038128812
      9346.36      0.41909918    0.0038110181
      9355.71      0.41490035    0.0038204121
      9365.07      0.41036840    0.0038187203
      9374.43      0.40684820    0.0038204599
      9383.80      0.40191931    0.0038114889
      9393.19      0.39657565    0.0037644195
      9402.58      0.39254311    0.0036805998
      9411.98      0.38836506    0.0036525148
      9421.40      0.38646618    0.0035871562
      9430.82      0.38473005    0.0035324673
      9440.25      0.38164318    0.0034921132
      9449.69      0.37825168    0.0034068971
      9459.14      0.37639266    0.0033415515
      9468.60      0.37605721    0.0032761601
      9478.07      0.37411069    0.0031858249
      9487.55      0.37448693    0.0031140678
      9497.04      0.37330160    0.0030394998
      9506.53      0.37134645    0.0029475304
      9516.04      0.36949770    0.0028707322
      9525.56      0.37374847    0.0028013070
      9535.08      0.36983183    0.0027293606
      9544.62      0.36588088    0.0026419279
      9554.16      0.36516228    0.0025721055
      9563.72      0.36090747    0.0024822176
      9573.29      0.36205488    0.0024134461
      9582.85      0.36551369    0.0023532102
      9592.44      0.36844774    0.0022858641
      9602.03      0.37115495    0.0022378071
      9611.63      0.37371067    0.0021954893
      9621.25      0.37682364    0.0021494110
      9630.87      0.37639068    0.0021188458
      9640.50      0.37930834    0.0020787231
      9650.14      0.38236746    0.0020507314
      9659.79      0.38555773    0.0020193026
      9669.45      0.39050426    0.0019848489
      9679.12      0.39344957    0.0019602094
      9688.80      0.39532753    0.0019251918
      9698.49      0.39870332    0.0018983855
      9708.19      0.40149602    0.0018613182
      9717.90      0.40379375    0.0018327284
      9727.62      0.40498976    0.0017944534
      9737.34      0.40697874    0.0017665582
      9747.08      0.40916672    0.0017394029
      9756.83      0.41020319    0.0017057274
      9766.59      0.41259347    0.0016819146
      9776.35      0.41487738    0.0016514981
      9786.13      0.41672223    0.0016301760
      9795.92      0.42080558    0.0016028825
      9805.71      0.42678800    0.0015765421
      9815.52      0.43194850    0.0015575573
      9825.34      0.43648621    0.0015325914
      9835.17      0.44173407    0.0015147255
      9845.00      0.44773614    0.0014915079
      9854.84      0.45125511    0.0014752457
      9864.70      0.45421028    0.0014532647
      9874.56      0.46104781    0.0014373141
      9884.44      0.46793871    0.0014158182
      9894.32      0.47325397    0.0013950331
      9904.22      0.48021423    0.0013801503
      9914.13      0.48822716    0.0013599960
      9924.04      0.49733832    0.0013453317
      9933.96      0.50550207    0.0013256306
      9943.90      0.51425043    0.0013269251
      9953.84      0.52134873    0.0013410118
      9963.79      0.52845467    0.0013584109
      9973.76      0.53497745    0.0013798609
      9983.74      0.54158980    0.0014066365
      9993.72      0.54841435    0.0014404570
