# starting wavelength =        3326.6152
# ending wavelength =        10170.640
# O2 telluric scale =       0.14761143
# O2 telluric shift =       -4.4147772
# H2O telluric scale =        0
# H2O telluric shift =        0
      3328.28      0.89126524     0.011034492
      3331.61      0.93083639     0.010253523
      3334.94      0.96838060    0.0080531172
      3338.27       1.0034833    0.0076389141
      3341.61       1.0370224    0.0062878360
      3344.95       1.0696139    0.0056703988
      3348.30       1.1017326    0.0054938168
      3351.65       1.1319130    0.0048473788
      3355.00       1.1623318    0.0047327390
      3358.35       1.1896234    0.0043369755
      3361.71       1.2172880    0.0041748430
      3365.07       1.2432140    0.0040958122
      3368.44       1.2672302    0.0039064608
      3371.81       1.2907815    0.0038378640
      3375.18       1.3126507    0.0037097624
      3378.56       1.3359379    0.0036772436
      3381.94       1.3581225    0.0036140226
      3385.32       1.3789751    0.0035419872
      3388.70       1.3984315    0.0034832916
      3392.09       1.4151789    0.0034837436
      3395.48       1.4352822    0.0034846820
      3398.88       1.4540430    0.0034766529
      3402.28       1.4727630    0.0034755366
      3405.68       1.4891276    0.0034748727
      3409.09       1.5047349    0.0034746572
      3412.49       1.5202856    0.0034748932
      3415.91       1.5354323    0.0035286448
      3419.32       1.5505644    0.0035268591
      3422.74       1.5646797    0.0035255344
      3426.17       1.5781922    0.0034663177
      3429.59       1.5907050    0.0034658413
      3433.02       1.6027084    0.0034657838
      3436.45       1.6144608    0.0035208052
      3439.89       1.6262409    0.0035187616
      3443.33       1.6370151    0.0035171471
      3446.78       1.6478862    0.0035159539
      3450.22       1.6583782    0.0035151794
      3453.67       1.6694507    0.0034565593
      3457.13       1.6780836    0.0035133690
      3460.58       1.6861937    0.0035109939
      3464.04       1.6941311    0.0035090261
      3467.51       1.7030899    0.0035074529
      3470.98       1.7114317    0.0035062673
      3474.45       1.7176937    0.0035605783
      3477.92       1.7235244    0.0035602510
      3481.40       1.7263288    0.0035603306
      3484.88       1.7303694    0.0035014137
      3488.37       1.7344518    0.0034994059
      3491.86       1.7371954    0.0034977623
      3495.35       1.7405578    0.0034964722
      3498.84       1.7432775    0.0035504646
      3502.34       1.7468605    0.0035499436
      3505.84       1.7479176    0.0035497957
      3509.35       1.7494183    0.0035500169
      3512.86       1.7511058    0.0035506077
      3516.37       1.7488154    0.0035515734
      3519.89       1.7504199    0.0035413712
      3523.41       1.7483657    0.0035402143
      3526.93       1.7473775    0.0035394022
      3530.46       1.7469729    0.0035389351
      3533.99       1.7468806    0.0035387907
      3537.53       1.7466266    0.0035389802
      3541.06       1.7457677    0.0035972465
      3544.60       1.7454937    0.0035953842
      3548.15       1.7450183    0.0035938643
      3551.70       1.7459218    0.0035926767
      3555.25       1.7480420    0.0035280181
      3558.80       1.7496900    0.0035274353
      3562.36       1.7517662    0.0035271492
      3565.92       1.7543262    0.0035882634
      3569.49       1.7570911    0.0035859895
      3573.06       1.7619252    0.0035840267
      3576.64       1.7654020    0.0035823669
      3580.21       1.7704386    0.0035810031
      3583.79       1.7765295    0.0035799311
      3587.38       1.7816704    0.0035791438
      3590.96       1.7849754    0.0036386622
      3594.55       1.7894427    0.0036385906
      3598.15       1.7933022    0.0035751956
      3601.75       1.7977378    0.0035730049
      3605.35       1.8015351    0.0035710901
      3608.96       1.8055507    0.0035694299
      3612.56       1.8103124    0.0035680345
      3616.18       1.8148164    0.0036265053
      3619.79       1.8172820    0.0036256573
      3623.41       1.8194025    0.0036250662
      3627.04       1.8211367    0.0036247343
      3630.66       1.8243966    0.0036246549
      3634.29       1.8302165    0.0036248350
      3637.93       1.8362579    0.0036252557
      3641.57       1.8416130    0.0036865700
      3645.21       1.8475330    0.0036849206
      3648.86       1.8544820    0.0036835239
      3652.50       1.8617732    0.0036118715
      3656.16       1.8693086    0.0036109439
      3659.81       1.8768116    0.0036102322
      3663.47       1.8847885    0.0036097356
      3667.14       1.8925159    0.0036094557
      3670.80       1.8987326    0.0036761548
      3674.48       1.9075443    0.0036739126
      3678.15       1.9158146    0.0036718947
      3681.83       1.9226901    0.0036700940
      3685.51       1.9301598    0.0036685040
      3689.20       1.9350198    0.0036671172
      3692.88       1.9389573    0.0036659303
      3696.58       1.9421654    0.0036649329
      3700.27       1.9457078    0.0037297721
      3703.98       1.9462989    0.0037292344
      3707.68       1.9452876    0.0037288938
      3711.39       1.9458480    0.0037287621
      3715.10       1.9463359    0.0037287936
      3718.81       1.9465253    0.0037290143
      3722.53       1.9495636    0.0036539724
      3726.26       1.9501486    0.0036522035
      3729.98       1.9516819    0.0037157746
      3733.71       1.9552844    0.0037143143
      3737.45       1.9599984    0.0037130198
      3741.18       1.9649696    0.0037118864
      3744.93       1.9704175    0.0037109095
      3748.67       1.9766604    0.0037100816
      3752.42       1.9846739    0.0037094077
      3756.17       1.9929469    0.0037088674
      3759.93       2.0013622    0.0037084613
      3763.69       2.0094788    0.0037081965
      3767.45       2.0178408    0.0037804206
      3771.22       2.0243784    0.0037783126
      3774.99       2.0335996    0.0037763501
      3778.77       2.0422639    0.0037745284
      3782.54       2.0510043    0.0037728401
      3786.33       2.0607343    0.0037712829
      3790.11       2.0700097    0.0037698482
      3793.90       2.0798301    0.0037685321
      3797.70       2.0904155    0.0037673296
      3801.50       2.0998436    0.0038386662
      3805.30       2.1105024    0.0038377358
      3809.10       2.1224897    0.0038369093
      3812.91       2.1345942    0.0038361879
      3816.73       2.1480493    0.0038355668
      3820.54       2.1619519    0.0038350394
      3824.36       2.1751833    0.0038346126
      3828.19       2.1916232    0.0038342511
      3832.02       2.2060364    0.0038339838
      3835.85       2.2211727    0.0038338033
      3839.68       2.2342987    0.0038336727
      3843.52       2.2488876    0.0039088956
      3847.37       2.2617546    0.0039070700
      3851.22       2.2748124    0.0039053300
      3855.07       2.2863401    0.0039036784
      3858.92       2.2998256    0.0039021103
      3862.78       2.3134231    0.0039006072
      3866.64       2.3267322    0.0038991865
      3870.51       2.3376056    0.0038978249
      3874.38       2.3488815    0.0038965229
      3878.26       2.3617076    0.0038952788
      3882.13       2.3738488    0.0038940857
      3886.02       2.3842738    0.0038929343
      3889.90       2.3949909    0.0039729214
      3893.79       2.4065754    0.0039719143
      3897.69       2.4187194    0.0039709592
      3901.59       2.4280079    0.0039700286
      3905.49       2.4346521    0.0039691297
      3909.39       2.4401761    0.0039682713
      3913.30       2.4469573    0.0039674241
      3917.22       2.4543392    0.0039665928
      3921.13       2.4594824    0.0039657769
      3925.06       2.4643566    0.0039649657
      3928.98       2.4692336    0.0039641913
      3932.91       2.4753291    0.0039633866
      3936.84       2.4824026    0.0039625880
      3940.78       2.4883946    0.0040507465
      3944.72       2.4964051    0.0040479179
      3948.67       2.5035659    0.0040469015
      3952.61       2.5073821    0.0040450235
      3956.57       2.5121431    0.0040431915
      3960.52       2.5197253    0.0040413824
      3964.48       2.5290962    0.0040395905
      3968.45       2.5372337    0.0040378205
      3972.42       2.5454298    0.0040360699
      3976.39       2.5548344    0.0040343373
      3980.37       2.5614038    0.0040326168
      3984.35       2.5645607    0.0040309074
      3988.33       2.5673081    0.0040292076
      3992.32       2.5715398    0.0040275114
      3996.31       2.5776139    0.0040258317
      4000.31       2.5827478    0.0040241540
      4004.31       2.5872588    0.0041131350
      4008.31       2.5908347    0.0041114294
      4012.32       2.5950444    0.0041097217
      4016.33       2.5981275    0.0041080183
      4020.35       2.5994893    0.0041063113
      4024.37       2.6018195    0.0041045988
      4028.40       2.6025769    0.0041028875
      4032.42       2.6020889    0.0041011761
      4036.46       2.6039544    0.0040994426
      4040.50       2.6073710    0.0040979791
      4044.54       2.6103898    0.0040959969
      4048.58       2.6133079    0.0040942724
      4052.63       2.6153614    0.0040925415
      4056.68       2.6171312    0.0040908054
      4060.74       2.6172816    0.0040890661
      4064.80       2.6166402    0.0039972626
      4068.86       2.6174410    0.0039955634
      4072.93       2.6205448    0.0039938614
      4077.01       2.6223928    0.0039921866
      4081.08       2.6231932    0.0039904912
      4085.17       2.6234125    0.0039888218
      4089.25       2.6237039    0.0039871478
      4093.34       2.6248906    0.0039854884
      4097.43       2.6261176    0.0039838375
      4101.53       2.6276988    0.0039822032
      4105.63       2.6288842    0.0039805862
      4109.74       2.6308118    0.0039789861
      4113.85       2.6328815    0.0039774056
      4117.96       2.6371054    0.0039758454
      4122.08       2.6436485    0.0039743154
      4126.20       2.6501944    0.0039728094
      4130.33       2.6562553    0.0039713395
      4134.46       2.6638162    0.0039699057
      4138.59       2.6718549    0.0039685004
      4142.73       2.6784326    0.0039671499
      4146.88       2.6845671    0.0039658452
      4151.02       2.6931274    0.0040643138
      4155.18       2.6971461    0.0040614924
      4159.33       2.6996133    0.0040587070
      4163.49       2.7005799    0.0040559246
      4167.65       2.7018259    0.0040531676
      4171.82       2.7018141    0.0040504568
      4175.99       2.7007554    0.0040477595
      4180.17       2.6986557    0.0040451070
      4184.35       2.6940161    0.0040425012
      4188.54       2.6870030    0.0040399548
      4192.72       2.6814959    0.0039480404
      4196.92       2.6772215    0.0039457732
      4201.11       2.6698274    0.0039435680
      4205.31       2.6629360    0.0039414351
      4209.52       2.6579808    0.0039393811
      4213.73       2.6532490    0.0039373796
      4217.94       2.6473437    0.0039354929
      4222.16       2.6409425    0.0039336858
      4226.38       2.6363449    0.0039319735
      4230.61       2.6318757    0.0039303714
      4234.84       2.6270482    0.0039288776
      4239.08       2.6226343    0.0039274999
      4243.32       2.6192039    0.0039262526
      4247.56       2.6199350    0.0039251392
      4251.81       2.6201326    0.0039241641
      4256.06       2.6204306    0.0039233785
      4260.32       2.6208940    0.0039226940
      4264.58       2.6193770    0.0038253154
      4268.84       2.6184293    0.0038224292
      4273.11       2.6169262    0.0038196838
      4277.38       2.6132656    0.0039151216
      4281.66       2.6090153    0.0039125239
      4285.94       2.6063972    0.0039100564
      4290.23       2.6040146    0.0039077786
      4294.52       2.6004326    0.0039057194
      4298.81       2.5973728    0.0039038178
      4303.11       2.5957286    0.0039021158
      4307.42       2.5935766    0.0039006125
      4311.72       2.5912946    0.0038993414
      4316.04       2.5886720    0.0038982846
      4320.35       2.5874395    0.0038974469
      4324.67       2.5849465    0.0038054713
      4329.00       2.5846631    0.0038019427
      4333.33       2.5815262    0.0037986380
      4337.66       2.5770309    0.0037955423
      4342.00       2.5733796    0.0037927211
      4346.34       2.5704499    0.0037900567
      4350.69       2.5662572    0.0037876701
      4355.04       2.5632726    0.0038826276
      4359.39       2.5593695    0.0038806948
      4363.75       2.5557515    0.0038790601
      4368.12       2.5550840    0.0038777335
      4372.48       2.5563793    0.0037925908
      4376.86       2.5574149    0.0037881881
      4381.23       2.5601327    0.0037841040
      4385.61       2.5631266    0.0037803116
      4390.00       2.5649620    0.0037768359
      4394.39       2.5679211    0.0037736752
      4398.79       2.5715273    0.0037708356
      4403.18       2.5744192    0.0037683709
      4407.59       2.5765500    0.0037662300
      4412.00       2.5802354    0.0038609721
      4416.41       2.5825223    0.0037809329
      4420.82       2.5861063    0.0037756957
      4425.25       2.5907765    0.0037708507
      4429.67       2.5947010    0.0037663979
      4434.10       2.5971019    0.0037623567
      4438.54       2.6006800    0.0037587442
      4442.97       2.6025753    0.0037555306
      4447.42       2.6069446    0.0037527577
      4451.86       2.6117607    0.0037504192
      4456.32       2.6148357    0.0037485252
      4460.77       2.6162728    0.0036711002
      4465.24       2.6166333    0.0037595320
      4469.70       2.6135619    0.0037544066
      4474.17       2.6083703    0.0037497648
      4478.65       2.6028791    0.0037456278
      4483.12       2.5967992    0.0037420003
      4487.61       2.5908386    0.0037389022
      4492.09       2.5831269    0.0037363196
      4496.59       2.5776787    0.0036585432
      4501.08       2.5718873    0.0036570938
      4505.58       2.5663665    0.0036561298
      4510.09       2.5601865    0.0037398439
      4514.60       2.5552797    0.0037350127
      4519.12       2.5513096    0.0037307894
      4523.63       2.5491040    0.0037271806
      4528.16       2.5489606    0.0037241798
      4532.69       2.5508031    0.0036463046
      4537.22       2.5511112    0.0036446381
      4541.76       2.5520061    0.0036435354
      4546.30       2.5530039    0.0036430180
      4550.85       2.5528298    0.0037228538
      4555.40       2.5527723    0.0037183641
      4559.95       2.5529223    0.0037145938
      4564.51       2.5543600    0.0036361373
      4569.08       2.5562242    0.0036339428
      4573.65       2.5591134    0.0036323822
      4578.22       2.5595336    0.0036314709
      4582.80       2.5631453    0.0036312283
      4587.38       2.5666495    0.0037089874
      4591.97       2.5692825    0.0037046602
      4596.56       2.5723489    0.0036258894
      4601.16       2.5759475    0.0036233901
      4605.76       2.5784654    0.0036216052
      4610.37       2.5810115    0.0036205090
      4614.98       2.5836129    0.0036201964
      4619.59       2.5868974    0.0036206639
      4624.21       2.5913973    0.0036185697
      4628.84       2.5933214    0.0036152383
      4633.47       2.5955185    0.0036126919
      4638.10       2.5969097    0.0036109443
      4642.74       2.5983523    0.0036100025
      4647.38       2.6003638    0.0036098832
      4652.03       2.6018030    0.0036106308
      4656.68       2.6006205    0.0036077710
      4661.34       2.6009509    0.0036041403
      4666.00       2.6016943    0.0036018798
      4670.67       2.6032895    0.0036004947
      4675.33       2.6051423    0.0036000109
      4680.01       2.6065087    0.0036004486
      4684.69       2.6070074    0.0035170729
      4689.38       2.6097566    0.0035954990
      4694.07       2.6126142    0.0035929265
      4698.76       2.6163773    0.0035913154
      4703.46       2.6214622    0.0035906757
      4708.16       2.6280681    0.0035128848
      4712.87       2.6338311    0.0035084787
      4717.58       2.6382458    0.0035865664
      4722.30       2.6434419    0.0035839144
      4727.03       2.6483525    0.0035823005
      4731.75       2.6534880    0.0035817487
      4736.48       2.6567567    0.0035036985
      4741.22       2.6604374    0.0034992949
      4745.96       2.6639324    0.0034959273
      4750.71       2.6659459    0.0035747995
      4755.46       2.6686254    0.0035734685
      4760.22       2.6716343    0.0034989951
      4764.97       2.6756331    0.0034937909
      4769.74       2.6793314    0.0034896817
      4774.51       2.6840273    0.0034866779
      4779.29       2.6922576    0.0035657881
      4784.07       2.6993759    0.0034939970
      4788.85       2.7090074    0.0034881098
      4793.64       2.7195913    0.0034834067
      4798.43       2.7299306    0.0034798871
      4803.23       2.7402122    0.0035583979
      4808.03       2.7497638    0.0034884427
      4812.84       2.7611544    0.0034819707
      4817.66       2.7719437    0.0034768899
      4822.48       2.7823517    0.0034730156
      4827.30       2.7928283    0.0034704026
      4832.12       2.8046212    0.0034821074
      4836.96       2.8132235    0.0034753521
      4841.79       2.8216131    0.0034699708
      4846.63       2.8314082    0.0034659291
      4851.48       2.8404703    0.0034632222
      4856.33       2.8471861    0.0034749266
      4861.19       2.8543898    0.0034680406
      4866.05       2.8617195    0.0034626034
      4870.92       2.8691531    0.0034585884
      4875.79       2.8767561    0.0034559961
      4880.66       2.8837301    0.0034668812
      4885.55       2.8917556    0.0034600741
      4890.43       2.8988233    0.0034547861
      4895.32       2.9055789    0.0034510668
      4900.22       2.9132851    0.0033841114
      4905.12       2.9217354    0.0034580247
      4910.02       2.9288176    0.0034515815
      4914.94       2.9357377    0.0034467390
      4919.85       2.9446195    0.0033787784
      4924.77       2.9514459    0.0033771633
      4929.70       2.9567357    0.0034486224
      4934.62       2.9634785    0.0034427865
      4939.56       2.9685290    0.0034385968
      4944.50       2.9719521    0.0033715568
      4949.44       2.9745199    0.0033706622
      4954.39       2.9754783    0.0034389405
      4959.35       2.9774850    0.0034339474
      4964.31       2.9786467    0.0033662516
      4969.27       2.9807244    0.0033647874
      4974.24       2.9808135    0.0033648531
      4979.22       2.9825840    0.0034293456
      4984.20       2.9825210    0.0033610936
      4989.18       2.9833262    0.0033591603
      4994.17       2.9845744    0.0033588226
      4999.16       2.9844214    0.0034246287
      5004.16       2.9842050    0.0033559539
      5009.17       2.9838524    0.0033536740
      5014.18       2.9829419    0.0033530537
      5019.19       2.9814327    0.0033541244
      5024.21       2.9787681    0.0033507399
      5029.23       2.9746921    0.0033482433
      5034.26       2.9670836    0.0033474665
      5039.30       2.9593652    0.0033484487
      5044.34       2.9470227    0.0033454057
      5049.39       2.9367412    0.0033428235
      5054.43       2.9269758    0.0033420352
      5059.49       2.9152504    0.0033430746
      5064.55       2.9021359    0.0033399541
      5069.61       2.8900779    0.0033374175
      5074.68       2.8777994    0.0033367530
      5079.76       2.8667031    0.0032688560
      5084.84       2.8568143    0.0033343416
      5089.92       2.8470069    0.0033320234
      5095.01       2.8379712    0.0033316369
      5100.11       2.8304807    0.0032630269
      5105.21       2.8238573    0.0033286485
      5110.31       2.8157381    0.0033267196
      5115.42       2.8083454    0.0033267622
      5120.54       2.8005841    0.0032570466
      5125.66       2.7920822    0.0033229831
      5130.79       2.7821054    0.0033215570
      5135.92       2.7753533    0.0032556975
      5141.05       2.7655261    0.0032510201
      5146.20       2.7571622    0.0033174174
      5151.34       2.7470960    0.0033167147
      5156.49       2.7360310    0.0032490610
      5161.65       2.7255303    0.0032450874
      5166.81       2.7140095    0.0033121309
      5171.98       2.7032418    0.0032477234
      5177.15       2.6917934    0.0032424970
      5182.33       2.6804005    0.0033083084
      5187.51       2.6687277    0.0033072974
      5192.70       2.6571798    0.0032404339
      5197.89       2.6451212    0.0032362058
      5203.09       2.6319495    0.0033029272
      5208.29       2.6196148    0.0032387595
      5213.50       2.6066879    0.0032334645
      5218.72       2.5931050    0.0032304191
      5223.93       2.5789186    0.0032373692
      5229.16       2.5671173    0.0032310389
      5234.39       2.5563242    0.0032270466
      5239.62       2.5433524    0.0032361082
      5244.86       2.5345063    0.0032288098
      5250.11       2.5249683    0.0032239499
      5255.36       2.5157155    0.0032214554
      5260.61       2.5078619    0.0032267064
      5265.87       2.5009963    0.0032210342
      5271.14       2.4956994    0.0032178011
      5276.41       2.4913005    0.0032246352
      5281.69       2.4847954    0.0032182136
      5286.97       2.4792040    0.0032143228
      5292.26       2.4739827    0.0031567974
      5297.55       2.4692630    0.0032154075
      5302.85       2.4624969    0.0032109370
      5308.15       2.4548154    0.0031529759
      5313.46       2.4458167    0.0032125595
      5318.77       2.4369188    0.0032075822
      5324.09       2.4282322    0.0031492624
      5329.42       2.4182096    0.0032097148
      5334.75       2.4084989    0.0032042233
      5340.08       2.4005039    0.0031456192
      5345.42       2.3926559    0.0032065106
      5350.77       2.3832963    0.0032008052
      5356.12       2.3750693    0.0031420173
      5361.48       2.3679290    0.0031417902
      5366.83       2.3622518    0.0031973117
      5372.20       2.3542167    0.0031384375
      5377.58       2.3446399    0.0031380876
      5382.95       2.3342830    0.0031937234
      5388.34       2.3258889    0.0031348666
      5393.72       2.3191007    0.0031345710
      5399.12       2.3122937    0.0031900280
      5404.52       2.3057477    0.0031312991
      5409.92       2.2991481    0.0031311104
      5415.33       2.2957775    0.0031304148
      5420.75       2.2898615    0.0031277387
      5426.17       2.2848774    0.0031277551
      5431.60       2.2811168    0.0031266464
      5437.03       2.2757668    0.0031242123
      5442.47       2.2702289    0.0031245354
      5447.91       2.2639407    0.0031228304
      5453.36       2.2557292    0.0031207450
      5458.81       2.2473144    0.0031214742
      5464.27       2.2393751    0.0031190121
      5469.73       2.2273370    0.0031173762
      5475.20       2.2096459    0.0030590992
      5480.68       2.1915668    0.0031152293
      5486.16       2.1773210    0.0031141530
      5491.65       2.1620429    0.0030549216
      5497.14       2.1465478    0.0031115444
      5502.64       2.1318697    0.0031111409
      5508.14       2.1170381    0.0030507914
      5513.65       2.1017352    0.0031080152
      5519.16       2.0908602    0.0030514112
      5524.68       2.0778074    0.0031065468
      5530.20       2.0673353    0.0031047209
      5535.73       2.0561774    0.0030467387
      5541.27       2.0455069    0.0031026126
      5546.81       2.0348636    0.0031017487
      5552.36       2.0254728    0.0030422209
      5557.91       2.0173114    0.0030989682
      5563.47       2.0094894    0.0030428036
      5569.04       2.0006609    0.0030379668
      5574.60       1.9906666    0.0030957169
      5580.18       1.9800729    0.0030377680
      5585.76       1.9715815    0.0030340658
      5591.35       1.9649507    0.0030387116
      5596.94       1.9570420    0.0030330737
      5602.53       1.9495724    0.0030900478
      5608.14       1.9431950    0.0030331595
      5613.75       1.9376971    0.0030288552
      5619.36       1.9326970    0.0030342612
      5624.98       1.9303736    0.0030280850
      5630.60       1.9278394    0.0030252262
      5636.23       1.9266805    0.0030282593
      5641.87       1.9248204    0.0030236218
      5647.51       1.9255942    0.0030293023
      5653.16       1.9257060    0.0030228181
      5658.82       1.9261703    0.0030199037
      5664.47       1.9271884    0.0030229671
      5670.14       1.9258007    0.0030182933
      5675.81       1.9224390    0.0030237894
      5681.48       1.9201891    0.0030174374
      5687.17       1.9147937    0.0029653968
      5692.85       1.9101596    0.0030172607
      5698.55       1.9053237    0.0030128614
      5704.25       1.8989272    0.0030177316
      5709.95       1.8949680    0.0030117608
      5715.66       1.8908341    0.0029603019
      5721.38       1.8865988    0.0030112548
      5727.10       1.8813865    0.0029583389
      5732.83       1.8773339    0.0030112898
      5738.56       1.8744470    0.0030060178
      5744.30       1.8729117    0.0029554364
      5750.04       1.8717432    0.0030050860
      5755.79       1.8721810    0.0029531933
      5761.55       1.8729823    0.0030046027
      5767.31       1.8731405    0.0029515138
      5773.08       1.8729424    0.0029513075
      5778.85       1.8751921    0.0029508615
      5784.63       1.8759169    0.0029495666
      5790.41       1.8769872    0.0029991080
      5796.21       1.8746340    0.0029479866
      5802.00       1.8735601    0.0029998243
      5807.81       1.8720002    0.0029489060
      5813.61       1.8726597    0.0029505932
      5819.43       1.8728160    0.0029526643
      5825.25       1.8730146    0.0029534997
      5831.07       1.8743846    0.0029575532
      5836.90       1.8754279    0.0029578316
      5842.74       1.8786173    0.0030108568
      5848.58       1.8843875    0.0029595902
      5854.43       1.8898316    0.0029611007
      5860.29       1.8970840    0.0029590199
      5866.15       1.9031404    0.0029590654
      5872.01       1.9106587    0.0029565998
      5877.89       1.9143405    0.0029554216
      5883.76       1.9202594    0.0029539191
      5889.65       1.9247873    0.0029522277
      5895.54       1.9280770    0.0028987248
      5901.43       1.9304954    0.0029484291
      5907.34       1.9318327    0.0028950633
      5913.24       1.9313461    0.0029433935
      5919.16       1.9313446    0.0028904863
      5925.08       1.9322663    0.0029382554
      5931.00       1.9312886    0.0028855992
      5936.93       1.9316056    0.0029321415
      5942.87       1.9332145    0.0028807627
      5948.81       1.9323266    0.0029278929
      5954.76       1.9333542    0.0028772377
      5960.72       1.9333726    0.0028715171
      5966.68       1.9327616    0.0028735399
      5972.64       1.9322748    0.0028680274
      5978.62       1.9316504    0.0028712580
      5984.60       1.9304172    0.0028655936
      5990.58       1.9276304    0.0029159600
      5996.57       1.9276338    0.0028636046
      6002.57       1.9262165    0.0029138863
      6008.57       1.9275363    0.0028617934
      6014.58       1.9276845    0.0028662566
      6020.60       1.9274497    0.0028600533
      6026.62       1.9275265    0.0028648097
      6032.65       1.9280039    0.0028584217
      6038.68       1.9296523    0.0028632640
      6044.72       1.9276250    0.0028567750
      6050.76       1.9276548    0.0028616510
      6056.81       1.9256973    0.0028550897
      6062.87       1.9213730    0.0028599599
      6068.93       1.9191029    0.0028533840
      6075.00       1.9148463    0.0028581671
      6081.08       1.9106995    0.0028516429
      6087.16       1.9069667    0.0028059539
      6093.25       1.9030987    0.0028498843
      6099.34       1.8984271    0.0028043633
      6105.44       1.8936604    0.0028480972
      6111.54       1.8875370    0.0028028012
      6117.66       1.8825522    0.0028463020
      6123.78       1.8779713    0.0028012827
      6129.90       1.8716147    0.0028445034
      6136.03       1.8651743    0.0027998112
      6142.17       1.8594926    0.0028427054
      6148.31       1.8540313    0.0028460381
      6154.46       1.8470269    0.0027979590
      6160.61       1.8384094    0.0028450928
      6166.77       1.8321664    0.0027989187
      6172.94       1.8228545    0.0028442639
      6179.11       1.8133371    0.0027972031
      6185.29       1.8040741    0.0028442751
      6191.48       1.7943707    0.0028009770
      6197.67       1.7851916    0.0028509494
      6203.87       1.7747184    0.0028102986
      6210.07       1.7649250    0.0028622063
      6216.28       1.7557566    0.0028219000
      6222.50       1.7468226    0.0028293901
      6228.72       1.7386316    0.0028307967
      6234.95       1.7319731    0.0028333296
      6241.19       1.7247247    0.0028327789
      6247.42       1.7168189    0.0028290577
      6253.67       1.7093271    0.0028266682
      6259.93       1.7033376    0.0028181619
      6266.19       1.6972894    0.0028154615
      6272.46       1.6897248    0.0028064626
      6278.73       1.6830517    0.0027567659
      6285.01       1.6775055    0.0027999600
      6291.29       1.6696010    0.0027954872
      6297.58       1.6631634    0.0027927309
      6303.88       1.6552932    0.0027891535
      6310.19       1.6486151    0.0027881175
      6316.50       1.6423450    0.0027842079
      6322.81       1.6360263    0.0027376726
      6329.14       1.6305185    0.0027804252
      6335.47       1.6239640    0.0027334211
      6341.80       1.6170883    0.0027777628
      6348.14       1.6105684    0.0027765711
      6354.49       1.6035070    0.0027321557
      6360.85       1.5956659    0.0027747927
      6367.21       1.5866138    0.0027295480
      6373.57       1.5772835    0.0027737059
      6379.95       1.5667852    0.0027282729
      6386.33       1.5549371    0.0027327431
      6392.72       1.5436459    0.0027295778
      6399.11       1.5325954    0.0027342623
      6405.51       1.5210855    0.0027796686
      6411.92       1.5108838    0.0027355021
      6418.32       1.5008598    0.0027406056
      6424.74       1.4898931    0.0027362920
      6431.17       1.4788858    0.0027393147
      6437.60       1.4693459    0.0027358285
      6444.04       1.4591869    0.0027360622
      6450.48       1.4496117    0.0027380265
      6456.94       1.4392640    0.0027318355
      6463.39       1.4298379    0.0027326193
      6469.85       1.4213344    0.0027282997
      6476.33       1.4122807    0.0027288631
      6482.80       1.4030926    0.0027316556
      6489.28       1.3936588    0.0027258382
      6495.77       1.3833970    0.0027264412
      6502.27       1.3720111    0.0026825574
      6508.77       1.3610545    0.0027210972
      6515.28       1.3499930    0.0027228445
      6521.80       1.3404705    0.0027173842
      6528.32       1.3309209    0.0027171356
      6534.85       1.3219789    0.0026739422
      6541.38       1.3128404    0.0027120623
      6547.92       1.3044496    0.0027136375
      6554.47       1.2970320    0.0026701287
      6561.03       1.2909861    0.0027098946
      6567.59       1.2837080    0.0026687803
      6574.16       1.2774266    0.0026682712
      6580.73       1.2709412    0.0027088700
      6587.31       1.2639621    0.0026668285
      6593.90       1.2574810    0.0027059156
      6600.50       1.2496081    0.0026662921
      6607.10       1.2413067    0.0026651287
      6613.70       1.2329133    0.0027048045
      6620.32       1.2231366    0.0026644598
      6626.94       1.2127624    0.0026637376
      6633.57       1.2023422    0.0027037861
      6640.20       1.1935011    0.0026627835
      6646.84       1.1843843    0.0026624002
      6653.49       1.1759364    0.0026629459
      6660.14       1.1696611    0.0026612677
      6666.80       1.1628631    0.0026611082
      6673.47       1.1552533    0.0026612330
      6680.14       1.1476280    0.0026597513
      6686.82       1.1384987    0.0026598289
      6693.51       1.1276400    0.0026596619
      6700.20       1.1169122    0.0026583437
      6706.90       1.1049295    0.0026585450
      6713.61       1.0919249    0.0026582024
      6720.32       1.0780788    0.0026569853
      6727.05       1.0647870    0.0026156395
      6733.77       1.0500435    0.0026188578
      6740.51       1.0364424    0.0026616412
      6747.25       1.0245516    0.0026294655
      6754.00       1.0109365    0.0026313305
      6760.75      0.99545681    0.0026707748
      6767.51      0.97869004    0.0026348814
      6774.28      0.96356787    0.0026591205
      6781.05      0.94962894    0.0027183077
      6787.84      0.93381831    0.0027121167
      6794.62      0.91686813    0.0027615837
      6801.42      0.90038822    0.0028381543
      6808.22      0.88336513    0.0028324381
      6815.03      0.86561796    0.0028720571
      6821.85      0.84914811    0.0028958220
      6828.67      0.83485913    0.0028946374
      6835.50      0.82115591    0.0028860017
      6842.33      0.80855685    0.0028600149
      6849.17      0.79781916    0.0028376237
      6856.02      0.78921090    0.0027973513
      6862.88      0.78135889    0.0027623693
      6869.74      0.77392771    0.0027045272
      6876.61      0.76809785    0.0027309990
      6883.49      0.75819790    0.0027103600
      6890.37      0.74677095    0.0026907898
      6897.27      0.73569864    0.0026792697
      6904.16      0.72553293    0.0026695532
      6911.07      0.71388965    0.0026615521
      6917.98      0.70247237    0.0026166635
      6924.89      0.69132868    0.0026485194
      6931.82      0.68078803    0.0026470538
      6938.75      0.67246002    0.0026074596
      6945.69      0.66446607    0.0026065267
      6952.64      0.65777658    0.0026430241
      6959.59      0.65295833    0.0026425577
      6966.55      0.65043750    0.0026008982
      6973.52      0.64841937    0.0025970213
      6980.49      0.64659458    0.0026305633
      6987.47      0.64444293    0.0025908427
      6994.46      0.64296134    0.0025877034
      7001.46      0.64252488    0.0025853037
      7008.46      0.64168236    0.0026200001
      7015.46      0.63919921    0.0025804491
      7022.48      0.63735500    0.0025783790
      7029.51      0.63479046    0.0025780664
      7036.53      0.63274877    0.0025781048
      7043.57      0.63054301    0.0025796135
      7050.62      0.62814899    0.0025824844
      7057.66      0.62499794    0.0025868219
      7064.72      0.62139302    0.0025886032
      7071.79      0.61683919    0.0025952776
      7078.86      0.61152874    0.0026082680
      7085.94      0.60748973    0.0026300533
      7093.03      0.60502118    0.0026438531
      7100.12      0.60331021    0.0026766057
      7107.22      0.60126385    0.0027109605
      7114.33      0.60055573    0.0026913053
      7121.44      0.59859235    0.0027110133
      7128.56      0.59732972    0.0027619300
      7135.69      0.59791240    0.0027675429
      7142.83      0.59882005    0.0027248955
      7149.97      0.59989271    0.0027212385
      7157.12      0.60206895    0.0027559325
      7164.28      0.60504264    0.0027480644
      7171.44      0.60860569    0.0027455195
      7178.62      0.61025667    0.0027068233
      7185.80      0.61209634    0.0027115175
      7192.98      0.61366223    0.0027516799
      7200.17      0.61408939    0.0027510112
      7207.38      0.61547118    0.0027076839
      7214.58      0.61695837    0.0026981449
      7221.80      0.62038978    0.0026850180
      7229.02      0.62348538    0.0027137810
      7236.25      0.62654931    0.0026629895
      7243.49      0.63052841    0.0026510108
      7250.73      0.63450313    0.0026363474
      7257.98      0.63812102    0.0026210545
      7265.24      0.64239759    0.0026073079
      7272.51      0.64624578    0.0025951881
      7279.78      0.65055484    0.0025838250
      7287.06      0.65445924    0.0025743089
      7294.35      0.65838032    0.0025672680
      7301.64      0.66163424    0.0025264090
      7308.94      0.66477339    0.0025555700
      7316.25      0.66709242    0.0025514421
      7323.57      0.66941202    0.0025472335
      7330.89      0.67129817    0.0025431658
      7338.22      0.67295824    0.0025047520
      7345.56      0.67516707    0.0025009381
      7352.91      0.67685992    0.0025312751
      7360.26      0.67755828    0.0025295492
      7367.62      0.67648981    0.0025286526
      7374.99      0.67624708    0.0024932120
      7382.37      0.67647654    0.0024914952
      7389.75      0.67621076    0.0024905534
      7397.14      0.67566444    0.0024902682
      7404.53      0.67531653    0.0025230014
      7411.94      0.67521146    0.0025235084
      7419.35      0.67593582    0.0024890451
      7426.77      0.67567776    0.0024887524
      7434.20      0.67551736    0.0024887870
      7441.63      0.67582677    0.0024895098
      7449.07      0.67668902    0.0024958666
      7456.52      0.67730625    0.0025049644
      7463.98      0.67771789    0.0025362492
      7471.45      0.67897763    0.0025634729
      7478.92      0.68142316    0.0025566467
      7486.40      0.68328918    0.0025595118
      7493.88      0.68429691    0.0026107321
      7501.38      0.68484219    0.0026559990
      7508.88      0.68515855    0.0027858084
      7516.39      0.68650049    0.0029237491
      7523.91      0.68771948    0.0031172941
      7531.43      0.68842854    0.0033344314
      7538.96      0.68824053    0.0035521790
      7546.50      0.68876570    0.0037340291
      7554.05      0.69031888    0.0037354631
      7561.60      0.69122070    0.0037510508
      7569.16      0.68960904    0.0036658228
      7576.73      0.68923187    0.0036299941
      7584.31      0.69008391    0.0034272523
      7591.89      0.69140734    0.0032158289
      7599.49      0.69193463    0.0030277798
      7607.09      0.69231380    0.0028702686
      7614.70      0.69396600    0.0027621596
      7622.31      0.69532077    0.0026671745
      7629.93      0.69623003    0.0026018110
      7637.56      0.69704638    0.0025686021
      7645.20      0.69785034    0.0025416036
      7652.85      0.69930635    0.0025168170
      7660.50      0.70071346    0.0025013277
      7668.16      0.70189393    0.0024846782
      7675.83      0.70304181    0.0024737870
      7683.50      0.70421910    0.0024672724
      7691.19      0.70615870    0.0024638100
      7698.88      0.70853523    0.0024622173
      7706.58      0.71009277    0.0024616255
      7714.29      0.71114123    0.0024617296
      7722.00      0.71302031    0.0024624399
      7729.73      0.71532304    0.0024297892
      7737.45      0.71748246    0.0024300765
      7745.19      0.71900988    0.0024305578
      7752.94      0.72087694    0.0024312122
      7760.69      0.72348588    0.0024318355
      7768.45      0.72541538    0.0024625963
      7776.22      0.72695200    0.0024639856
      7784.00      0.72929068    0.0024659896
      7791.78      0.73181353    0.0024683699
      7799.57      0.73446382    0.0024711550
      7807.37      0.73627232    0.0024744219
      7815.18      0.73872770    0.0024448469
      7822.99      0.74150646    0.0024471583
      7830.82      0.74469940    0.0024483164
      7838.65      0.74757569    0.0024489904
      7846.49      0.74986038    0.0024495044
      7854.34      0.75210934    0.0024499246
      7862.19      0.75435400    0.0024502489
      7870.05      0.75596292    0.0024504326
      7877.93      0.75756370    0.0024506802
      7885.80      0.75862955    0.0024512675
      7893.69      0.75981527    0.0024523639
      7901.58      0.76071003    0.0024537183
      7909.49      0.76105328    0.0024549192
      7917.40      0.76110955    0.0024562126
      7925.31      0.76219395    0.0024247653
      7933.24      0.76374017    0.0024256139
      7941.17      0.76436515    0.0024258642
      7949.11      0.76462485    0.0024258156
      7957.06      0.76526676    0.0024260545
      7965.02      0.76688647    0.0024266309
      7972.98      0.76841588    0.0024269687
      7980.96      0.76951469    0.0024273795
      7988.94      0.77013143    0.0024288286
      7996.93      0.77069298    0.0024313515
      8004.93      0.77160318    0.0024356874
      8012.93      0.77148303    0.0024423899
      8020.95      0.76954756    0.0024509361
      8028.97      0.76710856    0.0024625307
      8036.99      0.76454629    0.0024785703
      8045.03      0.76121918    0.0024988849
      8053.08      0.75651939    0.0025219425
      8061.13      0.75139030    0.0025467312
      8069.20      0.74721694    0.0025738482
      8077.26      0.74499239    0.0026010450
      8085.34      0.74252778    0.0026198607
      8093.43      0.73797661    0.0026269401
      8101.52      0.73370692    0.0026297380
      8109.62      0.73083704    0.0026310379
      8117.73      0.72895092    0.0026296703
      8125.85      0.72799048    0.0026265614
      8133.98      0.72689586    0.0026215165
      8142.11      0.72559355    0.0026144949
      8150.25      0.72444498    0.0026070319
      8158.41      0.72359887    0.0026012671
      8166.56      0.72221961    0.0025974091
      8174.73      0.71999115    0.0025926855
      8182.91      0.71712731    0.0025860174
      8191.09      0.71461432    0.0025787086
      8199.28      0.71141830    0.0025704373
      8207.48      0.70912188    0.0025617191
      8215.69      0.70676073    0.0025543954
      8223.91      0.70491223    0.0025523399
      8232.13      0.70362686    0.0025207597
      8240.36      0.70036926    0.0025144398
      8248.60      0.69694997    0.0025016441
      8256.85      0.69520146    0.0024899316
      8265.11      0.69370514    0.0024799266
      8273.37      0.69169804    0.0024706473
      8281.65      0.68985226    0.0024633459
      8289.93      0.68731352    0.0024565616
      8298.22      0.68491261    0.0024493459
      8306.52      0.68427421    0.0024429783
      8314.83      0.68357700    0.0024381006
      8323.14      0.68140588    0.0024347859
      8331.46      0.67909335    0.0024322175
      8339.80      0.67671963    0.0024295968
      8348.13      0.67525889    0.0023978321
      8356.48      0.67395252    0.0023958375
      8364.84      0.67280278    0.0023946392
      8373.21      0.66982042    0.0023938166
      8381.58      0.66706057    0.0023933532
      8389.96      0.66547074    0.0023932458
      8398.35      0.66401388    0.0024237173
      8406.75      0.66298816    0.0024242607
      8415.16      0.66170592    0.0024251289
      8423.57      0.65925897    0.0024260768
      8432.00      0.65608375    0.0023993556
      8440.43      0.65441522    0.0023996826
      8448.87      0.65381256    0.0023998374
      8457.32      0.65331834    0.0023997520
      8465.78      0.65262013    0.0023995891
      8474.25      0.65033290    0.0023993916
      8482.72      0.64735848    0.0023991961
      8491.20      0.64538664    0.0023991361
      8499.69      0.64377239    0.0023993070
      8508.19      0.64300495    0.0023730276
      8516.70      0.64041230    0.0024026731
      8525.22      0.63636507    0.0024022910
      8533.75      0.63228407    0.0024022740
      8542.28      0.63018494    0.0024027046
      8550.82      0.62870051    0.0024034012
      8559.37      0.62601407    0.0024041186
      8567.93      0.62199752    0.0023783686
      8576.50      0.61867924    0.0023793554
      8585.08      0.61605115    0.0023803940
      8593.66      0.61388522    0.0023814364
      8602.26      0.61324783    0.0024107773
      8610.86      0.61218867    0.0024108889
      8619.47      0.60959445    0.0024110292
      8628.09      0.60731751    0.0023844918
      8636.72      0.60693611    0.0023848658
      8645.36      0.60619441    0.0023854559
      8654.00      0.60481655    0.0023862818
      8662.66      0.60291419    0.0023874353
      8671.32      0.60175904    0.0023888927
      8679.99      0.60073243    0.0023902157
      8688.67      0.59868402    0.0023910583
      8697.36      0.59663790    0.0023922563
      8706.06      0.59520169    0.0023935436
      8714.76      0.59355922    0.0023949943
      8723.48      0.59197170    0.0023690593
      8732.21      0.59024354    0.0023697769
      8740.93      0.58952297    0.0023997861
      8749.68      0.58860088    0.0024009717
      8758.43      0.58663861    0.0024024945
      8767.19      0.58519876    0.0024044897
      8775.96      0.58483745    0.0023792595
      8784.73      0.58394592    0.0023811248
      8793.52      0.58297312    0.0023841720
      8802.31      0.58249484    0.0024184489
      8811.11      0.57977258    0.0024233085
      8819.92      0.57794954    0.0024048622
      8828.75      0.57684592    0.0024149958
      8837.57      0.57524027    0.0024272057
      8846.41      0.57279578    0.0024437106
      8855.26      0.56793217    0.0024999023
      8864.12      0.56481686    0.0025097955
      8872.98      0.56316352    0.0025400611
      8881.85      0.56141336    0.0025728284
      8890.73      0.55905056    0.0026058524
      8899.63      0.55698924    0.0026116234
      8908.52      0.55613921    0.0026712041
      8917.43      0.55591168    0.0026797841
      8926.35      0.55582152    0.0026782081
      8935.28      0.55668462    0.0026395192
      8944.22      0.55721269    0.0026280138
      8953.16      0.55729824    0.0026419001
      8962.11      0.55725342    0.0026354476
      8971.08      0.55802801    0.0026342823
      8980.05      0.55905595    0.0026094238
      8989.03      0.55990749    0.0026172895
      8998.02      0.55926756    0.0026650922
      9007.02      0.55647638    0.0026772953
      9016.02      0.55513385    0.0026622051
      9025.04      0.55458280    0.0026717829
      9034.07      0.55459011    0.0026781925
      9043.10      0.55327316    0.0027100202
      9052.14      0.55103559    0.0026809780
      9061.20      0.55018899    0.0026792449
      9070.26      0.55154371    0.0026768186
      9079.33      0.55504257    0.0026680507
      9088.41      0.55605323    0.0026545507
      9097.50      0.55573898    0.0026379519
      9106.60      0.55560180    0.0026222960
      9115.70      0.55702815    0.0025753515
      9124.82      0.55927783    0.0025901096
      9133.94      0.56130306    0.0025842305
      9143.08      0.56237665    0.0025574402
      9152.22      0.56235059    0.0025626515
      9161.37      0.56195250    0.0026108953
      9170.54      0.56102088    0.0026368429
      9179.71      0.55912761    0.0026578720
      9188.89      0.55668231    0.0027141197
      9198.08      0.55285494    0.0028331363
      9207.28      0.54887415    0.0029470342
      9216.48      0.54442741    0.0030733453
      9225.70      0.53989595    0.0032183546
      9234.92      0.53465647    0.0034566109
      9244.16      0.53094799    0.0036101752
      9253.40      0.52865145    0.0037469257
      9262.66      0.52547929    0.0039346252
      9271.92      0.52623219    0.0039272761
      9281.20      0.52565800    0.0039155640
      9290.48      0.52564117    0.0038707588
      9299.77      0.52626309    0.0037655857
      9309.07      0.52906163    0.0036910515
      9318.38      0.53237555    0.0036315646
      9327.69      0.53561242    0.0035614083
      9337.02      0.53683181    0.0035784006
      9346.36      0.53749112    0.0035909661
      9355.71      0.53772153    0.0035753741
      9365.07      0.53805974    0.0036401685
      9374.43      0.53938427    0.0036557865
      9383.80      0.53985029    0.0036188517
      9393.19      0.53909580    0.0036300073
      9402.58      0.53943329    0.0035894940
      9411.98      0.54129099    0.0035210025
      9421.40      0.54303056    0.0034997645
      9430.82      0.54529606    0.0034595612
      9440.25      0.54641597    0.0034365092
      9449.69      0.54821864    0.0034154338
      9459.14      0.55084638    0.0033761011
      9468.60      0.55351982    0.0033499577
      9478.07      0.55522600    0.0033205878
      9487.55      0.55755307    0.0032725305
      9497.04      0.55942598    0.0032372746
      9506.53      0.56142528    0.0031551334
      9516.04      0.56141810    0.0030740169
      9525.56      0.56204274    0.0029954503
      9535.08      0.56526078    0.0029577296
      9544.62      0.57032044    0.0028787707
      9554.16      0.57270096    0.0027958323
      9563.72      0.57286598    0.0027526708
      9573.29      0.57148400    0.0026780494
      9582.85      0.57302373    0.0026027918
      9592.44      0.57472080    0.0025404721
      9602.03      0.57547307    0.0025148810
      9611.63      0.57535226    0.0024706419
      9621.25      0.57691361    0.0024320136
      9630.87      0.57757567    0.0023998599
      9640.50      0.57725550    0.0023910882
      9650.14      0.57739625    0.0023655962
      9659.79      0.57850187    0.0023433816
      9669.45      0.57870165    0.0023191035
      9679.12      0.57775894    0.0023160510
      9688.80      0.57645738    0.0022908027
      9698.49      0.57738760    0.0022631438
      9708.19      0.57907423    0.0022336685
      9717.90      0.57891322    0.0022028725
      9727.62      0.57857621    0.0021916553
      9737.34      0.57867206    0.0021612510
      9747.08      0.57838008    0.0021347758
      9756.83      0.57761112    0.0021084294
      9766.59      0.57763937    0.0021013136
      9776.35      0.57802208    0.0020803198
      9786.13      0.57737774    0.0020597771
      9795.92      0.57581265    0.0020414276
      9805.71      0.57608027    0.0020232972
      9815.52      0.57671046    0.0020061701
      9825.34      0.57735016    0.0020164311
      9835.17      0.57747189    0.0020009376
      9845.00      0.57793062    0.0019874524
      9854.84      0.57727085    0.0019738892
      9864.70      0.57715229    0.0019609836
      9874.56      0.57822257    0.0019600731
      9884.44      0.57874806    0.0019479509
      9894.32      0.57830558    0.0019365225
      9904.22      0.57911609    0.0019253224
      9914.13      0.57985288    0.0019144629
      9924.04      0.58126915    0.0019038240
      9933.96      0.58354188    0.0018935454
      9943.90      0.58450579    0.0018944136
      9953.84      0.58587055    0.0018848316
      9963.79      0.58774372    0.0018748453
      9973.76      0.58889822    0.0018655970
      9983.74      0.59126649    0.0018561501
      9993.72      0.59336708    0.0018583936
