# starting wavelength =        3325.6352
# ending wavelength =        10261.441
# O2 telluric scale =        0
# O2 telluric shift =        0
# H2O telluric scale =        0
# H2O telluric shift =        0
      3328.28      0.67000488      0.29921986
      3331.61      0.65756463      0.25894761
      3334.94      0.64664421      0.20424370
      3338.27      0.70721951      0.19482433
      3341.61      0.75209728      0.16131209
      3344.95      0.78792382      0.15612761
      3348.30      0.82281230      0.14216975
      3351.65      0.81171170      0.12629247
      3355.00      0.79464667      0.12370911
      3358.35      0.78773240      0.11399117
      3361.71      0.76068585      0.11202917
      3365.07      0.76906003      0.10820128
      3368.44      0.81131607      0.10358166
      3371.81      0.85543216      0.10192979
      3375.18      0.88710111     0.098810749
      3378.56      0.87018214     0.097301273
      3381.94      0.86823146     0.096493197
      3385.32      0.88205675     0.094777499
      3388.70      0.85946671     0.093321028
      3392.09      0.74662090     0.093574357
      3395.48      0.78601119     0.093840942
      3398.88      0.73919941     0.095389377
      3402.28      0.80700137     0.095601085
      3405.68      0.75706871     0.094113683
      3409.09      0.69149502     0.094346073
      3412.49      0.60461174     0.094590424
      3415.91      0.59967343     0.096232029
      3419.32      0.62588452     0.096421799
      3422.74      0.69179490     0.096623635
      3426.17      0.69639099     0.096837403
      3429.59      0.73300367     0.095333663
      3433.02      0.67990380     0.095566334
      3436.45      0.71935058     0.097247004
      3439.89      0.81687937     0.097425310
      3443.33      0.94310856     0.097614996
      3446.78       1.0290425     0.097815891
      3450.22       1.0635561     0.098027943
      3453.67       1.1469568     0.099680688
      3457.13       1.1482860     0.098239064
      3460.58       1.1887070     0.098403654
      3464.04       1.1445903     0.098579083
      3467.51       1.1086018     0.098765046
      3470.98       1.0982288     0.098961413
      3474.45       1.0880159      0.10061251
      3477.92       1.0877365      0.10083661
      3481.40       1.1028168      0.10107206
      3484.88       1.0848112      0.10131897
      3488.37      0.98844034     0.099690796
      3491.86      0.96919466     0.099869672
      3495.35      0.95031324      0.10151735
      3498.84      0.87441132      0.10172092
      3502.34      0.76386221      0.10193500
      3505.84      0.69884924      0.10215959
      3509.35      0.56685141      0.10239467
      3512.86      0.49547082      0.10264026
      3516.37      0.45947051      0.10436912
      3519.89      0.50595675      0.10258525
      3523.41      0.54557900      0.10277632
      3526.93      0.56203078      0.10297713
      3530.46      0.67227182      0.10318743
      3533.99      0.73227767      0.10340723
      3537.53      0.78130905      0.10526215
      3541.06      0.82701596      0.10542151
      3544.60      0.84645573      0.10559058
      3548.15      0.84759457      0.10576917
      3551.70      0.86617215      0.10595713
      3555.25      0.86190388      0.10416102
      3558.80      0.96433739      0.10436260
      3562.36       1.0221728      0.10629673
      3565.92       1.0928695      0.10643892
      3569.49       1.1666410      0.10659006
      3573.06       1.1566965      0.10674983
      3576.64       1.1249273      0.10691806
      3580.21       1.0907705      0.10709461
      3583.79       1.0945498      0.10897401
      3587.38       1.0455941      0.10917440
      3590.96       1.0161367      0.10938390
      3594.55      0.98947518      0.10756401
      3598.15      0.89950275      0.10770260
      3601.75      0.76925193      0.10784887
      3605.35      0.71592616      0.10800262
      3608.96      0.70712322      0.10987231
      3612.56      0.68581855      0.11004596
      3616.18      0.67100286      0.11022756
      3619.79      0.69894273      0.11041708
      3623.41      0.73231622      0.11061465
      3627.04      0.81774503      0.11081975
      3630.66      0.86219215      0.11103248
      3634.29      0.89869267      0.11301963
      3637.93      0.91899356      0.11316706
      3641.57      0.96571448      0.11105523
      3645.21       1.0050045      0.11121450
      3648.86      0.99114729      0.11138054
      3652.50      0.98790432      0.11155344
      3656.16      0.98734073      0.11173274
      3659.81      0.96420895      0.11191845
      3663.47       1.0217401      0.11405042
      3667.14       1.1083856      0.11417358
      3670.80       1.2173988      0.11430340
      3674.48       1.2730653      0.11443970
      3678.15       1.2470620      0.11458227
      3681.83       1.1990239      0.11473105
      3685.51       1.1510720      0.11488572
      3689.20       1.1251791      0.11701759
      3692.88       1.1192312      0.11719153
      3696.58       1.1321346      0.11737168
      3700.27       1.0885094      0.11755809
      3703.98       1.0513065      0.11538148
      3707.68      0.97012978      0.11549502
      3711.39      0.99147429      0.11561376
      3715.10       1.0355337      0.11573764
      3718.81      0.99981715      0.11586634
      3722.53       1.0067142      0.11798659
      3726.26      0.98371259      0.11812955
      3729.98      0.94065633      0.11827760
      3733.71      0.93814544      0.11843084
      3737.45      0.96272385      0.11858869
      3741.18       1.0304432      0.11875117
      3744.93       1.0678032      0.11891816
      3748.67       1.0757012      0.11908953
      3752.42       1.0673222      0.12142475
      3756.17       1.0760989      0.12153211
      3759.93       1.0635540      0.12164413
      3763.69       1.0452658      0.12176060
      3767.45       1.0308125      0.12188134
      3771.22      0.97248835      0.12200614
      3774.99      0.90927911      0.12213483
      3778.77      0.88101985      0.12226724
      3782.54      0.89056745      0.12240345
      3786.33      0.89166836      0.12482833
      3790.11      0.88744302      0.12497880
      3793.90      0.87537657      0.12260264
      3797.70      0.90771089      0.12268363
      3801.50      0.87560251      0.12276810
      3805.30      0.83727090      0.12285576
      3809.10      0.84035078      0.12294668
      3812.91      0.89478771      0.12304050
      3816.73      0.88955620      0.12313705
      3820.54      0.89056882      0.12323619
      3824.36      0.88079499      0.12562936
      3828.19      0.93433911      0.12573681
      3832.02       1.0450233      0.12584680
      3835.85       1.1828608      0.12595934
      3839.68       1.2437205      0.12607392
      3843.52       1.2715566      0.12619056
      3847.37       1.3240163      0.12630907
      3851.22       1.3704494      0.12642930
      3855.07       1.3703684      0.12655144
      3858.92       1.4220642      0.12667470
      3862.78       1.4319376      0.12679923
      3866.64       1.4119436      0.12961553
      3870.51       1.4380460      0.12968534
      3874.38       1.4589983      0.12975716
      3878.26       1.4385351      0.12983062
      3882.13       1.3698231      0.12990585
      3886.02       1.2992994      0.12998253
      3889.90       1.2297552      0.13006052
      3893.79       1.1301784      0.13013963
      3897.69       1.0449106      0.13021978
      3901.59       1.0020574      0.13030077
      3905.49      0.98013146      0.13038247
      3909.39      0.96350613      0.13310512
      3913.30      0.98277177      0.13319131
      3917.22       1.0248930      0.13327801
      3921.13       1.0914936      0.13336507
      3925.06       1.1966948      0.13345235
      3928.98       1.2049821      0.13353998
      3932.91       1.2723925      0.13362730
      3936.84       1.3537290      0.13371439
      3940.78       1.4303965      0.13380155
      3944.72       1.4878683      0.13388788
      3948.67       1.5023059      0.13397368
      3952.61       1.4710784      0.13405917
      3956.57       1.4250773      0.13414343
      3960.52       1.4210818      0.13422678
      3964.48       1.3914409      0.13762013
      3968.45       1.3679608      0.13766644
      3972.42       1.3391334      0.13771274
      3976.39       1.2872645      0.13775957
      3980.37       1.2768639      0.13780651
      3984.35       1.2811410      0.13785313
      3988.33       1.3316519      0.14143725
      3992.32       1.3987066      0.14151765
      3996.31       1.4354273      0.14159577
      4000.31       1.4789974      0.14167185
      4004.31       1.5691234      0.14174658
      4008.31       1.6015039      0.14181808
      4012.32       1.6007529      0.14188720
      4016.33       1.5583729      0.14195467
      4020.35       1.5581226      0.14201872
      4024.37       1.5184898      0.14208018
      4028.40       1.4780355      0.14213982
      4032.42       1.4731845      0.14219582
      4036.46       1.4827986      0.14224897
      4040.50       1.5238060      0.14229922
      4044.54       1.5044792      0.14234666
      4048.58       1.4734623      0.14239220
      4052.63       1.4521720      0.14243372
      4056.68       1.4565110      0.14247242
      4060.74       1.4459573      0.14250911
      4064.80       1.4454623      0.14254183
      4068.86       1.4357049      0.14257154
      4072.93       1.4074115      0.14259838
      4077.01       1.4182024      0.14262226
      4081.08       1.4466461      0.14264417
      4085.17       1.3941626      0.14266231
      4089.25       1.2680192      0.14267760
      4093.34       1.1683059      0.14269101
      4097.43       1.1648135      0.14270083
      4101.53       1.1773706      0.14270795
      4105.63       1.1999470      0.14271234
      4109.74       1.2005752      0.14271428
      4113.85       1.1924480      0.14271483
      4117.96       1.2071423      0.14271190
      4122.08       1.2320086      0.14270678
      4126.20       1.2828837      0.14270029
      4130.33       1.3285222      0.14269087
      4134.46       1.3730952      0.14267943
      4138.59       1.4034939      0.14266702
      4142.73       1.4652790      0.14265197
      4146.88       1.5420447      0.14263540
      4151.02       1.6008580      0.14261743
      4155.18       1.6354389      0.14259809
      4159.33       1.5969058      0.14257819
      4163.49       1.5263539      0.14255663
      4167.65       1.4911744      0.14253427
      4171.82       1.4762077      0.14251174
      4175.99       1.5148966      0.14248799
      4180.17       1.5439339      0.14246394
      4184.35       1.5690726      0.14243968
      4188.54       1.5845354      0.14241537
      4192.72       1.5933267      0.14239169
      4196.92       1.6294294      0.13924548
      4201.11       1.6377343      0.13922494
      4205.31       1.6293810      0.13920517
      4209.52       1.6324091      0.13918585
      4213.73       1.6364269      0.13916745
      4217.94       1.6124341      0.13915028
      4222.16       1.5980117      0.13913422
      4226.38       1.5786622      0.13911967
      4230.61       1.5578028      0.13910684
      4234.84       1.4997140      0.13909592
      4239.08       1.4524652      0.13908711
      4243.32       1.4667249      0.13908070
      4247.56       1.5171878      0.13907693
      4251.81       1.5349380      0.13907584
      4256.06       1.5523513      0.13907810
      4260.32       1.5809318      0.13908374
      4264.58       1.6161717      0.13909305
      4268.84       1.6430453      0.13910639
      4273.11       1.6874288      0.13912353
      4277.38       1.7095149      0.13559659
      4281.66       1.7553721      0.13903484
      4285.94       1.7824350      0.13897257
      4290.23       1.8323878      0.13891362
      4294.52       1.8501539      0.13885862
      4298.81       1.8115750      0.13880803
      4303.11       1.7800794      0.13876173
      4307.42       1.7904501      0.13872025
      4311.72       1.8313301      0.13868386
      4316.04       1.8376492      0.13865293
      4320.35       1.8706138      0.13862765
      4324.67       1.9327177      0.13860856
      4329.00       1.9811775      0.13859592
      4333.33       1.9810591      0.13858989
      4337.66       1.9814880      0.13528552
      4342.00       2.0326756      0.13518371
      4346.34       2.0290121      0.13508786
      4350.69       2.0439508      0.13499822
      4355.04       2.0873218      0.13491544
      4359.39       2.0829080      0.13483906
      4363.75       2.1022136      0.13823308
      4368.12       2.0516877      0.13816809
      4372.48       2.0348046      0.13811141
      4376.86       2.0231333      0.13806359
      4381.23       1.9479902      0.13802503
      4385.61       1.8910531      0.13799610
      4390.00       1.8483794      0.13484354
      4394.39       1.7944514      0.13470498
      4398.79       1.7654652      0.13457572
      4403.18       1.7918581      0.13445626
      4407.59       1.8545362      0.13434606
      4412.00       1.8917537      0.13424577
      4416.41       1.8966325      0.13415608
      4420.82       1.9384828      0.13407669
      4425.25       2.0263821      0.13744317
      4429.67       2.0307607      0.13738421
      4434.10       2.0693542      0.13442488
      4438.54       2.1689196      0.13424626
      4442.97       2.1979944      0.13407912
      4447.42       2.2285963      0.13392464
      4451.86       2.2988946      0.13378354
      4456.32       2.3414418      0.13365501
      4460.77       2.3523961      0.13353984
      4465.24       2.3263799      0.13343845
      4469.70       2.3127089      0.13335121
      4474.17       2.3304569      0.13056766
      4478.65       2.3509005      0.13376525
      4483.12       2.4117065      0.13355940
      4487.61       2.4968670      0.13337028
      4492.09       2.5546032      0.13319654
      4496.59       2.5887241      0.13303932
      4501.08       2.6445054      0.13289894
      4505.58       2.7136055      0.13277502
      4510.09       2.7680866      0.13266830
      4514.60       2.8299730      0.12987839
      4519.12       2.9096566      0.12980795
      4523.63       3.0514642      0.13285427
      4528.16       3.1112548      0.13264297
      4532.69       3.2110354      0.13245138
      4537.22       3.3669443      0.13228015
      4541.76       3.4438412      0.13212836
      4546.30       3.5008242      0.13199679
      4550.85       3.5971069      0.12919469
      4555.40       3.6917637      0.12910713
      4559.95       3.8097010      0.12903809
      4564.51       3.9254939      0.13195774
      4569.08       3.9232154      0.13174333
      4573.65       3.9401940      0.13155267
      4578.22       3.9081456      0.13138487
      4582.80       3.8425998      0.12855566
      4587.38       3.7706734      0.12844097
      4591.97       3.6408759      0.12834713
      4596.56       3.4853964      0.12827478
      4601.16       3.3440252      0.12822454
      4605.76       3.1431834      0.13090632
      4610.37       2.9472830      0.13071091
      4614.98       2.7624881      0.12786472
      4619.59       2.6301315      0.12773039
      4624.21       2.5114707      0.12761970
      4628.84       2.3690892      0.12753298
      4633.47       2.2304660      0.12747097
      4638.10       2.1531187      0.12743441
      4642.74       2.1380023      0.12995595
      4647.38       2.1224246      0.12710776
      4652.03       2.0892947      0.12696319
      4656.68       2.0532314      0.12684505
      4661.34       2.0690037      0.12675372
      4666.00       2.0812377      0.12668987
      4670.67       2.0723231      0.12665441
      4675.33       2.0596132      0.12645561
      4680.01       2.0514447      0.12628279
      4684.69       2.0305094      0.12613902
      4689.38       2.0147838      0.12602459
      4694.07       1.9827129      0.12594005
      4698.76       1.9766835      0.12588589
      4703.46       1.9688794      0.12292081
      4708.16       1.9761298      0.12556236
      4712.87       1.9736011      0.12540035
      4717.58       1.9809218      0.12526965
      4722.30       1.9404141      0.12517162
      4727.03       1.9051384      0.12510678
      4731.75       1.9303383      0.12218292
      4736.48       1.9332296      0.12198644
      4741.22       1.9616105      0.12462015
      4745.96       1.9647490      0.12448191
      4750.71       1.9524419      0.12437872
      4755.46       1.8888504      0.12162382
      4760.22       1.8108756      0.12138826
      4764.97       1.7708341      0.12118732
      4769.74       1.7497762      0.12379799
      4774.51       1.6866594      0.12366105
      4779.29       1.6679221      0.12356212
      4784.07       1.6847496      0.12077136
      4788.85       1.7141383      0.12053880
      4793.64       1.7190623      0.12034276
      4798.43       1.6957951      0.12293868
      4803.23       1.6637685      0.12281324
      4808.03       1.7174932      0.12012399
      4812.84       1.7328417      0.11986417
      4817.66       1.7565163      0.11964404
      4822.48       1.8091460      0.11946319
      4827.30       1.8506702      0.12205428
      4832.12       1.8663776      0.11943594
      4836.96       1.8203782      0.11915499
      4841.79       1.7528585      0.11891672
      4846.63       1.6945817      0.11871986
      4851.48       1.6281349      0.12127779
      4856.33       1.5847953      0.11870224
      4861.19       1.5505417      0.11840630
      4866.05       1.5241034      0.11815541
      4870.92       1.5559259      0.11794901
      4875.79       1.5746972      0.11778685
      4880.66       1.6005623      0.11791852
      4885.55       1.5918937      0.11761496
      4890.43       1.5610798      0.11735890
      4895.32       1.5646963      0.11714994
      4900.22       1.6445664      0.11474387
      4905.12       1.6800893      0.11708609
      4910.02       1.6946581      0.11678245
      4914.94       1.7077188      0.11652871
      4919.85       1.7307278      0.11632433
      4924.77       1.7557654      0.11393880
      4929.70       1.7189215      0.11620863
      4934.62       1.7138312      0.11591336
      4939.56       1.7428036      0.11566962
      4944.50       1.7534448      0.11325841
      4949.44       1.7523433      0.11311991
      4954.39       1.7637302      0.11529342
      4959.35       1.8068476      0.11501386
      4964.31       1.8294634      0.11257895
      4969.27       1.8437747      0.11241300
      4974.24       1.8657670      0.11229456
      4979.22       1.8802010      0.11434982
      4984.20       1.8964908      0.11409484
      4989.18       1.9082286      0.11170390
      4994.17       1.8906303      0.11156324
      4999.16       1.8689368      0.11367049
      5004.16       1.8366941      0.11339007
      5009.17       1.7938434      0.11098746
      5014.18       1.7671546      0.11082825
      5019.19       1.7521365      0.11072083
      5024.21       1.6912015      0.11266910
      5029.23       1.5840012      0.11025976
      5034.26       1.5444746      0.11008613
      5039.30       1.4981481      0.10996615
      5044.34       1.4595263      0.11192882
      5049.39       1.4818003      0.10951784
      5054.43       1.5210807      0.10933429
      5059.49       1.5435849      0.10920616
      5064.55       1.5723224      0.10913451
      5069.61       1.6714606      0.10876086
      5074.68       1.7002793      0.10857143
      5079.76       1.7425806      0.10843931
      5084.84       1.7572189      0.10603427
      5089.92       1.7610144      0.10798732
      5095.01       1.8179755      0.10779683
      5100.11       1.8382129      0.10766565
      5105.21       1.8207943      0.10526111
      5110.31       1.8319519      0.10719814
      5115.42       1.8365858      0.10701157
      5120.54       1.7942380      0.10688628
      5125.66       1.7649162      0.10447054
      5130.79       1.7791554      0.10639523
      5135.92       1.8028985      0.10621748
      5141.05       1.8374495      0.10610314
      5146.20       1.8818900      0.10366371
      5151.34       1.9184699      0.10558140
      5156.49       1.9554704      0.10541782
      5161.65       1.9988845      0.10311037
      5166.81       2.0437801      0.10284528
      5171.98       2.0751506      0.10476030
      5177.15       2.1097187      0.10461621
      5182.33       2.1541718      0.10226440
      5187.51       2.1628965      0.10201880
      5192.70       2.2237848      0.10393681
      5197.89       2.2242310      0.10169625
      5203.09       2.1753470      0.10141020
      5208.29       2.1704852      0.10327577
      5213.50       2.0937700      0.10113711
      5218.72       2.0249521      0.10081207
      5223.93       1.9694843      0.10055509
      5229.16       1.9301383      0.10243159
      5234.39       1.8296374      0.10021974
      5239.62       1.7680702     0.099927850
      5244.86       1.7420198     0.099704615
      5250.11       1.6225392     0.099629410
      5255.36       1.5748854     0.099304708
      5260.61       1.5607745     0.099050951
      5265.87       1.5569439     0.099037704
      5271.14       1.5601918     0.098682280
      5276.41       1.5474814     0.098400286
      5281.69       1.5767382     0.098189843
      5286.97       1.6300297     0.098057524
      5292.26       1.6597296     0.097749476
      5297.55       1.6428656     0.097514984
      5302.85       1.6383257     0.097427070
      5308.15       1.6737798     0.097095863
      5313.46       1.6574419     0.096839824
      5318.77       1.6463907     0.096789357
      5324.09       1.6525557     0.096437268
      5329.42       1.6318495     0.096162395
      5334.75       1.5777123     0.094214928
      5340.08       1.5590235     0.095771592
      5345.42       1.5355960     0.095480745
      5350.77       1.4812422     0.093530428
      5356.12       1.4754451     0.095097983
      5361.48       1.4758059     0.094793595
      5366.83       1.5037956     0.092843063
      5372.20       1.5499218     0.094414805
      5377.58       1.5499853     0.094099958
      5382.95       1.5456355     0.092152216
      5388.34       1.5093048     0.091998671
      5393.72       1.4318680     0.093399246
      5399.12       1.3811794     0.091457138
      5404.52       1.3752786     0.091299598
      5409.92       1.3379899     0.092690850
      5415.33       1.2457211     0.090757492
      5420.75       1.1580770     0.090598443
      5426.17       1.0750273     0.091974751
      5431.60       1.0027448     0.090053545
      5437.03      0.94271776     0.089895635
      5442.47      0.84995288     0.089575653
      5447.91      0.78851323     0.089345440
      5453.36      0.75851446     0.089191478
      5458.81      0.78500517     0.088858547
      5464.27      0.77302417     0.088633913
      5469.73      0.84585689     0.088486671
      5475.20      0.92492084     0.088135995
      5480.68      0.92906437     0.087919706
      5486.16      0.89094515     0.087782223
      5491.65      0.83494218     0.087409269
      5497.14      0.79527078     0.087204232
      5502.64      0.79367862     0.087079205
      5508.14      0.83741258     0.086679594
      5513.65      0.82323565     0.086488692
      5519.16      0.83055071     0.084618362
      5524.68      0.83843733     0.085948649
      5530.20      0.84732114     0.085774716
      5535.73      0.81828305     0.083885539
      5541.27      0.75545431     0.085218318
      5546.81      0.72078591     0.085064417
      5552.36      0.74450893     0.083152014
      5557.91      0.75504424     0.084490546
      5563.47      0.78589178     0.082685526
      5569.04      0.83591838     0.083958184
      5574.60      0.89762560     0.083767684
      5580.18      0.83092657     0.081933073
      5585.76      0.75925942     0.083215107
      5591.35      0.63214641     0.081478420
      5596.94      0.57811686     0.081184151
      5602.53      0.55360500     0.082479094
      5608.14      0.58621870     0.080706500
      5613.75      0.61099342     0.080441873
      5619.36      0.63982117     0.080257509
      5624.98      0.64920969     0.079941353
      5630.60      0.68069587     0.081191465
      5636.23      0.70322511     0.079467488
      5641.87      0.72982556     0.079185964
      5647.51      0.84870182     0.079017874
      5653.16      0.89784535     0.078687690
      5658.82      0.92705055     0.078443224
      5664.47      0.97041031     0.078212124
      5670.14       1.0176388     0.077921399
      5675.81       1.0350944     0.077756996
      5681.48      0.96295879     0.077420676
      5687.17      0.88916668     0.077171589
      5692.85      0.86002522     0.076938764
      5698.55      0.81321519     0.076646676
      5704.25      0.74564807     0.076474489
      5709.95      0.72385617     0.076139972
      5715.66      0.72255217     0.075894240
      5721.38      0.64493950     0.075649332
      5727.10      0.60279245     0.075363868
      5732.83      0.55491113     0.075173348
      5738.56      0.56000334     0.074848335
      5744.30      0.65629028     0.073313328
      5750.04      0.71000179     0.074346425
      5755.79      0.73806430     0.074074936
      5761.55      0.68836191     0.073856574
      5767.31      0.67933703     0.073550375
      5773.08      0.74967718     0.072063632
      5778.85      0.76129097     0.073050158
      5784.63      0.78955960     0.071544440
      5790.41      0.78076336     0.072561614
      5796.21      0.78914409     0.071031643
      5802.00      0.84157809     0.070859759
      5807.81      0.88203868     0.071821741
      5813.61      0.94688181     0.070416713
      5819.43       1.0247297     0.071440093
      5825.25       1.1254088     0.070006681
      5831.07       1.1468577     0.069901728
      5836.90       1.1734261     0.069627880
      5842.74       1.2877987     0.069482817
      5848.58       1.4041997     0.069174137
      5854.43       1.4712884     0.068982008
      5860.29       1.5003460     0.069901174
      5866.15       1.5223650     0.068443895
      5872.01       1.5211296     0.068294919
      5877.89       1.5762539     0.067871824
      5883.76       1.6043123     0.067701998
      5889.65       1.5684870     0.067312241
      5895.54       1.5465068     0.067121411
      5901.43       1.4708986     0.066735224
      5907.34       1.4076222     0.066514953
      5913.24       1.3654794     0.066134329
      5919.16       1.3109744     0.065895837
      5925.08       1.2358354     0.064450005
      5931.00       1.1734795     0.065267219
      5936.93       1.1078940     0.063841395
      5942.87      0.99942177     0.064649707
      5948.81      0.92157764     0.063272482
      5954.76      0.89779448     0.064055416
      5960.72      0.84449657     0.063864712
      5966.68      0.80934518     0.063470570
      5972.64      0.80342506     0.063280926
      5978.62      0.79211861     0.061876546
      5984.60      0.77008667     0.062720718
      5990.58      0.80850697     0.061342576
      5996.57      0.81660424     0.062175303
      6002.57      0.83433106     0.060819177
      6008.57      0.83291267     0.061635335
      6014.58      0.83897413     0.060296706
      6020.60      0.85946818     0.061099181
      6026.62      0.86695383     0.059777527
      6032.65      0.86881375     0.060566400
      6038.68      0.85718011     0.059259782
      6044.72      0.86162543     0.060035140
      6050.76      0.84757764     0.058742330
      6056.81      0.80141079     0.059505117
      6062.87      0.77285641     0.058224987
      6068.93      0.76437045     0.058976349
      6075.00      0.78704473     0.057707555
      6081.08      0.79119341     0.057483155
      6087.16      0.76028041     0.057190266
      6093.25      0.76541071     0.056966011
      6099.34      0.75556198     0.056673284
      6105.44      0.78842534     0.056450065
      6111.54      0.80491551     0.056156533
      6117.66      0.83925229     0.054998230
      6123.78      0.88186254     0.055640031
      6129.90      0.96529955     0.054493078
      6136.03       1.0601237     0.055124237
      6142.17       1.1458200     0.053989776
      6148.31       1.2419430     0.054609902
      6154.46       1.3474468     0.053497481
      6160.61       1.4778739     0.054118199
      6166.77       1.6115291     0.053053620
      6172.94       1.7441979     0.053637092
      6179.11       1.9336705     0.052551747
      6185.29       2.1274689     0.053160468
      6191.48       2.3385272     0.052153173
      6197.67       2.5433270     0.052812638
      6203.87       2.7984565     0.051858606
      6210.07       3.1100061     0.051692241
      6216.28       3.4247446     0.051604018
      6222.50       3.7217021     0.051402711
      6228.72       4.0364015     0.051296022
      6234.95       4.3401054     0.051006213
      6241.19       4.7297028     0.051602419
      6247.42       5.1779806     0.050463773
      6253.67       5.7033685     0.050955486
      6259.93       6.3474593     0.049808587
      6266.19       7.1350392     0.049381681
      6272.46       7.7542087     0.049140048
      6278.73       8.4709751     0.048761378
      6285.01       8.9427339     0.048563090
      6291.29       9.3967366     0.048173516
      6297.58       9.6513273     0.047983972
      6303.88       9.8231334     0.047611062
      6310.19       9.8482871     0.047450010
      6316.50       9.7096213     0.047075769
      6322.81       9.4649974     0.046061188
      6329.14       9.2165348     0.046561880
      6335.47       8.7574761     0.046245057
      6341.80       8.2905605     0.046068553
      6348.14       7.6607518     0.045751023
      6354.49       7.1254675     0.045598865
      6360.85       6.5142057     0.045277647
      6367.21       6.0105578     0.044322435
      6373.57       5.5415406     0.044815939
      6379.95       5.0808909     0.043868207
      6386.33       4.7336189     0.044386114
      6392.72       4.3453842     0.043457851
      6399.11       3.9537498     0.043255370
      6405.51       3.5702399     0.043742185
      6411.92       3.2126110     0.042837438
      6418.32       2.8659085     0.043333827
      6424.74       2.5431480     0.042416249
      6431.17       2.2460733     0.042187095
      6437.60       2.0067838     0.041975140
      6444.04       1.8370297     0.041706060
      6450.48       1.7185674     0.042141216
      6456.94       1.5792957     0.041214412
      6463.39       1.4809225     0.040961244
      6469.85       1.4012816     0.040738922
      6476.33       1.3162730     0.040482463
      6482.80       1.2280540     0.040289889
      6489.28       1.1886620     0.040014833
      6495.77       1.1219578     0.039765960
      6502.27       1.0791583     0.039539810
      6508.77       1.0739187     0.039270816
      6515.28       1.0483675     0.039075412
      6521.80       1.0242330     0.038800554
      6528.32       1.0305686     0.038547987
      6534.85       1.0129277     0.038327973
      6541.38      0.98056228     0.038067540
      6547.92      0.93904735     0.037270373
      6554.47      0.92000004     0.037620078
      6561.03      0.88221581     0.037388859
      6567.59      0.83240204     0.036590363
      6574.16      0.79744675     0.036948746
      6580.73      0.77162588     0.036188139
      6587.31      0.73288376     0.036523489
      6593.90      0.71022908     0.036291949
      6600.50      0.69017396     0.035529032
      6607.10      0.67618954     0.035867358
      6613.70      0.66413848     0.035142726
      6620.32      0.61918429     0.034885358
      6626.94      0.60010659     0.035224874
      6633.57      0.58897351     0.034500175
      6640.20      0.55968900     0.034253147
      6646.84      0.53856551     0.034130921
      6653.49      0.56026128     0.033869807
      6660.14      0.55135930     0.033632160
      6666.80      0.53761919     0.033503115
      6673.47      0.54833093     0.033251326
      6680.14      0.53908604     0.033021998
      6686.82      0.53629576     0.032887955
      6693.51      0.54629557     0.032644381
      6700.20      0.56243406     0.031969656
      6706.90      0.57335420     0.032285061
      6713.61      0.56212144     0.032048793
      6720.32      0.56308169     0.031388501
      6727.05      0.58939675     0.031694671
      6733.77      0.59267473     0.031480589
      6740.51      0.60023174     0.030928935
      6747.25      0.59118111     0.031332961
      6754.00      0.60355702     0.031143405
      6760.75      0.62139999     0.030448314
      6767.51      0.63192120     0.030822596
      6774.28      0.66453795     0.030858451
      6781.05      0.67979616     0.030577640
      6787.84      0.68291562     0.031180543
      6794.62      0.70400425     0.031536409
      6801.42      0.72765418     0.031368819
      6808.22      0.72226929     0.032069310
      6815.03      0.72178765     0.032296592
      6821.85      0.72823403     0.031788356
      6828.67      0.72143895     0.032244755
      6835.50      0.69869895     0.031458010
      6842.33      0.62851343     0.031038740
      6849.17      0.61234330     0.030542697
      6856.02      0.62955777     0.030608526
      6862.88      0.65673928     0.029769566
      6869.74      0.65601951     0.029489303
      6876.61      0.64724637     0.029779221
      6883.49      0.63827943     0.029142380
      6890.37      0.66697255     0.028901448
      6897.27      0.69202991     0.028792565
      6904.16      0.68123170     0.028673629
      6911.07      0.67383230     0.028574641
      6917.98      0.67373272     0.028519063
      6924.89      0.69189346     0.028444302
      6931.82      0.71865104     0.028422132
      6938.75      0.71394185     0.028432088
      6945.69      0.70930977     0.028001690
      6952.64      0.71396897     0.028391914
      6959.59      0.72900603     0.028386758
      6966.55      0.71820180     0.027955273
      6973.52      0.68114879     0.027913780
      6980.49      0.72272216     0.028271920
      6987.47      0.78323330     0.028260001
      6994.46      0.84560875     0.027822654
      7001.46      0.87082078     0.028187009
      7008.46      0.93974076     0.028170853
      7015.46       1.0196216     0.027754030
      7022.48       1.0890553     0.027732797
      7029.51       1.1416396     0.028109097
      7036.53       1.1731981     0.028126307
      7043.57       1.2430152     0.027755365
      7050.62       1.3102693     0.027788274
      7057.66       1.3792787     0.028188099
      7064.72       1.4034384     0.027857982
      7071.79       1.4347180     0.027934034
      7078.86       1.4365939     0.028078917
      7085.94       1.4567220     0.028321683
      7093.03       1.5004826     0.028469446
      7100.12       1.4793528     0.028828187
      7107.22       1.5008612     0.029199367
      7114.33       1.5810496     0.029499490
      7121.44       1.6714623     0.029599927
      7128.56       1.8016543     0.029739787
      7135.69       1.9390489     0.029804356
      7142.83       2.1075652     0.029349674
      7149.97       2.2451531     0.029773352
      7157.12       2.3845497     0.029678159
      7164.28       2.5492793     0.029601711
      7171.44       2.6755922     0.029142097
      7178.62       2.8059450     0.029174257
      7185.80       2.9177303     0.029619636
      7192.98       3.0033349     0.029646183
      7200.17       3.0498090     0.029216605
      7207.38       3.1245050     0.029178560
      7214.58       3.1952949     0.029077091
      7221.80       3.2856418     0.029366251
      7229.02       3.3811207     0.028814244
      7236.25       3.4020967     0.028689978
      7243.49       3.5196368     0.028565974
      7250.73       3.6671846     0.028413976
      7257.98       3.7855206     0.028662130
      7265.24       3.9368286     0.028110192
      7272.51       4.0642709     0.027965857
      7279.78       4.1968027     0.027855276
      7287.06       4.2795425     0.027763484
      7294.35       4.2964100     0.027668718
      7301.64       4.2767542     0.027602383
      7308.94       4.1917948     0.027555182
      7316.25       4.0647902     0.027519541
      7323.57       3.9119834     0.027482463
      7330.89       3.7586745     0.027407286
      7338.22       3.5397570     0.027360443
      7345.56       3.3260654     0.027327107
      7352.91       3.0938342     0.027306978
      7360.26       2.8530415     0.027299226
      7367.62       2.5949337     0.026891849
      7374.99       2.3308208     0.027231499
      7382.37       2.1500463     0.027221463
      7389.75       1.9890576     0.027221346
      7397.14       1.8460830     0.027228324
      7404.53       1.7164544     0.026839755
      7411.94       1.5887100     0.026835181
      7419.35       1.5023558     0.027187248
      7426.77       1.3966125     0.027193416
      7434.20       1.2959276     0.027203321
      7441.63       1.2127363     0.026834251
      7449.07       1.1484274     0.026875533
      7456.52       1.0948092     0.027091546
      7463.98       1.0709203     0.027465422
      7471.45       1.0410796     0.027857613
      7478.92       1.0286449     0.027599672
      7486.40       1.0138726     0.027547217
      7493.88      0.97447201     0.028004612
      7501.38      0.94753631     0.028925635
      7508.88      0.90353152     0.030320555
      7516.39      0.89463115     0.032163786
      7523.91      0.87792554     0.033477920
      7531.43      0.88225373     0.035519679
      7538.96      0.87572295     0.037869580
      7546.50      0.83196609     0.039903019
      7554.05      0.79739742     0.041152736
      7561.60      0.76968748     0.041257420
      7569.16      0.76650239     0.039604712
      7576.73      0.72506727     0.037973053
      7584.31      0.73326266     0.035886251
      7591.89      0.72036676     0.034917019
      7599.49      0.74436418     0.032832538
      7607.09      0.79613337     0.031220211
      7614.70      0.83081006     0.029953627
      7622.31      0.84643487     0.028819619
      7629.93      0.84817660     0.028058672
      7637.56      0.85324051     0.027669462
      7645.20      0.84891858     0.027379363
      7652.85      0.85960682     0.027106018
      7660.50      0.88444504     0.027208888
      7668.16      0.89746228     0.027053584
      7675.83      0.92567722     0.026632600
      7683.50      0.92395797     0.026554443
      7691.19      0.93358567     0.026510950
      7698.88      0.94713298     0.026489102
      7706.58      0.96990976     0.026478906
      7714.29       1.0094364     0.026476564
      7722.00       1.0278631     0.026481134
      7729.73       1.0651156     0.026489185
      7737.45       1.1185429     0.026498122
      7745.19       1.1661786     0.026135034
      7752.94       1.1975632     0.026138832
      7760.69       1.2118489     0.026464607
      7768.45       1.2141455     0.026470913
      7776.22       1.2117161     0.026483131
      7784.00       1.1817671     0.026502002
      7791.78       1.1487451     0.026524867
      7799.57       1.1031600     0.026552333
      7807.37       1.0716847     0.026585242
      7815.18       1.0517518     0.026259743
      7822.99       1.0211300     0.026280172
      7830.82      0.96238140     0.026288715
      7838.65      0.92278926     0.026292737
      7846.49      0.87026674     0.026295213
      7854.34      0.81667805     0.026296707
      7862.19      0.76631761     0.026296874
      7870.05      0.72882401     0.026295493
      7877.93      0.72254038     0.026295241
      7885.80      0.72378093     0.026298710
      7893.69      0.70302516     0.026307635
      7901.58      0.68302507     0.026646075
      7909.49      0.68211234     0.026322568
      7917.40      0.67961720     0.026328883
      7925.31      0.66826460     0.026341718
      7933.24      0.64944328     0.026353270
      7941.17      0.65127685     0.026359133
      7949.11      0.66218747     0.026364497
      7957.06      0.68862054     0.026379011
      7965.02      0.72417937     0.026408154
      7972.98      0.72608476     0.026450920
      7980.96      0.71598278     0.026515299
      7988.94      0.71420842     0.026618374
      7996.93      0.69266069     0.026760564
      8004.93      0.66755832     0.026948564
      8012.93      0.64871997     0.027189164
      8020.95      0.66015527     0.027477285
      8028.97      0.66031472     0.027816611
      8036.99      0.62663657     0.028222397
      8045.03      0.59988603     0.028692481
      8053.08      0.58835623     0.029212422
      8061.13      0.58056205     0.029259222
      8069.20      0.56401790     0.029833199
      8077.26      0.54079517     0.030437962
      8085.34      0.53014384     0.030994943
      8093.43      0.52701600     0.031436665
      8101.52      0.52918368     0.031814306
      8109.62      0.50155814     0.032166132
      8117.73      0.47055964     0.032481771
      8125.85      0.46986353     0.032768313
      8133.98      0.46920981     0.033031826
      8142.11      0.46983778     0.033275930
      8150.25      0.44808118     0.033513996
      8158.41      0.45338615     0.033773358
      8166.56      0.45798914     0.034064684
      8174.73      0.46937679     0.034356795
      8182.91      0.48597973     0.034273721
      8191.09      0.48064232     0.034528022
      8199.28      0.48017117     0.034770775
      8207.48      0.50532896     0.035004039
      8215.69      0.52019202     0.035241195
      8223.91      0.52475143     0.035548950
      8232.13      0.52983844     0.035933559
      8240.36      0.55550899     0.036255115
      8248.60      0.57069248     0.036443579
      8256.85      0.56150267     0.036631109
      8265.11      0.54785069     0.036855725
      8273.37      0.56047890     0.037093944
      8281.65      0.56259656     0.037362422
      8289.93      0.53733833     0.037648530
      8298.22      0.50836104     0.037923537
      8306.52      0.52154210     0.038208823
      8314.83      0.54431268     0.038519317
      8323.14      0.55535150     0.038860064
      8331.46      0.55498998     0.039220621
      8339.80      0.56899955     0.039178822
      8348.13      0.57544771     0.039541342
      8356.48      0.57416641     0.040521603
      8364.84      0.60405320     0.040924548
      8373.21      0.64077238     0.041334930
      8381.58      0.68453960     0.041755967
      8389.96      0.71605211     0.042187547
      8398.35      0.75131890     0.042627368
      8406.75      0.77884673     0.043079174
      8415.16      0.78595486     0.043542288
      8423.57      0.81155368     0.044011022
      8432.00      0.83130253     0.044484726
      8440.43      0.81379483     0.044545025
      8448.87      0.84046259     0.045011077
      8457.32      0.86772724     0.045476133
      8465.78      0.89570755     0.045943900
      8474.25      0.90222164     0.046415373
      8482.72      0.91027663     0.046890592
      8491.20      0.93218931     0.047372274
      8499.69      0.95669995     0.047862426
      8508.19      0.95589858     0.049105092
      8516.70      0.97330117     0.049176011
      8525.22      0.99351909     0.049671249
      8533.75       1.0162254     0.050177495
      8542.28       1.0186424     0.050697976
      8550.82       1.0263802     0.051228787
      8559.37       1.0478727     0.051763565
      8567.93       1.0923435     0.052305447
      8576.50       1.0935585     0.052855801
      8585.08       1.0974038     0.052948464
      8593.66       1.1058882     0.053504634
      8602.26       1.1287867     0.054065880
      8610.86       1.1562518     0.055434180
      8619.47       1.1583002     0.055991763
      8628.09       1.1549890     0.056553774
      8636.72       1.2040058     0.057122679
      8645.36       1.2401663     0.057198888
      8654.00       1.2776944     0.057783293
      8662.66       1.2671886     0.058380846
      8671.32       1.2617715     0.058990135
      8679.99       1.2859366     0.059605573
      8688.67       1.2879338     0.061083303
      8697.36       1.2734048     0.061169061
      8706.06       1.2677061     0.061795155
      8714.76       1.2634027     0.062430367
      8723.48       1.2406140     0.063075608
      8732.21       1.1908446     0.063729907
      8740.93       1.1277608     0.064395625
      8749.68       1.0873408     0.064455813
      8758.43       1.0413631     0.066072403
      8767.19      0.99447879     0.066752725
      8775.96      0.95482837     0.067444821
      8784.73      0.93285873     0.068158303
      8793.52      0.89480829     0.068909438
      8802.31      0.89674199     0.069049704
      8811.11      0.84960302     0.069817373
      8819.92      0.81847893     0.071740254
      8828.75      0.79176696     0.072716123
      8837.57      0.80222696     0.073768836
      8846.41      0.79970960     0.074457001
      8855.26      0.77423247     0.075832217
      8864.12      0.75899821     0.077370543
      8872.98      0.72798268     0.080362326
      8881.85      0.69610354     0.082192595
      8890.73      0.65874459     0.083611379
      8899.63      0.65081905     0.085315546
      8908.52      0.66820555     0.086842354
      8917.43      0.66898766     0.088081058
      8926.35      0.69357271     0.089470846
      8935.28      0.71603780     0.089991945
      8944.22      0.71828977     0.090386051
      8953.16      0.72355732     0.090787479
      8962.11      0.69610373     0.091347310
      8971.08      0.67787044     0.091361137
      8980.05      0.65016515     0.093455232
      8989.03      0.64267716     0.094582266
      8998.02      0.65831584     0.095922114
      9007.02      0.65743709     0.096475672
      9016.02      0.66107789     0.097803257
      9025.04      0.67285688      0.10061236
      9034.07      0.65918271      0.10166186
      9043.10      0.63794362      0.10170472
      9052.14      0.66286971      0.10259671
      9061.20      0.70491783      0.10345983
      9070.26      0.74930331      0.10571377
      9079.33      0.78310046      0.10540078
      9088.41      0.78897678      0.10585735
      9097.50      0.81388183      0.10615293
      9106.60      0.77982839      0.10759378
      9115.70      0.76721194      0.10689180
      9124.82      0.78742735      0.10725066
      9133.94      0.77314999      0.10785023
      9143.08      0.75795623      0.10871338
      9152.22      0.76392141      0.11031065
      9161.37      0.77102494      0.11182001
      9170.54      0.76804420      0.11376796
      9179.71      0.76840049      0.11576425
      9188.89      0.77686103      0.12114278
      9198.08      0.77872757      0.12551605
      9207.28      0.74903694      0.13103404
      9216.48      0.74270033      0.13842746
      9225.70      0.77892279      0.14934988
      9234.92      0.79519815      0.15802008
      9244.16      0.73754032      0.16714453
      9253.40      0.71984950      0.17508341
      9262.66      0.70168051      0.18619989
      9271.92      0.74177398      0.18827519
      9281.20      0.74338481      0.18976279
      9290.48      0.74405077      0.18953147
      9299.77      0.77101189      0.19018290
      9309.07      0.74376582      0.18472102
      9318.38      0.77135369      0.18310037
      9327.69      0.74841550      0.18261796
      9337.02      0.69844633      0.18380335
      9346.36      0.64452046      0.18590781
      9355.71      0.57667278      0.18846576
      9365.07      0.50845531      0.19211294
      9374.43      0.49945985      0.19452661
      9383.80      0.41543568      0.19634850
      9393.19      0.39548544      0.19472679
      9402.58      0.33443254      0.19598052
      9411.98      0.33204192      0.19590513
      9421.40      0.29040584      0.19434894
      9430.82      0.31944466      0.19658113
      9440.25      0.32718163      0.19681109
      9449.69      0.31048224      0.19498956
      9459.14      0.32145422      0.19709609
      9468.60      0.30231755      0.19698437
      9478.07      0.38205861      0.19450442
      9487.55      0.40425173      0.19410904
      9497.04      0.43520741      0.19323082
      9506.53      0.37805701      0.19243354
      9516.04      0.39041784      0.19140191
      9525.56      0.41509371      0.19006601
      9535.08      0.35374903      0.18909397
      9544.62      0.32136121      0.18771202
      9554.16      0.39010346      0.18568808
      9563.72      0.37644596      0.18428080
      9573.29      0.36112803      0.18016750
      9582.85      0.31674214      0.17839916
      9592.44      0.33073048      0.17512324
      9602.03      0.31631029      0.17262114
      9611.63      0.17487001      0.17079957
      9621.25      0.18480583      0.17069421
      9630.87      0.21223928      0.16959738
      9640.50      0.34412464      0.16907056
      9650.14      0.31793681      0.17011440
      9659.79      0.31335962      0.16999460
      9669.45      0.34512783      0.16976824
      9679.12      0.35592023      0.16948219
      9688.80      0.32365247      0.17025603
      9698.49      0.38593533      0.16945602
      9708.19      0.39777622      0.16832890
      9717.90      0.45902727      0.16733697
      9727.62      0.47945282      0.16767895
      9737.34      0.42154110      0.16814664
      9747.08      0.45356241      0.16720462
      9756.83      0.48241437      0.16650737
      9766.59      0.56684210      0.16597208
      9776.35      0.48312370      0.16660139
      9786.13      0.42675697      0.16617694
      9795.92      0.39399041      0.16583905
      9805.71      0.33020626      0.16551168
      9815.52      0.28831212      0.16629919
      9825.34      0.32339913      0.16620653
      9835.17      0.32608922      0.16623199
      9845.00      0.32303087      0.16629232
      9854.84      0.36747611      0.16631778
      9864.70      0.39257480      0.16735080
      9874.56      0.52689638      0.16752105
      9884.44      0.54996119      0.16775586
      9894.32      0.60294914      0.16798306
      9904.22      0.63349444      0.16824635
      9914.13      0.59847392      0.16853506
      9924.04      0.64838084      0.16966170
      9933.96      0.60315594      0.17002407
      9943.90      0.54597728      0.17034514
      9953.84      0.68149410      0.17218125
      9963.79      0.65065055      0.17253005
      9973.76      0.48183207      0.17292883
      9983.74      0.49491668      0.17408105
      9993.72      0.57330433      0.17447333
