# starting wavelength =        3319.6980
# ending wavelength =        10168.266
# O2 telluric scale =        0
# O2 telluric shift =        0
# H2O telluric scale =        0
# H2O telluric shift =        0
      3321.63      0.19120390    0.0071690301
      3324.95      0.19796247    0.0066589658
      3328.28      0.20344272    0.0052384931
      3331.61      0.20867666    0.0049659282
      3334.94      0.21360015    0.0040946381
      3338.27      0.21850778    0.0036975428
      3341.61      0.22294179    0.0035779454
      3344.95      0.22741331    0.0031600629
      3348.30      0.23247674    0.0030812535
      3351.65      0.23710917    0.0029127146
      3355.00      0.24199582    0.0027191990
      3358.35      0.24564636    0.0026642920
      3361.71      0.24970617    0.0025390970
      3365.07      0.25378822    0.0024914334
      3368.44      0.25867124    0.0024056858
      3371.81      0.26310052    0.0023842253
      3375.18      0.26773465    0.0023405858
      3378.56      0.27198904    0.0022908489
      3381.94      0.27670786    0.0022503782
      3385.32      0.28041079    0.0022456701
      3388.70      0.28473342    0.0022766172
      3392.09      0.28931177    0.0022705286
      3395.48      0.29362940    0.0022298407
      3398.88      0.29807035    0.0022245189
      3402.28      0.30238541    0.0022195342
      3405.68      0.30637535    0.0022519460
      3409.09      0.31031822    0.0022456034
      3412.49      0.31389635    0.0022396148
      3415.91      0.31762945    0.0022339721
      3419.32      0.32121336    0.0021941817
      3422.74      0.32529244    0.0022282709
      3426.17      0.32948362    0.0022216579
      3429.59      0.33395937    0.0022153842
      3433.02      0.33788048    0.0022094412
      3436.45      0.34135950    0.0022038212
      3439.89      0.34480289    0.0021985185
      3443.33      0.34801356    0.0022305664
      3446.78      0.35088145    0.0021922679
      3450.22      0.35394654    0.0021860118
      3453.67      0.35724108    0.0021800663
      3457.13      0.36065864    0.0021744227
      3460.58      0.36330217    0.0022055721
      3464.04      0.36666202    0.0022004732
      3467.51      0.36975055    0.0021956851
      3470.98      0.37275754    0.0021912041
      3474.45      0.37535051    0.0021515811
      3477.92      0.37746181    0.0021458753
      3481.40      0.37935030    0.0021763925
      3484.88      0.38161081    0.0021711700
      3488.37      0.38365762    0.0021662389
      3491.86      0.38594077    0.0021615894
      3495.35      0.38705424    0.0021572195
      3498.84      0.38857095    0.0021531319
      3502.34      0.39096153    0.0021846990
      3505.84      0.39330900    0.0021428138
      3509.35      0.39511888    0.0021377062
      3512.86      0.39705554    0.0021328632
      3516.37      0.39891141    0.0021282779
      3519.89      0.40106810    0.0021239426
      3523.41      0.40278923    0.0021572360
      3526.93      0.40430713    0.0021515835
      3530.46      0.40548567    0.0021462005
      3533.99      0.40681653    0.0021410790
      3537.53      0.40886020    0.0021362136
      3541.06      0.41097505    0.0020958135
      3544.60      0.41353641    0.0021311823
      3548.15      0.41546425    0.0021253081
      3551.70      0.41775326    0.0021196863
      3555.25      0.42018369    0.0021143106
      3558.80      0.42307511    0.0021091740
      3562.36      0.42643417    0.0021042708
      3565.92      0.43096440    0.0020995983
      3569.49      0.43499838    0.0021323853
      3573.06      0.43986895    0.0021281460
      3576.64      0.44434997    0.0020891647
      3580.21      0.44906769    0.0020837486
      3583.79      0.45388340    0.0020785513
      3587.38      0.45941682    0.0020735675
      3590.96      0.46478878    0.0020687922
      3594.55      0.46969924    0.0021007772
      3598.15      0.47551603    0.0020963642
      3601.75      0.48142953    0.0020921637
      3605.35      0.48730239    0.0020881725
      3608.96      0.49312264    0.0020843894
      3612.56      0.49955227    0.0020808114
      3616.18      0.50585948    0.0021139727
      3619.79      0.51085069    0.0020706640
      3623.41      0.51674162    0.0020660528
      3627.04      0.52236298    0.0020616344
      3630.66      0.52783066    0.0020574031
      3634.29      0.53331103    0.0020533601
      3637.93      0.53753434    0.0020494954
      3641.57      0.54130825    0.0020458074
      3645.21      0.54552245    0.0020803830
      3648.86      0.54917859    0.0020754662
      3652.50      0.55232764    0.0020707375
      3656.16      0.55605499    0.0020661929
      3659.81      0.56050801    0.0020618275
      3663.47      0.56358021    0.0020576385
      3667.14      0.56688153    0.0020536178
      3670.80      0.56989618    0.0020883887
      3674.48      0.57286393    0.0020489379
      3678.15      0.57533984    0.0020439455
      3681.83      0.57711602    0.0020391207
      3685.51      0.57901080    0.0020344636
      3689.20      0.58072188    0.0020299665
      3692.88      0.58155582    0.0020256252
      3696.58      0.58264773    0.0020214345
      3700.27      0.58391318    0.0020551868
      3703.98      0.58443187    0.0020512387
      3707.68      0.58445515    0.0020474427
      3711.39      0.58472779    0.0020437966
      3715.10      0.58520770    0.0020402968
      3718.81      0.58523418    0.0020369356
      3722.53      0.58547547    0.0020337197
      3726.26      0.58588963    0.0020306325
      3729.98      0.58668812    0.0020659094
      3733.71      0.58755140    0.0020616311
      3737.45      0.58886492    0.0020574982
      3741.18      0.58981506    0.0020535047
      3744.93      0.59092029    0.0020496472
      3748.67      0.59262555    0.0020049685
      3752.42      0.59506044    0.0020014074
      3756.17      0.59880962    0.0019979601
      3759.93      0.60306505    0.0019946254
      3763.69      0.60697400    0.0020339547
      3767.45      0.61061554    0.0020295342
      3771.22      0.61539646    0.0020252416
      3774.99      0.62105561    0.0020210719
      3778.77      0.62729659    0.0020170218
      3782.54      0.63429198    0.0020130871
      3786.33      0.64152082    0.0020092639
      3790.11      0.64864696    0.0020055480
      3793.90      0.65602142    0.0020019375
      3797.70      0.66374057    0.0020382725
      3801.50      0.67264871    0.0020348140
      3805.30      0.68107081    0.0020314615
      3809.10      0.69034343    0.0020282061
      3812.91      0.69933316    0.0020250465
      3816.73      0.70742292    0.0020219808
      3820.54      0.71481379    0.0020190036
      3824.36      0.72155812    0.0020161209
      3828.19      0.72906031    0.0020133166
      3832.02      0.73614643    0.0020105914
      3835.85      0.74295649    0.0020497527
      3839.68      0.74860344    0.0020460124
      3843.52      0.75463084    0.0020423640
      3847.37      0.76169178    0.0020388103
      3851.22      0.76829163    0.0020353403
      3855.07      0.77416877    0.0020319572
      3858.92      0.77968433    0.0020286568
      3862.78      0.78545344    0.0020254237
      3866.64      0.79137541    0.0020222786
      3870.51      0.79686150    0.0020191942
      3874.38      0.80302319    0.0020593764
      3878.26      0.80846316    0.0020564048
      3882.13      0.81487102    0.0020534976
      3886.02      0.82187857    0.0020506570
      3889.90      0.82961180    0.0020478781
      3893.79      0.83739879    0.0020451641
      3897.69      0.84612217    0.0020425072
      3901.59      0.85363463    0.0020399017
      3905.49      0.86061727    0.0020373475
      3909.39      0.86673493    0.0020348517
      3913.30      0.87285284    0.0020323945
      3917.22      0.87992097    0.0020299815
      3921.13      0.88585901    0.0020732038
      3925.06      0.89182071    0.0020699762
      3928.98      0.89752260    0.0020668086
      3932.91      0.90202876    0.0020637030
      3936.84      0.90586427    0.0020606545
      3940.78      0.90958844    0.0020576617
      3944.72      0.91187950    0.0020547217
      3948.67      0.91314113    0.0020518322
      3952.61      0.91438095    0.0020489913
      3956.57      0.91466827    0.0020461946
      3960.52      0.91517548    0.0020434428
      3964.48      0.91609783    0.0020407322
      3968.45      0.91665842    0.0020380627
      3972.42      0.91713833    0.0020354350
      3976.39      0.91797155    0.0020796763
      3980.37      0.91761008    0.0020770636
      3984.35      0.91698828    0.0020744890
      3988.33      0.91601633    0.0020719437
      3992.32      0.91521923    0.0020694304
      3996.31      0.91466712    0.0020669466
      4000.31      0.91505481    0.0020644921
      4004.31      0.91508583    0.0020620726
      4008.31      0.91516165    0.0020596728
      4012.32      0.91571393    0.0020572966
      4016.33      0.91684315    0.0020549493
      4020.35      0.91840506    0.0020526188
      4024.37      0.91999812    0.0020503072
      4028.40      0.92213727    0.0020480309
      4032.42      0.92450613    0.0020457655
      4036.46      0.92584186    0.0020435207
      4040.50      0.92689999    0.0020412916
      4044.54      0.92803481    0.0020390822
      4048.58      0.92886007    0.0020368968
      4052.63      0.92882170    0.0020347211
      4056.68      0.92759045    0.0020325643
      4060.74      0.92614481    0.0020304323
      4064.80      0.92431729    0.0020283096
      4068.86      0.92229048    0.0020262053
      4072.93      0.91958648    0.0020241055
      4077.01      0.91768855    0.0020220465
      4081.08      0.91557700    0.0020199976
      4085.17      0.91349632    0.0020179631
      4089.25      0.91245665    0.0020159467
      4093.34      0.91112880    0.0020139556
      4097.43      0.91057520    0.0020119791
      4101.53      0.90989530    0.0020100219
      4105.63      0.90952292    0.0020080832
      4109.74      0.90957382    0.0020061677
      4113.85      0.90964606    0.0020042812
      4117.96      0.90991533    0.0020024133
      4122.08      0.91115093    0.0020005700
      4126.20      0.91306556    0.0019987593
      4130.33      0.91435996    0.0019969692
      4134.46      0.91512702    0.0019952077
      4138.59      0.91668464    0.0019934813
      4142.73      0.91767508    0.0019917806
      4146.88      0.91962568    0.0019901141
      4151.02      0.92357123    0.0019442903
      4155.18      0.92774846    0.0019427635
      4159.33      0.93119817    0.0019412707
      4163.49      0.93432284    0.0019398158
      4167.65      0.93837726    0.0019384005
      4171.82      0.94221803    0.0019370292
      4175.99      0.94634887    0.0019356950
      4180.17      0.95058431    0.0019344202
      4184.35      0.95544745    0.0019331759
      4188.54      0.95963941    0.0019319882
      4192.72      0.96278658    0.0019308500
      4196.92      0.96589652    0.0019297655
      4201.11      0.96848641    0.0019287375
      4205.31      0.97099602    0.0019277659
      4209.52      0.97243304    0.0019268580
      4213.73      0.97339159    0.0019260125
      4217.94      0.97427324    0.0019252287
      4222.16      0.97479440    0.0019245210
      4226.38      0.97685214    0.0019238800
      4230.61      0.97886051    0.0019233158
      4234.84      0.98088308    0.0019228303
      4239.08      0.98118870    0.0019661158
      4243.32      0.98236513    0.0019646538
      4247.56      0.98591420    0.0019196982
      4251.81      0.98884682    0.0019184947
      4256.06      0.99251215    0.0019173595
      4260.32      0.99522598    0.0019162971
      4264.58      0.99740473    0.0019153119
      4268.84      0.99862503    0.0019144062
      4273.11      0.99895618    0.0019135864
      4277.38      0.99925181    0.0019128516
      4281.66      0.99948198    0.0019122060
      4285.94       1.0001576    0.0019116505
      4290.23       1.0004265    0.0019111947
      4294.52       1.0005446    0.0019108440
      4298.81       1.0003853    0.0019105961
      4303.11       1.0002590    0.0019104609
      4307.42       1.0018826    0.0019104406
      4311.72       1.0045031    0.0019105403
      4316.04       1.0070526    0.0018639513
      4320.35       1.0093178    0.0018629167
      4324.67       1.0118768    0.0018619805
      4329.00       1.0143341    0.0018611504
      4333.33       1.0162665    0.0019084475
      4337.66       1.0181370    0.0019078149
      4342.00       1.0197013    0.0019073123
      4346.34       1.0219178    0.0019069424
      4350.69       1.0247815    0.0019067100
      4355.04       1.0287310    0.0019066200
      4359.39       1.0342664    0.0019066775
      4363.75       1.0408710    0.0019068887
      4368.12       1.0484959    0.0018644739
      4372.48       1.0552823    0.0018633309
      4376.86       1.0626142    0.0018623301
      4381.23       1.0704355    0.0018614827
      4385.61       1.0785387    0.0018607776
      4390.00       1.0879877    0.0018602317
      4394.39       1.0973233    0.0018598419
      4398.79       1.1057995    0.0018596139
      4403.18       1.1141240    0.0019076992
      4407.59       1.1194280    0.0019078208
      4412.00       1.1240708    0.0019081350
      4416.41       1.1254606    0.0018682930
      4420.82       1.1281427    0.0018670613
      4425.25       1.1310481    0.0018660175
      4429.67       1.1340862    0.0018651666
      4434.10       1.1385516    0.0018645089
      4438.54       1.1434675    0.0018640574
      4442.97       1.1480060    0.0018638021
      4447.42       1.1526767    0.0018637541
      4451.86       1.1583395    0.0018639222
      4456.32       1.1650027    0.0019127287
      4460.77       1.1732039    0.0018746322
      4465.24       1.1807016    0.0018733379
      4469.70       1.1880540    0.0018722449
      4474.17       1.1959570    0.0018714054
      4478.65       1.2033721    0.0018708068
      4483.12       1.2097703    0.0018704550
      4487.61       1.2154948    0.0018703555
      4492.09       1.2212372    0.0018705068
      4496.59       1.2259436    0.0018709198
      4501.08       1.2286789    0.0018344029
      4505.58       1.2305750    0.0018817324
      4510.09       1.2316894    0.0018805690
      4514.60       1.2323542    0.0018796927
      4519.12       1.2324505    0.0018791119
      4523.63       1.2319247    0.0018788302
      4528.16       1.2314083    0.0018788381
      4532.69       1.2312608    0.0018791153
      4537.22       1.2307541    0.0018425103
      4541.76       1.2294554    0.0018434485
      4546.30       1.2286718    0.0018446717
      4550.85       1.2276760    0.0018897509
      4555.40       1.2270127    0.0018890628
      4559.95       1.2269855    0.0018887278
      4564.51       1.2270649    0.0018887311
      4569.08       1.2297037    0.0018516563
      4573.65       1.2333215    0.0018524240
      4578.22       1.2368795    0.0018535067
      4582.80       1.2401577    0.0018549113
      4587.38       1.2435473    0.0018566539
      4591.97       1.2472153    0.0018999658
      4596.56       1.2493414    0.0018997466
      4601.16       1.2499631    0.0018999299
      4605.76       1.2498352    0.0018629711
      4610.37       1.2488739    0.0018640060
      4614.98       1.2462238    0.0018654023
      4619.59       1.2422073    0.0018671726
      4624.21       1.2368435    0.0018693249
      4628.84       1.2295749    0.0019117853
      4633.47       1.2219562    0.0018740893
      4638.10       1.2141843    0.0018747910
      4642.74       1.2051103    0.0018758931
      4647.38       1.1952828    0.0018774021
      4652.03       1.1853227    0.0018793274
      4656.68       1.1762167    0.0018816842
      4661.34       1.1672907    0.0019246196
      4666.00       1.1592747    0.0018868759
      4670.67       1.1529533    0.0018877454
      4675.33       1.1466836    0.0018890637
      4680.01       1.1412873    0.0018908348
      4684.69       1.1358980    0.0018930729
      4689.38       1.1314471    0.0018957930
      4694.07       1.1290787    0.0018554743
      4698.76       1.1276511    0.0019006634
      4703.46       1.1268875    0.0019018744
      4708.16       1.1276172    0.0019035841
      4712.87       1.1296163    0.0019058005
      4717.58       1.1325326    0.0019085408
      4722.30       1.1365804    0.0018688884
      4727.03       1.1423944    0.0019144354
      4731.75       1.1464707    0.0019156484
      4736.48       1.1509861    0.0019174057
      4741.22       1.1561055    0.0019197214
      4745.96       1.1602916    0.0018826692
      4750.71       1.1645945    0.0018829285
      4755.46       1.1693845    0.0018837222
      4760.22       1.1745327    0.0019302946
      4764.97       1.1780928    0.0019322270
      4769.74       1.1816733    0.0019347641
      4774.51       1.1834882    0.0018971421
      4779.29       1.1857555    0.0018975566
      4784.07       1.1877695    0.0018985655
      4788.85       1.1892627    0.0019458172
      4793.64       1.1899482    0.0019480755
      4798.43       1.1904742    0.0019120149
      4803.23       1.1923290    0.0019121175
      4808.03       1.1940304    0.0019128505
      4812.84       1.1970326    0.0019142242
      4817.66       1.2008994    0.0019623325
      4822.48       1.2054850    0.0019273579
      4827.30       1.2115563    0.0019272103
      4832.12       1.2183602    0.0019277455
      4836.96       1.2250717    0.0019289690
      4841.79       1.2333577    0.0019773791
      4846.63       1.2441760    0.0019430292
      4851.48       1.2533092    0.0019427059
      4856.33       1.2620813    0.0019431361
      4861.19       1.2701576    0.0019442959
      4866.05       1.2774261    0.0019461964
      4870.92       1.2863113    0.0019588983
      4875.79       1.2931641    0.0019585110
      4880.66       1.2986865    0.0019589301
      4885.55       1.3028750    0.0019601328
      4890.43       1.3062510    0.0019621272
      4895.32       1.3071841    0.0019749271
      4900.22       1.3086493    0.0019745926
      4905.12       1.3100286    0.0019751073
      4910.02       1.3109683    0.0019764673
      4914.94       1.3115867    0.0019432393
      4919.85       1.3121792    0.0019910918
      4924.77       1.3137102    0.0019909370
      4929.70       1.3153156    0.0019916916
      4934.62       1.3170289    0.0019933425
      4939.56       1.3195896    0.0019601882
      4944.50       1.3213140    0.0020074575
      4949.44       1.3236714    0.0020076283
      4954.39       1.3263171    0.0020087603
      4959.35       1.3300709    0.0019748906
      4964.31       1.3339130    0.0019778796
      4969.27       1.3379626    0.0020241333
      4974.24       1.3427980    0.0020247917
      4979.22       1.3482295    0.0019902158
      4984.20       1.3538273    0.0019928889
      4989.18       1.3595203    0.0019964571
      4994.17       1.3659658    0.0020413010
      4999.16       1.3726410    0.0020060544
      5004.16       1.3800811    0.0020084654
      5009.17       1.3872332    0.0020118174
      5014.18       1.3946859    0.0020581705
      5019.19       1.4037537    0.0020591617
      5024.21       1.4132154    0.0020245134
      5029.23       1.4213645    0.0020277111
      5034.26       1.4304078    0.0020319102
      5039.30       1.4389265    0.0020389090
      5044.34       1.4470492    0.0020409753
      5049.39       1.4552535    0.0020440876
      5054.43       1.4643298    0.0020482502
      5059.49       1.4715824    0.0020558004
      5064.55       1.4803072    0.0020578115
      5069.61       1.4900613    0.0020609087
      5074.68       1.4996308    0.0020651093
      5079.76       1.5098221    0.0020729424
      5084.84       1.5199263    0.0020749731
      5089.92       1.5307312    0.0020781408
      5095.01       1.5421061    0.0020824666
      5100.11       1.5538456    0.0020903155
      5105.21       1.5651643    0.0020924512
      5110.31       1.5768393    0.0020957942
      5115.42       1.5891051    0.0021003296
      5120.54       1.6006004    0.0020618959
      5125.66       1.6125132    0.0021102747
      5130.79       1.6248942    0.0021138624
      5135.92       1.6354831    0.0020779542
      5141.05       1.6459187    0.0020793764
      5146.20       1.6566128    0.0021284601
      5151.34       1.6682978    0.0021324340
      5156.49       1.6794785    0.0020953992
      5161.65       1.6900868    0.0021439928
      5166.81       1.7014586    0.0021470580
      5171.98       1.7130164    0.0021122287
      5177.15       1.7241691    0.0021131184
      5182.33       1.7349014    0.0021625801
      5187.51       1.7469072    0.0021661963
      5192.70       1.7588298    0.0021297911
      5197.89       1.7695127    0.0021311877
      5203.09       1.7808842    0.0021816499
      5208.29       1.7922707    0.0021470392
      5213.50       1.8041629    0.0021476614
      5218.72       1.8165501    0.0021497266
      5223.93       1.8294215    0.0022013447
      5229.16       1.8409007    0.0021646772
      5234.39       1.8523698    0.0021660252
      5239.62       1.8641922    0.0022173434
      5244.86       1.8765822    0.0021821365
      5250.11       1.8896735    0.0021827967
      5255.36       1.9027092    0.0021850043
      5260.61       1.9153118    0.0021999815
      5265.87       1.9284963    0.0021999742
      5271.14       1.9412525    0.0022015834
      5276.41       1.9538109    0.0022048074
      5281.69       1.9654845    0.0022174851
      5286.97       1.9769928    0.0022185244
      5292.26       1.9883789    0.0022212421
      5297.55       1.9985251    0.0022352497
      5302.85       2.0090271    0.0022357569
      5308.15       2.0192669    0.0022380110
      5313.46       2.0311048    0.0022532184
      5318.77       2.0418462    0.0022532304
      5324.09       2.0513153    0.0022550645
      5329.42       2.0598593    0.0022216094
      5334.75       2.0677753    0.0022708964
      5340.08       2.0757364    0.0022723459
      5345.42       2.0842890    0.0022383163
      5350.77       2.0936222    0.0022886997
      5356.12       2.1032680    0.0022898278
      5361.48       2.1118052    0.0022552653
      5366.83       2.1207692    0.0023065997
      5372.20       2.1279335    0.0023074639
      5377.58       2.1343742    0.0022724223
      5382.95       2.1383608    0.0022771477
      5388.34       2.1417732    0.0023252306
      5393.72       2.1464705    0.0022897691
      5399.12       2.1474195    0.0022944420
      5404.52       2.1473959    0.0023430961
      5409.92       2.1452752    0.0023072866
      5415.33       2.1424332    0.0023119641
      5420.75       2.1370377    0.0023610463
      5426.17       2.1285553    0.0023249603
      5431.60       2.1203796    0.0023297135
      5437.03       2.1103520    0.0023790811
      5442.47       2.1026254    0.0023427964
      5447.91       2.0946412    0.0023476970
      5453.36       2.0866771    0.0023577349
      5458.81       2.0797416    0.0023607941
      5464.27       2.0723132    0.0023659151
      5469.73       2.0599950    0.0023756788
      5475.20       2.0466922    0.0023789708
      5480.68       2.0324036    0.0023843882
      5486.16       2.0185638    0.0023937361
      5491.65       2.0104526    0.0023973482
      5497.14       1.9999451    0.0024031519
      5502.64       1.9869902    0.0024119429
      5508.14       1.9728305    0.0024159603
      5513.65       1.9568443    0.0023787016
      5519.16       1.9398141    0.0024303207
      5524.68       1.9244921    0.0024348352
      5530.20       1.9077308    0.0023964441
      5535.73       1.8916775    0.0024489279
      5541.27       1.8782662    0.0024540301
      5546.81       1.8659340    0.0024143533
      5552.36       1.8551011    0.0024678049
      5557.91       1.8448896    0.0024308261
      5563.47       1.8377347    0.0024829447
      5569.04       1.8278519    0.0024870198
      5574.60       1.8171973    0.0024485394
      5580.18       1.8077818    0.0025017413
      5585.76       1.8031644    0.0025066488
      5591.35       1.8037673    0.0024665086
      5596.94       1.8093709    0.0025209136
      5602.53       1.8077879    0.0024832269
      5608.14       1.8068579    0.0024848225
      5613.75       1.8062752    0.0025405630
      5619.36       1.8036040    0.0025009947
      5624.98       1.8032526    0.0025554673
      5630.60       1.8032998    0.0025181907
      5636.23       1.8023024    0.0025191788
      5641.87       1.8008355    0.0025751359
      5647.51       1.8015308    0.0025357491
      5653.16       1.8023704    0.0025378851
      5658.82       1.8055784    0.0025532451
      5664.47       1.8086101    0.0025538271
      5670.14       1.8114176    0.0026102310
      5675.81       1.8158401    0.0025706238
      5681.48       1.8201677    0.0025725422
      5687.17       1.8257891    0.0025882517
      5692.85       1.8300143    0.0025886523
      5698.55       1.8352959    0.0025524469
      5704.25       1.8401412    0.0026055246
      5709.95       1.8426899    0.0026074707
      5715.66       1.8456058    0.0026231331
      5721.38       1.8486809    0.0026236209
      5727.10       1.8521275    0.0025871128
      5732.83       1.8570358    0.0026404554
      5738.56       1.8616442    0.0026426901
      5744.30       1.8654501    0.0026579112
      5750.04       1.8683200    0.0026587670
      5755.79       1.8707106    0.0026222023
      5761.55       1.8741035    0.0026754303
      5767.31       1.8784095    0.0026374527
      5773.08       1.8805456    0.0026928667
      5778.85       1.8799371    0.0026946033
      5784.63       1.8789425    0.0026588131
      5790.41       1.8768952    0.0027115652
      5796.21       1.8719430    0.0026743626
      5802.00       1.8668990    0.0027297111
      5807.81       1.8592275    0.0026922836
      5813.61       1.8500220    0.0027512368
      5819.43       1.8421844    0.0027129477
      5825.25       1.8345603    0.0027196280
      5831.07       1.8267925    0.0027767300
      5836.90       1.8201347    0.0027410443
      5842.74       1.8130582    0.0027993357
      5848.58       1.8068034    0.0027603095
      5854.43       1.7987288    0.0027673853
      5860.29       1.7885341    0.0027775912
      5866.15       1.7794067    0.0027831550
      5872.01       1.7713669    0.0027931290
      5877.89       1.7624135    0.0027974115
      5883.76       1.7537322    0.0028084957
      5889.65       1.7453638    0.0028122085
      5895.54       1.7361206    0.0027708371
      5901.43       1.7264780    0.0028264935
      5907.34       1.7172377    0.0028324168
      5913.24       1.7090559    0.0028396035
      5919.16       1.7017396    0.0028446898
      5925.08       1.6952190    0.0028526575
      5931.00       1.6896455    0.0028566279
      5936.93       1.6850423    0.0028647863
      5942.87       1.6807587    0.0028686203
      5948.81       1.6764904    0.0028247658
      5954.76       1.6733997    0.0028819341
      5960.72       1.6692433    0.0028382623
      5966.68       1.6635552    0.0028952980
      5972.64       1.6577542    0.0028527708
      5978.62       1.6528560    0.0029102196
      5984.60       1.6477774    0.0028682991
      5990.58       1.6422858    0.0029258010
      5996.57       1.6377093    0.0028843584
      6002.57       1.6318964    0.0029419093
      6008.57       1.6237103    0.0029005804
      6014.58       1.6162789    0.0029581200
      6020.60       1.6093825    0.0029169082
      6026.62       1.6027857    0.0029183635
      6032.65       1.5956399    0.0029333772
      6038.68       1.5884746    0.0029345405
      6044.72       1.5817379    0.0029498346
      6050.76       1.5752014    0.0029507351
      6056.81       1.5685483    0.0029662514
      6062.87       1.5631066    0.0029669503
      6068.93       1.5586343    0.0029826438
      6075.00       1.5543770    0.0029831729
      6081.08       1.5501878    0.0029989769
      6087.16       1.5467661    0.0029994080
      6093.25       1.5446830    0.0030152805
      6099.34       1.5418956    0.0030156462
      6105.44       1.5388508    0.0030315136
      6111.54       1.5356533    0.0030318897
      6117.66       1.5323248    0.0030477010
      6123.78       1.5296617    0.0030481369
      6129.90       1.5265818    0.0030638407
      6136.03       1.5237781    0.0030643889
      6142.17       1.5204782    0.0030799229
      6148.31       1.5188769    0.0030806791
      6154.46       1.5179570    0.0030962627
      6160.61       1.5177452    0.0030978310
      6166.77       1.5180944    0.0031147002
      6172.94       1.5197249    0.0030714347
      6179.11       1.5195347    0.0031309915
      6185.29       1.5176450    0.0030901603
      6191.48       1.5175553    0.0031532563
      6197.67       1.5166926    0.0031154955
      6203.87       1.5194578    0.0031820676
      6210.07       1.5232310    0.0031457323
      6216.28       1.5279557    0.0032135970
      6222.50       1.5351861    0.0031759232
      6228.72       1.5434553    0.0032416781
      6234.95       1.5549031    0.0032006201
      6241.19       1.5655812    0.0032129531
      6247.42       1.5773394    0.0032162298
      6253.67       1.5913191    0.0032219610
      6259.93       1.6052014    0.0032235362
      6266.19       1.6224969    0.0032258943
      6272.46       1.6375242    0.0032284070
      6278.73       1.6538444    0.0032334874
      6285.01       1.6684892    0.0032391290
      6291.29       1.6819329    0.0032436341
      6297.58       1.6904585    0.0032523145
      6303.88       1.7009803    0.0032544696
      6310.19       1.7105633    0.0032637376
      6316.50       1.7210537    0.0032667661
      6322.81       1.7331874    0.0032762922
      6329.14       1.7440386    0.0032812284
      6335.47       1.7552990    0.0032899869
      6341.80       1.7664026    0.0032449355
      6348.14       1.7773268    0.0033050816
      6354.49       1.7871829    0.0032593477
      6360.85       1.7963405    0.0033214857
      6367.21       1.8067023    0.0033332792
      6373.57       1.8151917    0.0033386570
      6379.95       1.8228547    0.0033502936
      6386.33       1.8297372    0.0033070825
      6392.72       1.8354855    0.0033705271
      6399.11       1.8402450    0.0033274757
      6405.51       1.8450563    0.0033932345
      6411.92       1.8485460    0.0033472245
      6418.32       1.8502232    0.0033645464
      6424.74       1.8520691    0.0034274727
      6431.17       1.8532718    0.0033815947
      6437.60       1.8544930    0.0034453148
      6444.04       1.8559541    0.0033960862
      6450.48       1.8569712    0.0034099335
      6456.94       1.8567454    0.0034090900
      6463.39       1.8560177    0.0034214740
      6469.85       1.8546928    0.0034838941
      6476.33       1.8529824    0.0034348773
      6482.80       1.8517780    0.0034501182
      6489.28       1.8503671    0.0034491258
      6495.77       1.8476802    0.0034616545
      6502.27       1.8439836    0.0034622763
      6508.77       1.8400899    0.0034727347
      6515.28       1.8371981    0.0034869507
      6521.80       1.8328412    0.0034857567
      6528.32       1.8279611    0.0034975200
      6534.85       1.8233180    0.0034501757
      6541.38       1.8170920    0.0035085384
      6547.92       1.8111188    0.0035228444
      6554.47       1.8043692    0.0035223332
      6561.03       1.7977941    0.0035354707
      6567.59       1.7900938    0.0034895116
      6574.16       1.7817317    0.0035494591
      6580.73       1.7717797    0.0035639633
      6587.31       1.7621656    0.0035159484
      6593.90       1.7529211    0.0035772078
      6600.50       1.7443973    0.0035318918
      6607.10       1.7363745    0.0035427373
      6613.70       1.7276110    0.0036054630
      6620.32       1.7185822    0.0035583552
      6626.94       1.7091152    0.0036193536
      6633.57       1.7009572    0.0035751007
      6640.20       1.6933375    0.0035849719
      6646.84       1.6837531    0.0036470542
      6653.49       1.6755854    0.0036012580
      6660.14       1.6678350    0.0036116940
      6666.80       1.6602277    0.0036747616
      6673.47       1.6536950    0.0036275497
      6680.14       1.6490581    0.0036384488
      6686.82       1.6444716    0.0036448721
      6693.51       1.6402858    0.0036539335
      6700.20       1.6356328    0.0036651792
      6706.90       1.6295616    0.0036709522
      6713.61       1.6237091    0.0036803092
      6720.32       1.6170004    0.0036918328
      6727.05       1.6085399    0.0036971317
      6733.77       1.5956897    0.0037078663
      6740.51       1.5891748    0.0037298284
      6747.25       1.5869038    0.0037438125
      6754.00       1.5879644    0.0037595763
      6760.75       1.5835604    0.0037022076
      6767.51       1.5754639    0.0037772444
      6774.28       1.5667291    0.0038142924
      6781.05       1.5563405    0.0038034963
      6787.84       1.5437453    0.0038768538
      6794.62       1.5326841    0.0039876640
      6801.42       1.5191013    0.0039950716
      6808.22       1.5088043    0.0040762617
      6815.03       1.4989618    0.0041911575
      6821.85       1.4867861    0.0041584615
      6828.67       1.4738059    0.0041838264
      6835.50       1.4597155    0.0042542204
      6842.33       1.4483817    0.0041595667
      6849.17       1.4348254    0.0041204167
      6856.02       1.4226449    0.0041500722
      6862.88       1.4185201    0.0040470707
      6869.74       1.4243893    0.0040212929
      6876.61       1.4334227    0.0040156521
      6883.49       1.4341385    0.0039978323
      6890.37       1.4321738    0.0039735108
      6897.27       1.4333506    0.0039674714
      6904.16       1.4337921    0.0039595297
      6911.07       1.4333628    0.0039555888
      6917.98       1.4318129    0.0039566832
      6924.89       1.4294224    0.0039639828
      6931.82       1.4276143    0.0039591820
      6938.75       1.4280448    0.0039694359
      6945.69       1.4272562    0.0039825445
      6952.64       1.4242778    0.0039279769
      6959.59       1.4224729    0.0039893974
      6966.55       1.4193256    0.0039974351
      6973.52       1.4153203    0.0039421083
      6980.49       1.4118387    0.0039989807
      6987.47       1.4093532    0.0040062885
      6994.46       1.4059827    0.0039541939
      7001.46       1.4031593    0.0039596494
      7008.46       1.4004251    0.0040191605
      7015.46       1.3977426    0.0040279650
      7022.48       1.3955835    0.0039751188
      7029.51       1.3949416    0.0039834924
      7036.53       1.3922905    0.0040462987
      7043.57       1.3907991    0.0040022600
      7050.62       1.3903190    0.0040155181
      7057.66       1.3854934    0.0040310897
      7064.72       1.3776791    0.0040988071
      7071.79       1.3661303    0.0040601768
      7078.86       1.3504004    0.0040889232
      7085.94       1.3302583    0.0041315318
      7093.03       1.3139589    0.0042347265
      7100.12       1.2976148    0.0042201014
      7107.22       1.2804016    0.0042840286
      7114.33       1.2635546    0.0043390488
      7121.44       1.2473440    0.0043033776
      7128.56       1.2304587    0.0043943629
      7135.69       1.2173866    0.0044149771
      7142.83       1.2061093    0.0044261433
      7149.97       1.1951414    0.0043601707
      7157.12       1.1859164    0.0044245009
      7164.28       1.1818246    0.0044216634
      7171.44       1.1799343    0.0044271417
      7178.62       1.1757023    0.0043719740
      7185.80       1.1731503    0.0043897564
      7192.98       1.1673801    0.0044626033
      7200.17       1.1596648    0.0044721428
      7207.38       1.1515443    0.0044094558
      7214.58       1.1426259    0.0044040198
      7221.80       1.1341553    0.0044573197
      7229.02       1.1303343    0.0044456446
      7236.25       1.1242408    0.0043698388
      7243.49       1.1170409    0.0043602531
      7250.73       1.1083484    0.0043461251
      7257.98       1.0975583    0.0043935303
      7265.24       1.0871848    0.0043755507
      7272.51       1.0753201    0.0043006625
      7279.78       1.0621406    0.0042915699
      7287.06       1.0476900    0.0042854110
      7294.35       1.0334078    0.0042834564
      7301.64       1.0199432    0.0042749183
      7308.94       1.0051991    0.0042755681
      7316.25      0.98979931    0.0042781683
      7323.57      0.97570843    0.0042805428
      7330.89      0.96215170    0.0042832449
      7338.22      0.94828181    0.0042760429
      7345.56      0.93354831    0.0042786913
      7352.91      0.92219565    0.0042833254
      7360.26      0.91128985    0.0042899425
      7367.62      0.90130009    0.0042344853
      7374.99      0.89154659    0.0042399490
      7382.37      0.88069158    0.0042999322
      7389.75      0.86950709    0.0043076302
      7397.14      0.85780995    0.0043165037
      7404.53      0.84961020    0.0042633501
      7411.94      0.84250525    0.0042702537
      7419.35      0.83410739    0.0042780518
      7426.77      0.82573641    0.0038938091
      7434.20      0.81933715    0.0040096513
      7441.63      0.81334535    0.0040931930
      7449.07      0.80808667    0.0042605658
      7456.52      0.80247062    0.0044766522
      7463.98      0.79842809    0.0047668386
      7471.45      0.79554825    0.0051719064
      7478.92      0.79321531    0.0059681124
      7486.40      0.79167954    0.0069157035
      7493.88      0.79093804    0.0082967943
      7501.38      0.79262369     0.010312678
      7508.88      0.77981757    0.0066162483
      7516.39      0.78025395    0.0069388829
      7523.91      0.77943778    0.0069952803
      7531.43      0.78300565    0.0075257084
      7538.96      0.78653705    0.0080997545
      7546.50      0.78253705    0.0094070917
      7554.05      0.77308121    0.0097805521
      7561.60      0.77068549    0.0098968145
      7569.16      0.76871549    0.0093401149
      7576.73      0.76546520    0.0088844289
      7584.31      0.75772777    0.0083316692
      7591.89      0.75059937    0.0078030845
      7599.49      0.74395066    0.0073669473
      7607.09      0.73779856    0.0071726509
      7614.70      0.74414038     0.010295180
      7622.31      0.73460274    0.0083446710
      7629.93      0.72721791    0.0070038887
      7637.56      0.72024206    0.0060814663
      7645.20      0.71495275    0.0054446082
      7652.85      0.70983037    0.0050776454
      7660.50      0.70521572    0.0048218032
      7668.16      0.70265226    0.0046320465
      7675.83      0.70036975    0.0045364151
      7683.50      0.69972068    0.0045327196
      7691.19      0.70001562    0.0044720523
      7698.88      0.70236148    0.0044745090
      7706.58      0.70383715    0.0044790223
      7714.29      0.70353765    0.0044848563
      7722.00      0.70321489    0.0044918588
      7729.73      0.70426026    0.0044994759
      7737.45      0.70637032    0.0045072120
      7745.19      0.70798919    0.0045152481
      7752.94      0.70902010    0.0044589311
      7760.69      0.71081071    0.0044655832
      7768.45      0.71250449    0.0045261745
      7776.22      0.71549448    0.0045342192
      7784.00      0.71818066    0.0045433832
      7791.78      0.72177588    0.0045532303
      7799.57      0.72440602    0.0045638180
      7807.37      0.72919571    0.0045753208
      7815.18      0.73588344    0.0045871400
      7822.99      0.74150488    0.0045976518
      7830.82      0.74483954    0.0045425486
      7838.65      0.75060912    0.0045490017
      7846.49      0.75614306    0.0045551128
      7854.34      0.75956804    0.0045609819
      7862.19      0.76079821    0.0045665677
      7870.05      0.76232039    0.0045718327
      7877.93      0.76483379    0.0045772120
      7885.80      0.76650962    0.0045831671
      7893.69      0.76661687    0.0045900306
      7901.58      0.76665369    0.0045973497
      7909.49      0.76771958    0.0046043717
      7917.40      0.76868617    0.0046115021
      7925.31      0.76869794    0.0045558564
      7933.24      0.76799073    0.0046209311
      7941.17      0.76898224    0.0046255626
      7949.11      0.77129145    0.0046295484
      7957.06      0.77390597    0.0046338900
      7965.02      0.77429057    0.0046386890
      7972.98      0.77237445    0.0046428752
      7980.96      0.77050443    0.0046468625
      7988.94      0.77091412    0.0046531279
      7996.93      0.76772002    0.0046613336
      8004.93      0.76245183    0.0046724053
      8012.93      0.75682360    0.0046878157
      8020.95      0.75224991    0.0047070204
      8028.97      0.74595075    0.0047308264
      8036.99      0.73695162    0.0047629759
      8045.03      0.72596288    0.0048039043
      8053.08      0.71520028    0.0048515689
      8061.13      0.70502299    0.0049028111
      8069.20      0.69606849    0.0049589670
      8077.26      0.68903392    0.0050181379
      8085.34      0.68442734    0.0049854343
      8093.43      0.67905107    0.0050084286
      8101.52      0.67466089    0.0050193236
      8109.62      0.67136092    0.0050270083
      8117.73      0.67018277    0.0050295596
      8125.85      0.67093991    0.0050277950
      8133.98      0.67515912    0.0050221893
      8142.11      0.68053437    0.0050123649
      8150.25      0.68528461    0.0050006248
      8158.41      0.68955361    0.0049301568
      8166.56      0.69619667    0.0049252457
      8174.73      0.70462192    0.0049194903
      8182.91      0.71415115    0.0049100571
      8191.09      0.72047331    0.0048995160
      8199.28      0.72435562    0.0048874155
      8207.48      0.73104717    0.0048742049
      8215.69      0.74182357    0.0048608460
      8223.91      0.75581604    0.0048546820
      8232.13      0.77106022    0.0048565975
      8240.36      0.78329325    0.0048512682
      8248.60      0.79356517    0.0048301627
      8256.85      0.80599651    0.0048080511
      8265.11      0.82295443    0.0047898895
      8273.37      0.84015163    0.0047731973
      8281.65      0.85549596    0.0047597577
      8289.93      0.87080196    0.0047484693
      8298.22      0.88692028    0.0047359932
      8306.52      0.90326285    0.0047245741
      8314.83      0.92102168    0.0047157709
      8323.14      0.94000114    0.0047099563
      8331.46      0.95872713    0.0047031324
      8339.80      0.97477798    0.0046985106
      8348.13      0.98687304    0.0046949345
      8356.48       1.0022327    0.0046922848
      8364.84       1.0224209    0.0046909734
      8373.21       1.0428432    0.0046900437
      8381.58       1.0590868    0.0046898477
      8389.96       1.0710575    0.0046903262
      8398.35       1.0814677    0.0046910499
      8406.75       1.0937171    0.0046923878
      8415.16       1.1083363    0.0046943370
      8423.57       1.1229274    0.0046963496
      8432.00       1.1310663    0.0046424266
      8440.43       1.1356248    0.0046431813
      8448.87       1.1430730    0.0046435713
      8457.32       1.1551111    0.0046433491
      8465.78       1.1651123    0.0046428368
      8474.25       1.1711676    0.0046421669
      8482.72       1.1738716    0.0046413853
      8491.20       1.1762168    0.0046407356
      8499.69       1.1800161    0.0046994834
      8508.19       1.1863590    0.0046462352
      8516.70       1.1913846    0.0046443937
      8525.22       1.1932654    0.0046428255
      8533.75       1.1939446    0.0046418197
      8542.28       1.1955044    0.0046415466
      8550.82       1.1977136    0.0046417078
      8559.37       1.1982898    0.0046417821
      8567.93       1.1971756    0.0046419511
      8576.50       1.1948912    0.0045905236
      8585.08       1.1930783    0.0045908073
      8593.66       1.1878478    0.0045909786
      8602.26       1.1792186    0.0046464567
      8610.86       1.1712059    0.0046446900
      8619.47       1.1638978    0.0046428690
      8628.09       1.1546295    0.0046410041
      8636.72       1.1450216    0.0045873806
      8645.36       1.1344381    0.0045860506
      8654.00       1.1264303    0.0045850253
      8662.66       1.1177774    0.0045845128
      8671.32       1.1082556    0.0045844268
      8679.99       1.0950818    0.0046375034
      8688.67       1.0845281    0.0046359737
      8697.36       1.0745327    0.0045831947
      8706.06       1.0661130    0.0045823373
      8714.76       1.0574527    0.0045816528
      8723.48       1.0451007    0.0045812042
      8732.21       1.0317193    0.0045809073
      8740.93       1.0178846    0.0045809588
      8749.68       1.0047383    0.0045802517
      8758.43      0.98774512    0.0045791862
      8767.19      0.97021937    0.0045788775
      8775.96      0.95605893    0.0045789753
      8784.73      0.94365089    0.0045801824
      8793.52      0.92974840    0.0045317792
      8802.31      0.91533774    0.0045350103
      8811.11      0.90065692    0.0045391004
      8819.92      0.88746110    0.0046051859
      8828.75      0.87472312    0.0046218582
      8837.57      0.85945509    0.0046421240
      8846.41      0.83890093    0.0046262302
      8855.26      0.82128180    0.0046650866
      8864.12      0.80429681    0.0047122966
      8872.98      0.79061747    0.0048320934
      8881.85      0.77722960    0.0048912600
      8890.73      0.75972345    0.0049109432
      8899.63      0.74462076    0.0049583577
      8908.52      0.73314573    0.0049930110
      8917.43      0.72854546    0.0050085627
      8926.35      0.72705620    0.0050016094
      8935.28      0.72376800    0.0049759078
      8944.22      0.71993461    0.0049449305
      8953.16      0.71489703    0.0049160731
      8962.11      0.71177184    0.0048975660
      8971.08      0.71275345    0.0048400566
      8980.05      0.71542422    0.0048892176
      8989.03      0.71505912    0.0048991217
      8998.02      0.71139413    0.0049178071
      9007.02      0.70405697    0.0048836112
      9016.02      0.69806631    0.0048996143
      9025.04      0.69316659    0.0049726677
      9034.07      0.68715984    0.0049723820
      9043.10      0.67846629    0.0049117042
      9052.14      0.67020082    0.0049044357
      9061.20      0.66506640    0.0048942153
      9070.26      0.66507102    0.0049334743
      9079.33      0.66836696    0.0048531320
      9088.41      0.66885857    0.0048219715
      9097.50      0.66710768    0.0047848126
      9106.60      0.66390275    0.0047878506
      9115.70      0.66659170    0.0046997652
      9124.82      0.67113399    0.0046707694
      9133.94      0.67679340    0.0046523686
      9143.08      0.67973423    0.0046460682
      9152.22      0.67939112    0.0046515362
      9161.37      0.67779156    0.0046729860
      9170.54      0.67458441    0.0047123088
      9179.71      0.66889919    0.0047383700
      9188.89      0.66132430    0.0049017412
      9198.08      0.64787981    0.0050338863
      9207.28      0.63178062    0.0052096793
      9216.48      0.61305546    0.0054400314
      9225.70      0.59335830    0.0058012924
      9234.92      0.57562592    0.0060784029
      9244.16      0.55849294    0.0063448418
      9253.40      0.54248135    0.0065675108
      9262.66      0.52430202    0.0068703005
      9271.92      0.51624986    0.0068276343
      9281.20      0.50975082    0.0067838333
      9290.48      0.50844901    0.0066862084
      9299.77      0.50871895    0.0066113329
      9309.07      0.50612372    0.0063425340
      9318.38      0.50396289    0.0062301435
      9327.69      0.50385414    0.0061595116
      9337.02      0.50374548    0.0061123652
      9346.36      0.50080328    0.0061223858
      9355.71      0.49672932    0.0061461468
      9365.07      0.49224454    0.0061651678
      9374.43      0.48891519    0.0061730146
      9383.80      0.48451613    0.0061631306
      9393.19      0.47891174    0.0060327472
      9402.58      0.47431755    0.0059961543
      9411.98      0.47352805    0.0059321775
      9421.40      0.47619283    0.0058096938
      9430.82      0.47833350    0.0057967034
      9440.25      0.47836496    0.0057397287
      9449.69      0.47643166    0.0056116596
      9459.14      0.47642586    0.0055996484
      9468.60      0.47829442    0.0055382041
      9478.07      0.47804940    0.0053963728
      9487.55      0.47753468    0.0053286983
      9497.04      0.47745933    0.0051762828
      9506.53      0.47918006    0.0050266849
      9516.04      0.48035682    0.0049529693
      9525.56      0.48135507    0.0048030152
      9535.08      0.48459652    0.0046629307
      9544.62      0.49033640    0.0045869947
      9554.16      0.49695571    0.0044340758
      9563.72      0.50045563    0.0042937683
      9573.29      0.50285640    0.0041531681
      9582.85      0.50660380    0.0040775952
      9592.44      0.51326051    0.0039632722
      9602.03      0.51715365    0.0038629503
      9611.63      0.52108935    0.0038202786
      9621.25      0.52407785    0.0037451618
      9630.87      0.52640733    0.0036778519
      9640.50      0.52691171    0.0036154113
      9650.14      0.52726165    0.0035956088
      9659.79      0.52792127    0.0035435007
      9669.45      0.52934152    0.0034902406
      9679.12      0.53068471    0.0034389284
      9688.80      0.53131805    0.0034171371
      9698.49      0.53161460    0.0033596023
      9708.19      0.53286798    0.0032991352
      9717.90      0.53638989    0.0032380246
      9727.62      0.53891622    0.0032088750
      9737.34      0.54063383    0.0031472977
      9747.08      0.54342088    0.0030926703
      9756.83      0.54761473    0.0030557423
      9766.59      0.55292773    0.0030056215
      9776.35      0.55946127    0.0029844376
      9786.13      0.56548399    0.0029395847
      9795.92      0.56949312    0.0028965970
      9805.71      0.57433498    0.0028543153
      9815.52      0.58110631    0.0028145032
      9825.34      0.58706908    0.0027972589
      9835.17      0.59322603    0.0027595130
      9845.00      0.59762620    0.0027244202
      9854.84      0.60128528    0.0026897145
      9864.70      0.60492716    0.0026559343
      9874.56      0.60905383    0.0026418647
      9884.44      0.61266976    0.0026090333
      9894.32      0.61542506    0.0025772004
      9904.22      0.61776264    0.0025458051
      9914.13      0.62046463    0.0025149435
      9924.04      0.62252566    0.0024843548
      9933.96      0.62556280    0.0024724549
      9943.90      0.62860449    0.0024421898
      9953.84      0.63093423    0.0024129049
      9963.79      0.63298032    0.0023833546
      9973.76      0.63539760    0.0023545840
      9983.74      0.63695082    0.0023257953
      9993.72      0.63925590    0.0023247150
