# starting wavelength =        3473.3600
# ending wavelength =        9279.6000
# O2 telluric scale =        0
# O2 telluric shift =        0
# H2O telluric scale =        0
# H2O telluric shift =        0
      3474.45      0.32630195     0.019757067
      3477.92      0.34374526     0.016728252
      3481.40      0.36774875     0.014320517
      3484.88      0.39250948     0.012411565
      3488.37      0.41585080     0.010627354
      3491.86      0.43527929    0.0095158564
      3495.35      0.45721471    0.0086495599
      3498.84      0.47575327    0.0079762056
      3502.34      0.49555796    0.0074558814
      3505.84      0.51701616    0.0071177122
      3509.35      0.53744461    0.0067768354
      3512.86      0.55279369    0.0065071970
      3516.37      0.57411008    0.0062908730
      3519.89      0.59203568    0.0060690248
      3523.41      0.61023776    0.0059276493
      3526.93      0.62820494    0.0058085283
      3530.46      0.64430429    0.0056832042
      3533.99      0.65863260    0.0055903819
      3537.53      0.67208845    0.0055098492
      3541.06      0.68717046    0.0054674773
      3544.60      0.70551465    0.0054484227
      3548.15      0.71416396    0.0054352942
      3551.70      0.72211089    0.0054502601
      3555.25      0.73741361    0.0054367695
      3558.80      0.74737257    0.0054189771
      3562.36      0.75962545    0.0054051509
      3565.92      0.77033469    0.0053919514
      3569.49      0.78161878    0.0054076788
      3573.06      0.79037290    0.0053604312
      3576.64      0.80064436    0.0053756880
      3580.21      0.80778270    0.0053632676
      3583.79      0.81738923    0.0053440444
      3587.38      0.82595159    0.0053313693
      3590.96      0.82998037    0.0053460139
      3594.55      0.82983139    0.0053329869
      3598.15      0.83217571    0.0053147558
      3601.75      0.83705691    0.0053014510
      3605.35      0.84122755    0.0053174253
      3608.96      0.84337039    0.0052701688
      3612.56      0.84303625    0.0052857762
      3616.18      0.84390289    0.0053012860
      3619.79      0.84825079    0.0052543456
      3623.41      0.85544434    0.0052701054
      3627.04      0.85923558    0.0052565961
      3630.66      0.86534277    0.0052391500
      3634.29      0.87007521    0.0052254568
      3637.93      0.86933227    0.0052414450
      3641.57      0.87745764    0.0052291859
      3645.21      0.88085887    0.0052101605
      3648.86      0.88652615    0.0051977146
      3652.50      0.89104378    0.0052129761
      3656.16      0.89168090    0.0051665004
      3659.81      0.89394073    0.0051819363
      3663.47      0.89896438    0.0051985744
      3667.14      0.90028177    0.0051509729
      3670.80      0.90304726    0.0051673410
      3674.48      0.90581052    0.0051551792
      3678.15      0.91220127    0.0051363271
      3681.83      0.91483636    0.0051240190
      3685.51      0.92090037    0.0051396579
      3689.20      0.92824211    0.0051222688
      3692.88      0.93133759    0.0051087614
      3696.58      0.94122448    0.0050915990
      3700.27      0.94497227    0.0050780235
      3703.98      0.94564684    0.0050951523
      3707.68      0.94807212    0.0050770516
      3711.39      0.95012749    0.0050643037
      3715.10      0.95374390    0.0050809389
      3718.81      0.95874522    0.0050335567
      3722.53      0.96317922    0.0050501692
      3726.26      0.96560229    0.0050676830
      3729.98      0.96933375    0.0050195276
      3733.71      0.97504401    0.0050368330
      3737.45      0.97715429    0.0049889590
      3741.18      0.98223617    0.0050061411
      3744.93      0.98283551    0.0050234744
      3748.67      0.98288710    0.0049755546
      3752.42      0.98637789    0.0049927276
      3756.17      0.98818395    0.0049798363
      3759.93      0.98931323    0.0049621954
      3763.69      0.99140382    0.0049801351
      3767.45      0.98902265    0.0049317788
      3771.22      0.98630532    0.0049496598
      3774.99      0.98663363    0.0049674094
      3778.77      0.98440437    0.0049192971
      3782.54      0.98264273    0.0049367605
      3786.33      0.98243626    0.0049200332
      3790.11      0.98164178    0.0049063177
      3793.90      0.98177556    0.0049253058
      3797.70      0.98577381    0.0049072709
      3801.50      0.98328218    0.0048951201
      3805.30      0.98248543    0.0048769311
      3809.10      0.97968763    0.0048957316
      3812.91      0.97799423    0.0048825292
      3816.73      0.97900645    0.0048652607
      3820.54      0.97915627    0.0048843663
      3824.36      0.97854506    0.0048349042
      3828.19      0.98137778    0.0048541907
      3832.02      0.98492303    0.0048364753
      3835.85      0.98728268    0.0048241653
      3839.68      0.98883994    0.0048425228
      3843.52      0.99230229    0.0048255153
      3847.37      0.99861402    0.0048450972
      3851.22       1.0042829    0.0047950846
      3855.07       1.0144214    0.0048149132
      3858.92       1.0230761    0.0047973096
      3862.78       1.0304607    0.0047849543
      3866.64       1.0408036    0.0048040613
      3870.51       1.0519946    0.0047870870
      3874.38       1.0646406    0.0048075561
      3878.26       1.0760336    0.0047566809
      3882.13       1.0841966    0.0047775807
      3886.02       1.0937187    0.0047598469
      3889.90       1.1006377    0.0047479466
      3893.79       1.1065374    0.0047298546
      3897.69       1.1114681    0.0047501951
      3901.59       1.1159211    0.0047338649
      3905.49       1.1211600    0.0047198910
      3909.39       1.1269129    0.0047423064
      3913.30       1.1334489    0.0047242040
      3917.22       1.1386227    0.0047454400
      3921.13       1.1453253    0.0046945673
      3925.06       1.1540861    0.0047152130
      3928.98       1.1603388    0.0046983268
      3932.91       1.1650676    0.0047206933
      3936.84       1.1705749    0.0047031673
      3940.78       1.1764527    0.0046911744
      3944.72       1.1835543    0.0046731270
      3948.67       1.1900304    0.0046952243
      3952.61       1.1962076    0.0046788277
      3956.57       1.2028498    0.0046649318
      3960.52       1.2085820    0.0046479234
      3964.48       1.2181452    0.0046714219
      3968.45       1.2211594    0.0046536976
      3972.42       1.2230542    0.0046771232
      3976.39       1.2251297    0.0046240369
      3980.37       1.2242894    0.0046465476
      3984.35       1.2227700    0.0046298281
      3988.33       1.2230617    0.0046542033
      3992.32       1.2250619    0.0046366430
      3996.31       1.2249720    0.0046613308
      4000.31       1.2227519    0.0046068700
      4004.31       1.2194730    0.0046304942
      4008.31       1.2193965    0.0046137472
      4012.32       1.2171535    0.0046393642
      4016.33       1.2123483    0.0046217154
      4020.35       1.2100815    0.0046474554
      4024.37       1.2089821    0.0045920414
      4028.40       1.2062919    0.0046165939
      4032.42       1.2064337    0.0045996002
      4036.46       1.2070550    0.0045834098
      4040.50       1.2084844    0.0046092806
      4044.54       1.2114150    0.0045921235
      4048.58       1.2169711    0.0046194454
      4052.63       1.2215013    0.0045621049
      4056.68       1.2277840    0.0045881231
      4060.74       1.2361184    0.0045714051
      4064.80       1.2432153    0.0045554012
      4068.86       1.2527886    0.0044977569
      4072.93       1.2612439    0.0045237317
      4077.01       1.2677684    0.0045074311
      4081.08       1.2745263    0.0044513722
      4085.17       1.2818276    0.0044342796
      4089.25       1.2897206    0.0044600102
      4093.34       1.2956388    0.0044055665
      4097.43       1.3010696    0.0043882635
      4101.53       1.3059268    0.0043715896
      4105.63       1.3102802    0.0043970278
      4109.74       1.3160015    0.0043430526
      4113.85       1.3195533    0.0043260348
      4117.96       1.3212906    0.0043095592
      4122.08       1.3262040    0.0042986769
      4126.20       1.3304603    0.0042813396
      4130.33       1.3356605    0.0042645165
      4134.46       1.3398956    0.0042481156
      4138.59       1.3439498    0.0041956170
      4142.73       1.3493706    0.0042202939
      4146.88       1.3585743    0.0042035785
      4151.02       1.3665893    0.0041873381
      4155.18       1.3771646    0.0041354617
      4159.33       1.3894216    0.0041201905
      4163.49       1.4017159    0.0041437081
      4167.65       1.4171998    0.0041275041
      4171.82       1.4293196    0.0040760850
      4175.99       1.4404713    0.0040607399
      4180.17       1.4537513    0.0040457292
      4184.35       1.4662894    0.0040683158
      4188.54       1.4750171    0.0040173081
      4192.72       1.4811674    0.0040018447
      4196.92       1.4873650    0.0039866942
      4201.11       1.4959183    0.0039718518
      4205.31       1.5024742    0.0039231612
      4209.52       1.5100881    0.0039438615
      4213.73       1.5140201    0.0039286441
      4217.94       1.5181898    0.0039136385
      4222.16       1.5228735    0.0038989848
      4226.38       1.5274972    0.0038514524
      4230.61       1.5315636    0.0038361998
      4234.84       1.5357502    0.0038211866
      4239.08       1.5399074    0.0038416648
      4243.32       1.5440569    0.0038269881
      4247.56       1.5486161    0.0037810303
      4251.81       1.5509436    0.0037659042
      4256.06       1.5536950    0.0037509238
      4260.32       1.5581442    0.0037361713
      4264.58       1.5610188    0.0037216239
      4268.84       1.5625033    0.0036764566
      4273.11       1.5639870    0.0036969923
      4277.38       1.5702725    0.0036821068
      4281.66       1.5772979    0.0036673925
      4285.94       1.5835431    0.0036528417
      4290.23       1.5888686    0.0036384457
      4294.52       1.5912675    0.0035940350
      4298.81       1.5929396    0.0035800322
      4303.11       1.5919931    0.0035661537
      4307.42       1.5896808    0.0035524005
      4311.72       1.5865266    0.0035711282
      4316.04       1.5806428    0.0035568139
      4320.35       1.5726826    0.0035426438
      4324.67       1.5680136    0.0034993168
      4329.00       1.5630733    0.0034855373
      4333.33       1.5601977    0.0034718141
      4337.66       1.5588046    0.0034582698
      4342.00       1.5588183    0.0034447755
      4346.34       1.5592712    0.0034313735
      4350.69       1.5619693    0.0034180585
      4355.04       1.5674869    0.0033767499
      4359.39       1.5758383    0.0033632253
      4363.75       1.5854724    0.0033497902
      4368.12       1.5950258    0.0033663165
      4372.48       1.6053443    0.0033529250
      4376.86       1.6163800    0.0033396030
      4381.23       1.6251990    0.0033263926
      4385.61       1.6302094    0.0033132613
      4390.00       1.6352846    0.0033001957
      4394.39       1.6412562    0.0032871941
      4398.79       1.6472444    0.0032484694
      4403.18       1.6539286    0.0032353618
      4407.59       1.6622940    0.0032223181
      4412.00       1.6708951    0.0032093324
      4416.41       1.6817337    0.0031964019
      4420.82       1.6945769    0.0031835272
      4425.25       1.7059290    0.0031707087
      4429.67       1.7170879    0.0031579445
      4434.10       1.7295301    0.0031452396
      4438.54       1.7417734    0.0031325976
      4442.97       1.7547857    0.0031200307
      4447.42       1.7686907    0.0031075086
      4451.86       1.7821723    0.0030950758
      4456.32       1.7947103    0.0030579956
      4460.77       1.8087026    0.0030457138
      4465.24       1.8198549    0.0030334786
      4469.70       1.8289273    0.0030212899
      4474.17       1.8404335    0.0030091433
      4478.65       1.8488096    0.0029970398
      4483.12       1.8556786    0.0029849481
      4487.61       1.8627701    0.0029729266
      4492.09       1.8685334    0.0029609613
      4496.59       1.8747835    0.0029490493
      4501.08       1.8790879    0.0029371845
      4505.58       1.8854969    0.0029253626
      4510.09       1.8892730    0.0029135791
      4514.60       1.8940337    0.0029018316
      4519.12       1.8996048    0.0028901228
      4523.63       1.9051859    0.0028784378
      4528.16       1.9096825    0.0028668004
      4532.69       1.9107484    0.0028305289
      4537.22       1.9128696    0.0028190762
      4541.76       1.9135972    0.0028076662
      4546.30       1.9134038    0.0027963046
      4550.85       1.9104003    0.0027849972
      4555.40       1.9064574    0.0027737482
      4559.95       1.9025907    0.0027625644
      4564.51       1.8981137    0.0027514498
      4569.08       1.8945888    0.0027404139
      4573.65       1.8904118    0.0027293770
      4578.22       1.8863422    0.0027184279
      4582.80       1.8829295    0.0027075243
      4587.38       1.8787069    0.0026966824
      4591.97       1.8763901    0.0026620626
      4596.56       1.8735160    0.0026511726
      4601.16       1.8691592    0.0026403586
      4605.76       1.8648622    0.0026296165
      4610.37       1.8599717    0.0026189461
      4614.98       1.8524037    0.0026083403
      4619.59       1.8419492    0.0025978009
      4624.21       1.8317049    0.0026073932
      4628.84       1.8176417    0.0025969062
      4633.47       1.8011691    0.0025645563
      4638.10       1.7835218    0.0025539507
      4642.74       1.7667980    0.0025434120
      4647.38       1.7508397    0.0025329457
      4652.03       1.7353612    0.0025225492
      4656.68       1.7187002    0.0025122325
      4661.34       1.7008816    0.0025020006
      4666.00       1.6846134    0.0024709492
      4670.67       1.6695574    0.0024609884
      4675.33       1.6554130    0.0024511275
      4680.01       1.6415642    0.0024413731
      4684.69       1.6290606    0.0024496060
      4689.38       1.6175198    0.0024395232
      4694.07       1.6097860    0.0024295392
      4698.76       1.6040082    0.0023993488
      4703.46       1.5964246    0.0023896592
      4708.16       1.5894079    0.0023800501
      4712.87       1.5804266    0.0023705670
      4717.58       1.5713691    0.0023612109
      4722.30       1.5593174    0.0023314903
      4727.03       1.5479245    0.0023394070
      4731.75       1.5382039    0.0023299391
      4736.48       1.5271712    0.0023205918
      4741.22       1.5173139    0.0023113652
      4745.96       1.5073079    0.0023022623
      4750.71       1.4975461    0.0022733999
      4755.46       1.4914825    0.0022641062
      4760.22       1.4859436    0.0022549392
      4764.97       1.4825068    0.0022627496
      4769.74       1.4810274    0.0022350679
      4774.51       1.4814709    0.0022257791
      4779.29       1.4840362    0.0022166332
      4784.07       1.4897197    0.0022076398
      4788.85       1.4955158    0.0021988050
      4793.64       1.5005782    0.0021883175
      4798.43       1.5065199    0.0021792531
      4803.23       1.5118604    0.0021703577
      4808.03       1.5167788    0.0021615393
      4812.84       1.5211643    0.0021354036
      4817.66       1.5263239    0.0021269994
      4822.48       1.5314278    0.0021337267
      4827.30       1.5353036    0.0021250129
      4832.12       1.5392657    0.0020992698
      4836.96       1.5414095    0.0020910099
      4841.79       1.5434376    0.0020829349
      4846.63       1.5455727    0.0020893070
      4851.48       1.5470515    0.0020639776
      4856.33       1.5485071    0.0020558573
      4861.19       1.5502250    0.0020479338
      4866.05       1.5523049    0.0020228561
      4870.92       1.5542264    0.0020293643
      4875.79       1.5571087    0.0020213937
      4880.66       1.5598006    0.0020136270
      4885.55       1.5638002    0.0019889823
      4890.43       1.5676561    0.0019954136
      4895.32       1.5728548    0.0019876340
      4900.22       1.5775349    0.0019636921
      4905.12       1.5839203    0.0019557613
      4910.02       1.5901057    0.0019622193
      4914.94       1.5963418    0.0019546745
      4919.85       1.6031824    0.0019309989
      4924.77       1.6095014    0.0019233145
      4929.70       1.6155726    0.0019297845
      4934.62       1.6227537    0.0019066570
      4939.56       1.6302823    0.0018989888
      4944.50       1.6396426    0.0018915792
      4949.44       1.6485966    0.0018827043
      4954.39       1.6579064    0.0018751143
      4959.35       1.6682057    0.0018677774
      4964.31       1.6776554    0.0018460134
      4969.27       1.6868558    0.0018516513
      4974.24       1.6955665    0.0018298165
      4979.22       1.7044836    0.0018228910
      4984.20       1.7118685    0.0018285496
      4989.18       1.7177246    0.0018070170
      4994.17       1.7254280    0.0018001961
      4999.16       1.7347840    0.0018058125
      5004.16       1.7438262    0.0017845730
      5009.17       1.7539967    0.0017778829
      5014.18       1.7639785    0.0017714832
      5019.19       1.7740301    0.0017625182
      5024.21       1.7851917    0.0017559967
      5029.23       1.7972768    0.0017353593
      5034.26       1.8091445    0.0017409354
      5039.30       1.8215880    0.0017345897
      5044.34       1.8328467    0.0017141121
      5049.39       1.8451895    0.0017197393
      5054.43       1.8568026    0.0016997705
      5059.49       1.8670401    0.0016932429
      5064.55       1.8777224    0.0016989424
      5069.61       1.8886105    0.0016791249
      5074.68       1.8995244    0.0016728432
      5079.76       1.9099034    0.0016653039
      5084.84       1.9197670    0.0016589314
      5089.92       1.9313807    0.0016517474
      5095.01       1.9423862    0.0016452880
      5100.11       1.9527638    0.0016391727
      5105.21       1.9633506    0.0016318608
      5110.31       1.9729905    0.0016256733
      5115.42       1.9830171    0.0016074533
      5120.54       1.9924024    0.0016124126
      5125.66       2.0002262    0.0015942435
      5130.79       2.0064959    0.0015993794
      5135.92       2.0124703    0.0015812715
      5141.05       2.0190642    0.0015757784
      5146.20       2.0262286    0.0015685531
      5151.34       2.0316972    0.0015630558
      5156.49       2.0376188    0.0015560369
      5161.65       2.0419805    0.0015505154
      5166.81       2.0464485    0.0015453575
      5171.98       2.0514910    0.0015381458
      5177.15       2.0543220    0.0015330137
      5182.33       2.0575032    0.0015260187
      5187.51       2.0600697    0.0015209065
      5192.70       2.0611275    0.0015140980
      5197.89       2.0629869    0.0015090145
      5203.09       2.0636353    0.0014920937
      5208.29       2.0650876    0.0014972895
      5213.50       2.0668732    0.0014805706
      5218.72       2.0667427    0.0014857459
      5223.93       2.0670490    0.0014692350
      5229.16       2.0662088    0.0014633397
      5234.39       2.0665945    0.0014580482
      5239.62       2.0678464    0.0014522390
      5244.86       2.0679906    0.0014470181
      5250.11       2.0674704    0.0014413317
      5255.36       2.0662630    0.0014361946
      5260.61       2.0643875    0.0014209153
      5265.87       2.0632813    0.0014255597
      5271.14       2.0624176    0.0014104491
      5276.41       2.0593089    0.0014150602
      5281.69       2.0558783    0.0014001309
      5286.97       2.0505577    0.0013943423
      5292.26       2.0456622    0.0013900174
      5297.55       2.0410907    0.0013842976
      5302.85       2.0356504    0.0013801129
      5308.15       2.0299652    0.0013744290
      5313.46       2.0244288    0.0013703828
      5318.77       2.0175842    0.0013647383
      5324.09       2.0116726    0.0013503688
      5329.42       2.0053384    0.0013552324
      5334.75       2.0010878    0.0013499423
      5340.08       1.9958275    0.0013458948
      5345.42       1.9899620    0.0013406194
      5350.77       1.9839907    0.0013267233
      5356.12       1.9789719    0.0013314888
      5361.48       1.9727079    0.0013176489
      5366.83       1.9665183    0.0013225555
      5372.20       1.9590037    0.0013087862
      5377.58       1.9500702    0.0013041446
      5382.95       1.9409945    0.0013001384
      5388.34       1.9317236    0.0012954708
      5393.72       1.9220735    0.0012910795
      5399.12       1.9111387    0.0012869927
      5404.52       1.8998117    0.0012825754
      5409.92       1.8882500    0.0012696202
      5415.33       1.8760135    0.0012743015
      5420.75       1.8635918    0.0012616658
      5426.17       1.8510958    0.0012662640
      5431.60       1.8383490    0.0012620405
      5437.03       1.8238020    0.0012495081
      5442.47       1.8080780    0.0012541872
      5447.91       1.7926425    0.0012419920
      5453.36       1.7786492    0.0012377238
      5458.81       1.7640961    0.0012336544
      5464.27       1.7483965    0.0012304305
      5469.73       1.7340125    0.0012263074
      5475.20       1.7213003    0.0012143819
      5480.68       1.7077300    0.0012192519
      5486.16       1.6955260    0.0012152958
      5491.65       1.6834153    0.0012035691
      5497.14       1.6717604    0.0012084824
      5502.64       1.6602274    0.0012046608
      5508.14       1.6485700    0.0011931300
      5513.65       1.6389592    0.0011896723
      5519.16       1.6301948    0.0011865455
      5524.68       1.6217089    0.0011830398
      5530.20       1.6121119    0.0011796962
      5535.73       1.6018412    0.0011767338
      5541.27       1.5911425    0.0011733414
      5546.81       1.5815881    0.0011700890
      5552.36       1.5719305    0.0011592919
      5557.91       1.5635240    0.0011639954
      5563.47       1.5534767    0.0011608292
      5569.04       1.5450587    0.0011503012
      5574.60       1.5368442    0.0011471056
      5580.18       1.5289502    0.0011519167
      5585.76       1.5203300    0.0011477240
      5591.35       1.5116012    0.0011360704
      5596.94       1.5036016    0.0011408290
      5602.53       1.4948581    0.0011385038
      5608.14       1.4879868    0.0011292881
      5613.75       1.4816667    0.0011275466
      5619.36       1.4769527    0.0011259121
      5624.98       1.4711980    0.0011247113
      5630.60       1.4649016    0.0011225770
      5636.23       1.4579117    0.0011201578
      5641.87       1.4517528    0.0011175463
      5647.51       1.4456625    0.0011072589
      5653.16       1.4403767    0.0011117899
      5658.82       1.4359314    0.0011082516
      5664.47       1.4315841    0.0011046822
      5670.14       1.4278536    0.0010941495
      5675.81       1.4257450    0.0010910810
      5681.48       1.4233798    0.0010958511
      5687.17       1.4230634    0.0010938990
      5692.85       1.4230861    0.0010855400
      5698.55       1.4236937    0.0010845159
      5704.25       1.4246411    0.0010824836
      5709.95       1.4256380    0.0010734540
      5715.66       1.4288444    0.0010714043
      5721.38       1.4293668    0.0010765030
      5727.10       1.4284348    0.0010745688
      5732.83       1.4268143    0.0010659458
      5738.56       1.4245025    0.0010640065
      5744.30       1.4216327    0.0010621314
      5750.04       1.4180598    0.0010603316
      5755.79       1.4145420    0.0010586064
      5761.55       1.4103316    0.0010573490
      5767.31       1.4062319    0.0010555546
      5773.08       1.4020073    0.0010538954
      5778.85       1.3990753    0.0010522569
      5784.63       1.3959605    0.0010506911
      5790.41       1.3936042    0.0010491811
      5796.21       1.3904828    0.0010410163
      5802.00       1.3862328    0.0010396485
      5807.81       1.3819258    0.0010383913
      5813.61       1.3770785    0.0010372558
      5819.43       1.3744857    0.0010361493
      5825.25       1.3696836    0.0010416546
      5831.07       1.3626489    0.0010337772
      5836.90       1.3556971    0.0010328085
      5842.74       1.3474232    0.0010321627
      5848.58       1.3380687    0.0010318971
      5854.43       1.3290436    0.0010317967
      5860.29       1.3184016    0.0010317323
      5866.15       1.3082730    0.0010318411
      5872.01       1.2971141    0.0010320891
      5877.89       1.2859326    0.0010254455
      5883.76       1.2747709    0.0010250841
      5889.65       1.2633314    0.0010245579
      5895.54       1.2522583    0.0010239459
      5901.43       1.2409608    0.0010231999
      5907.34       1.2285198    0.0010223059
      5913.24       1.2187328    0.0010213790
      5919.16       1.2111936    0.0010205351
      5925.08       1.2055295    0.0010197799
      5931.00       1.2018433    0.0010190254
      5936.93       1.1983867    0.0010117233
      5942.87       1.1959003    0.0010107835
      5948.81       1.1934878    0.0010097745
      5954.76       1.1908027    0.0010087937
      5960.72       1.1897476    0.0010078577
      5966.68       1.1897768    0.0010068324
      5972.64       1.1887179    0.0010057445
      5978.62       1.1870156    0.0010048696
      5984.60       1.1854387    0.0010042478
      5990.58       1.1828296    0.0010036072
      5996.57       1.1802303    0.0010028961
      6002.57       1.1773029    0.0010023430
      6008.57       1.1740002    0.0010019744
      6014.58       1.1707865    0.0010017338
      6020.60       1.1689923    0.0010015573
      6026.62       1.1685812    0.0010014616
      6032.65       1.1698291    0.0010014597
      6038.68       1.1713688    0.0010015002
      6044.72       1.1743419   0.00099553800
      6050.76       1.1777483   0.00099565501
      6056.81       1.1822136   0.00099582090
      6062.87       1.1865696   0.00099602302
      6068.93       1.1920641   0.00099626744
      6075.00       1.1981413   0.00099655001
      6081.08       1.2040967   0.00099686054
      6087.16       1.2084196   0.00099721187
      6093.25       1.2117013   0.00099760418
      6099.34       1.2142832   0.00099803001
      6105.44       1.2163021   0.00099251615
      6111.54       1.2181383   0.00099296211
      6117.66       1.2182553   0.00099344854
      6123.78       1.2172218   0.00099396206
      6129.90       1.2171145   0.00099452979
      6136.03       1.2168579   0.00099513068
      6142.17       1.2167699   0.00099576381
      6148.31       1.2176103   0.00099645255
      6154.46       1.2190843   0.00099138459
      6160.61       1.2204198   0.00099214371
      6166.77       1.2227462   0.00099915850
      6172.94       1.2259032   0.00099990609
      6179.11       1.2302502    0.0010007079
      6185.29       1.2345453    0.0010015528
      6191.48       1.2404521   0.00099671995
      6197.67       1.2466082   0.00099798390
      6203.87       1.2530554   0.00099950913
      6210.07       1.2589213    0.0010006236
      6216.28       1.2638798    0.0010015845
      6222.50       1.2688927   0.00099725137
      6228.72       1.2740229   0.00099934854
      6234.95       1.2779175    0.0010083943
      6241.19       1.2815468    0.0010115804
      6247.42       1.2860986    0.0010151076
      6253.67       1.2899273    0.0010132020
      6259.93       1.2937031    0.0010164864
      6266.19       1.2972025    0.0010194040
      6272.46       1.2991901    0.0010217823
      6278.73       1.2989389    0.0010300834
      6285.01       1.2984989    0.0010248657
      6291.29       1.2985569    0.0010249451
      6297.58       1.2968207    0.0010245725
      6303.88       1.2922493    0.0010240304
      6310.19       1.2866000    0.0010178746
      6316.50       1.2798506    0.0010242605
      6322.81       1.2727903    0.0010249953
      6329.14       1.2634208    0.0010254530
      6335.47       1.2526457    0.0010200585
      6341.80       1.2438532    0.0010209343
      6348.14       1.2362744    0.0010219907
      6354.49       1.2291467    0.0010233484
      6360.85       1.2247310    0.0010245260
      6367.21       1.2223496    0.0010258445
      6373.57       1.2221265    0.0010273137
      6379.95       1.2240276    0.0010292186
      6386.33       1.2266135    0.0010308504
      6392.72       1.2305602    0.0010326348
      6399.11       1.2358179    0.0010286650
      6405.51       1.2415729    0.0010304654
      6411.92       1.2479306    0.0010388406
      6418.32       1.2518756    0.0010352607
      6424.74       1.2539851    0.0010374989
      6431.17       1.2559590    0.0010401014
      6437.60       1.2572262    0.0010440347
      6444.04       1.2578794    0.0010467666
      6450.48       1.2564793    0.0010494287
      6456.94       1.2542906    0.0010465034
      6463.39       1.2516910    0.0010556403
      6469.85       1.2485935    0.0010581171
      6476.33       1.2456920    0.0010547448
      6482.80       1.2427779    0.0010632516
      6489.28       1.2395718    0.0010593298
      6495.77       1.2363132    0.0010611587
      6502.27       1.2319502    0.0010630962
      6508.77       1.2284547    0.0010655812
      6515.28       1.2239004    0.0010677200
      6521.80       1.2183117    0.0010700582
      6528.32       1.2119389    0.0010727752
      6534.85       1.2055987    0.0010748553
      6541.38       1.1997791    0.0010709049
      6547.92       1.1926355    0.0010793110
      6554.47       1.1856571    0.0010755374
      6561.03       1.1788443    0.0010775994
      6567.59       1.1720078    0.0010862476
      6574.16       1.1655823    0.0010822243
      6580.73       1.1589492    0.0010842148
      6587.31       1.1514838    0.0010873302
      6593.90       1.1448521    0.0010895952
      6600.50       1.1378037    0.0010863528
      6607.10       1.1315680    0.0010954077
      6613.70       1.1248150    0.0010922046
      6620.32       1.1179718    0.0011014775
      6626.94       1.1110596    0.0011039857
      6633.57       1.1042115    0.0011008880
      6640.20       1.0957356    0.0011101384
      6646.84       1.0869458    0.0011070373
      6653.49       1.0782382    0.0011098892
      6660.14       1.0700929    0.0011133408
      6666.80       1.0611097    0.0011161943
      6673.47       1.0512648    0.0011197342
      6680.14       1.0423986    0.0011226017
      6686.82       1.0335925    0.0011262196
      6693.51       1.0252183    0.0011291097
      6700.20       1.0172422    0.0011260126
      6706.90       1.0080480    0.0011357379
      6713.61      0.99912673    0.0011326637
      6720.32      0.99130936    0.0011424615
      6727.05      0.98303175    0.0011394039
      6733.77      0.97517883    0.0011434471
      6740.51      0.96681302    0.0011462220
      6747.25      0.95899333    0.0011433888
      6754.00      0.95124138    0.0011531139
      6760.75      0.94225597    0.0011502870
      6767.51      0.93284899    0.0011600831
      6774.28      0.92236311    0.0011575155
      6781.05      0.91278756    0.0011687595
      6787.84      0.90459088    0.0011706021
      6794.62      0.89332568    0.0011765902
      6801.42      0.88332803    0.0011783342
      6808.22      0.87479161    0.0011840928
      6815.03      0.86659683    0.0011929722
      6821.85      0.85856127    0.0012084940
      6828.67      0.85155921    0.0012208138
      6835.50      0.84445800    0.0012478861
      6842.33      0.83853847    0.0012646617
      6849.17      0.83247023    0.0012941916
      6856.02      0.82609248    0.0013076125
      6862.88      0.82031293    0.0013251875
      6869.74      0.81291841    0.0013335892
      6876.61      0.80651899    0.0013369632
      6883.49      0.79866843    0.0013324646
      6890.37      0.78880220    0.0013240867
      6897.27      0.77878475    0.0013114114
      6904.16      0.76849183    0.0012940565
      6911.07      0.75847091    0.0012926397
      6917.98      0.74839018    0.0012830862
      6924.89      0.73653391    0.0012793796
      6931.82      0.72673607    0.0012802801
      6938.75      0.71732397    0.0012711333
      6945.69      0.70782564    0.0012709144
      6952.64      0.69928099    0.0012708657
      6959.59      0.69074470    0.0012715605
      6966.55      0.68327940    0.0012735197
      6973.52      0.67543468    0.0012758221
      6980.49      0.66783819    0.0012795564
      6987.47      0.66000433    0.0012765105
      6994.46      0.65315115    0.0012872671
      7001.46      0.64601401    0.0012911213
      7008.46      0.64015275    0.0012872105
      7015.46      0.63275639    0.0012901625
      7022.48      0.62567246    0.0012994467
      7029.51      0.61971080    0.0012950706
      7036.53      0.61360196    0.0012985532
      7043.57      0.60727143    0.0012947330
      7050.62      0.60103063    0.0013044213
      7057.66      0.59528409    0.0013079926
      7064.72      0.58968523    0.0013044863
      7071.79      0.58371851    0.0013084943
      7078.86      0.57936682    0.0013193822
      7085.94      0.57670428    0.0013249904
      7093.03      0.57182828    0.0013236384
      7100.12      0.56700470    0.0013298199
      7107.22      0.56203672    0.0013365599
      7114.33      0.55798917    0.0013428559
      7121.44      0.55193369    0.0013528730
      7128.56      0.54867011    0.0013660856
      7135.69      0.54491903    0.0013750817
      7142.83      0.54118118    0.0013956239
      7149.97      0.53584307    0.0014219260
      7157.12      0.53051500    0.0014419367
      7164.28      0.52462143    0.0014485444
      7171.44      0.51926146    0.0014611971
      7178.62      0.51249337    0.0014704679
      7185.80      0.50534816    0.0014767796
      7192.98      0.49884434    0.0014791900
      7200.17      0.49191413    0.0014806270
      7207.38      0.48431610    0.0014819839
      7214.58      0.47859474    0.0014850037
      7221.80      0.47202142    0.0014821563
      7229.02      0.46255059    0.0014887228
      7236.25      0.45408688    0.0014954153
      7243.49      0.44547847    0.0015011703
      7250.73      0.43665336    0.0015124766
      7257.98      0.42633886    0.0015053223
      7265.24      0.41876214    0.0015038178
      7272.51      0.41053978    0.0015020235
      7279.78      0.40142193    0.0015009967
      7287.06      0.39172110    0.0014997709
      7294.35      0.38256583    0.0014893888
      7301.64      0.37418734    0.0014858831
      7308.94      0.36633695    0.0014824869
      7316.25      0.35713088    0.0014798583
      7323.57      0.34850319    0.0014784787
      7330.89      0.34152903    0.0014850970
      7338.22      0.33381294    0.0014773470
      7345.56      0.32566458    0.0014785485
      7352.91      0.31939517    0.0014805596
      7360.26      0.31383735    0.0014830782
      7367.62      0.30776987    0.0014854863
      7374.99      0.30125287    0.0014876551
      7382.37      0.29548095    0.0014900685
      7389.75      0.29037042    0.0014851200
      7397.14      0.28488047    0.0014882014
      7404.53      0.28060444    0.0014917188
      7411.94      0.27676022    0.0014955182
      7419.35      0.27288718    0.0014995094
      7426.77      0.26957246    0.0015035625
      7434.20      0.26673849    0.0015078390
      7441.63      0.26376391    0.0015123674
      7449.07      0.26189204    0.0015169651
      7456.52      0.25984663    0.0015215916
      7463.98      0.25944323    0.0015263486
      7471.45      0.25880614    0.0015228908
      7478.92      0.25669323    0.0015277426
      7486.40      0.25553062    0.0015326576
      7493.88      0.25654494    0.0015384658
      7501.38      0.25793704    0.0015450051
      7508.88      0.25890753    0.0015667152
      7516.39      0.25923187    0.0015869305
      7523.91      0.26048291    0.0015909957
      7531.43      0.26318201    0.0015927270
      7538.96      0.26500016    0.0016173355
      7546.50      0.26710873    0.0016643744
      7554.05      0.26967472    0.0017341244
      7561.60      0.27300568    0.0018268649
      7569.16      0.27656923    0.0019397825
      7576.73      0.28028756    0.0020677861
      7584.31      0.28522433    0.0022019843
      7591.89      0.29266749    0.0023233121
      7599.49      0.29925108    0.0024123486
      7607.09      0.30618800    0.0024512082
      7614.70      0.31245479    0.0024310207
      7622.31      0.31756458    0.0023589531
      7629.93      0.32863452    0.0022534009
      7637.56      0.33910342    0.0021350804
      7645.20      0.34761732    0.0020063102
      7652.85      0.35504636    0.0019151093
      7660.50      0.36222678    0.0018488680
      7668.16      0.37141060    0.0017909154
      7675.83      0.38080395    0.0017481993
      7683.50      0.38881028    0.0017259379
      7691.19      0.39699400    0.0017021231
      7698.88      0.40547408    0.0016902295
      7706.58      0.41406190    0.0016810969
      7714.29      0.42191375    0.0016754107
      7722.00      0.42879168    0.0016729439
      7729.73      0.43450467    0.0016654526
      7737.45      0.44114978    0.0016671613
      7745.19      0.44784655    0.0016785131
      7752.94      0.45394556    0.0016823108
      7760.69      0.45872119    0.0016789582
      7768.45      0.46306099    0.0016832915
      7776.22      0.46924724    0.0016878688
      7784.00      0.47362411    0.0016924977
      7791.78      0.47637577    0.0016897160
      7799.57      0.47828012    0.0017032282
      7807.37      0.48227078    0.0017078722
      7815.18      0.48765928    0.0017125834
      7822.99      0.49233419    0.0017100594
      7830.82      0.49613734    0.0017153997
      7838.65      0.50139103    0.0017209685
      7846.49      0.50826530    0.0017355709
      7854.34      0.51524068    0.0017340544
      7862.19      0.51970886    0.0017403686
      7870.05      0.52343639    0.0017464678
      7877.93      0.52876192    0.0017438686
      7885.80      0.53629563    0.0017576304
      7893.69      0.54130494    0.0017622552
      7901.58      0.54392276    0.0017588942
      7909.49      0.54734637    0.0017631870
      7917.40      0.55207466    0.0017674127
      7925.31      0.55481288    0.0017728202
      7933.24      0.55720382    0.0017770395
      7941.17      0.55944839    0.0017815978
      7949.11      0.56230919    0.0017787301
      7957.06      0.56489358    0.0017925420
      7965.02      0.56764308    0.0017972315
      7972.98      0.57093618    0.0017941814
      7980.96      0.57332950    0.0018077940
      7988.94      0.57742504    0.0018039434
      7996.93      0.58101604    0.0018078249
      8004.93      0.58181747    0.0018118905
      8012.93      0.58291002    0.0018169209
      8020.95      0.58517947    0.0018209469
      8028.97      0.58747846    0.0018167685
      8036.99      0.58900121    0.0018302404
      8045.03      0.58793494    0.0018354427
      8053.08      0.58857889    0.0018335069
      8061.13      0.59097251    0.0018504975
      8069.20      0.59265951    0.0018519073
      8077.26      0.59289999    0.0018621962
      8085.34      0.59466415    0.0018786364
      8093.43      0.59799119    0.0018949877
      8101.52      0.59998959    0.0019069091
      8109.62      0.60145635    0.0019387863
      8117.73      0.60407699    0.0019609214
      8125.85      0.60813682    0.0019776916
      8133.98      0.61115434    0.0020103089
      8142.11      0.61366185    0.0020138086
      8150.25      0.61567355    0.0020208058
      8158.41      0.61577336    0.0020275082
      8166.56      0.61703532    0.0020314269
      8174.73      0.61773605    0.0020340136
      8182.91      0.61966346    0.0020347518
      8191.09      0.62147059    0.0020334175
      8199.28      0.62397502    0.0020312932
      8207.48      0.62632104    0.0020200178
      8215.69      0.62685547    0.0020206810
      8223.91      0.62889217    0.0020211027
      8232.13      0.63255534    0.0020202607
      8240.36      0.63604801    0.0020184456
      8248.60      0.63983720    0.0020159796
      8256.85      0.64129439    0.0020129590
      8265.11      0.64273937    0.0020011313
      8273.37      0.64522075    0.0020094635
      8281.65      0.64684717    0.0020034369
      8289.93      0.64856229    0.0020051045
      8298.22      0.64818800    0.0020000770
      8306.52      0.64569841    0.0019924054
      8314.83      0.64137624    0.0019876440
      8323.14      0.63981115    0.0019825208
      8331.46      0.63751267    0.0019700607
      8339.80      0.63296873    0.0019767435
      8348.13      0.62445260    0.0019650095
      8356.48      0.61804642    0.0019624416
      8364.84      0.61206338    0.0019608374
      8373.21      0.60575184    0.0019606763
      8381.58      0.59878999    0.0019615809
      8389.96      0.59197250    0.0019616091
      8398.35      0.58695248    0.0019626313
      8406.75      0.58195591    0.0019633856
      8415.16      0.57472012    0.0019653207
      8423.57      0.56578175    0.0019586121
      8432.00      0.55803139    0.0019610298
      8440.43      0.55221157    0.0019632891
      8448.87      0.54749873    0.0019660236
      8457.32      0.54126219    0.0019690954
      8465.78      0.53346287    0.0019717888
      8474.25      0.52659785    0.0019750961
      8482.72      0.52268306    0.0019692714
      8491.20      0.51667947    0.0019809885
      8499.69      0.50959579    0.0019840056
      8508.19      0.50272173    0.0019776237
      8516.70      0.49969336    0.0019802125
      8525.22      0.49797989    0.0019910357
      8533.75      0.49586848    0.0019841175
      8542.28      0.49083096    0.0019863820
      8550.82      0.48627778    0.0019797801
      8559.37      0.48505016    0.0019904159
      8567.93      0.48258596    0.0019926001
      8576.50      0.47816907    0.0019858657
      8585.08      0.47367219    0.0019880360
      8593.66      0.47082654    0.0019905101
      8602.26      0.46844979    0.0019927620
      8610.86      0.46608184    0.0019952994
      8619.47      0.46322939    0.0019977911
      8628.09      0.46002282    0.0020003535
      8636.72      0.45800270    0.0019938471
      8645.36      0.45653539    0.0020046554
      8654.00      0.45290781    0.0020067608
      8662.66      0.45069206    0.0019997357
      8671.32      0.45086608    0.0020016164
      8679.99      0.45357244    0.0020033883
      8688.67      0.45428486    0.0020051255
      8697.36      0.45332077    0.0019979299
      8706.06      0.45130997    0.0019908102
      8714.76      0.44994326    0.0019758912
      8723.48      0.45023843    0.0019614800
      8732.21      0.44893261    0.0019551616
      8740.93      0.44632303    0.0019411966
      8749.68      0.44429118    0.0019276163
      8758.43      0.44233145    0.0019143538
      8767.19      0.43737235    0.0019013549
      8775.96      0.43548920    0.0018954763
      8784.73      0.43606482    0.0018757789
      8793.52      0.43542046    0.0018635990
      8802.31      0.43430657    0.0018519316
      8811.11      0.43389734    0.0018407465
      8819.92      0.43409609    0.0018301111
      8828.75      0.43416915    0.0018262989
      8837.57      0.43496835    0.0018172446
      8846.41      0.43814799    0.0018080090
      8855.26      0.44147519    0.0018002732
      8864.12      0.44329491    0.0017938080
      8872.98      0.44369209    0.0017878749
      8881.85      0.44325849    0.0017847516
      8890.73      0.44383037    0.0017843288
      8899.63      0.44400150    0.0017861711
      8908.52      0.44542033    0.0017914633
      8917.43      0.44661731    0.0017994871
      8926.35      0.44673774    0.0018052377
      8935.28      0.44602106    0.0018132873
      8944.22      0.44576778    0.0018180665
      8953.16      0.44698713    0.0018196601
      8962.11      0.44762635    0.0018183356
      8971.08      0.44902066    0.0018149626
      8980.05      0.44932167    0.0018113238
      8989.03      0.45083279    0.0018053588
      8998.02      0.45380669    0.0017974935
      9007.02      0.45625258    0.0017885530
      9016.02      0.45828088    0.0017743863
      9025.04      0.45989291    0.0017642235
      9034.07      0.46082426    0.0017533682
      9043.10      0.46197860    0.0017435934
      9052.14      0.46386763    0.0017356293
      9061.20      0.46531251    0.0017284697
      9070.26      0.46749868    0.0017222145
      9079.33      0.47039946    0.0017161779
      9088.41      0.47258930    0.0017090341
      9097.50      0.47491598    0.0017012246
      9106.60      0.47683304    0.0016944348
      9115.70      0.47769361    0.0016841346
      9124.82      0.47816555    0.0016848733
      9133.94      0.47838986    0.0017065731
      9143.08      0.47913468    0.0017302398
      9152.22      0.47934148    0.0017617981
      9161.37      0.47906772    0.0017983984
      9170.54      0.47864585    0.0018372685
      9179.71      0.47803659    0.0018955400
      9188.89      0.47828418    0.0019611572
      9198.08      0.47798090    0.0020645524
      9207.28      0.47668849    0.0021818681
      9216.48      0.47575688    0.0023663518
      9225.70      0.47490802    0.0025695077
      9234.92      0.47385133    0.0028798874
      9244.16      0.47217427    0.0032170853
      9253.40      0.46971857    0.0037245378
      9262.66      0.46705483    0.0042744483
      9271.92      0.46257918    0.0050828681
