# starting wavelength =        3651.3700
# ending wavelength =        7401.3800
# O2 telluric scale =        0
# O2 telluric shift =        0
# H2O telluric scale =        0
# H2O telluric shift =        0
      3652.50       1.1710664     0.024134907
      3656.16       1.1725967     0.020449778
      3659.81       1.1748102     0.017513710
      3663.47       1.1762679     0.015582011
      3667.14       1.1767324     0.013696206
      3670.80       1.1765812     0.012215284
      3674.48       1.1725314     0.010872580
      3678.15       1.1701602     0.010024545
      3681.83       1.1636957    0.0093719670
      3685.51       1.1575747    0.0088663584
      3689.20       1.1523707    0.0085197572
      3692.88       1.1436694    0.0081892580
      3696.58       1.1386623    0.0079260648
      3700.27       1.1348461    0.0076592075
      3703.98       1.1285998    0.0074898236
      3707.68       1.1277926    0.0073488715
      3711.39       1.1233039    0.0071969914
      3715.10       1.1180002    0.0070893305
      3718.81       1.1164150    0.0069970794
      3722.53       1.1123496    0.0069742721
      3726.26       1.1109790    0.0069926626
      3729.98       1.1087312    0.0070115737
      3733.71       1.1077111    0.0069532427
      3737.45       1.1068639    0.0069718990
      3741.18       1.1064605    0.0069915048
      3744.93       1.1103819    0.0069683429
      3748.67       1.1132484    0.0069521934
      3752.42       1.1141261    0.0069713435
      3756.17       1.1152959    0.0069490430
      3759.93       1.1179465    0.0069686971
      3763.69       1.1217629    0.0069530937
      3767.45       1.1274919    0.0069294698
      3771.22       1.1370517    0.0069500117
      3774.99       1.1442349    0.0069712529
      3778.77       1.1504297    0.0069106089
      3782.54       1.1649706    0.0069321502
      3786.33       1.1769364    0.0069530740
      3790.11       1.1872491    0.0069309090
      3793.90       1.1964072    0.0069525482
      3797.70       1.2041225    0.0069372631
      3801.50       1.2145486    0.0069135162
      3805.30       1.2226902    0.0069357429
      3809.10       1.2255064    0.0069594209
      3812.91       1.2326646    0.0069362108
      3816.73       1.2380540    0.0069207491
      3820.54       1.2409183    0.0068971953
      3824.36       1.2461183    0.0069204927
      3828.19       1.2497083    0.0069451104
      3832.02       1.2546238    0.0069221033
      3835.85       1.2556999    0.0069469729
      3839.68       1.2614141    0.0069300188
      3843.52       1.2642824    0.0069074952
      3847.37       1.2647161    0.0069333469
      3851.22       1.2656381    0.0069103604
      3855.07       1.2641547    0.0069362550
      3858.92       1.2631515    0.0069628718
      3862.78       1.2644831    0.0068969197
      3866.64       1.2652430    0.0069243591
      3870.51       1.2611265    0.0069011579
      3874.38       1.2612174    0.0069280048
      3878.26       1.2607317    0.0069562669
      3882.13       1.2635112    0.0069333731
      3886.02       1.2626827    0.0069619290
      3889.90       1.2632365    0.0068947176
      3893.79       1.2615924    0.0069223865
      3897.69       1.2637392    0.0069528874
      3901.59       1.2638085    0.0069295768
      3905.49       1.2632582    0.0069588044
      3909.39       1.2630623    0.0069372920
      3913.30       1.2590653    0.0069673862
      3917.22       1.2576442    0.0069983578
      3921.13       1.2603724    0.0069769266
      3925.06       1.2579086    0.0070086106
      3928.98       1.2563726    0.0069369297
      3932.91       1.2600349    0.0069702058
      3936.84       1.2613947    0.0069469360
      3940.78       1.2644250    0.0069793466
      3944.72       1.2702111    0.0070147811
      3948.67       1.2748735    0.0069913452
      3952.61       1.2824974    0.0070254114
      3956.57       1.2924502    0.0070039709
      3960.52       1.3074719    0.0070393742
      3964.48       1.3187612    0.0070167594
      3968.45       1.3278174    0.0070535171
      3972.42       1.3355065    0.0070917225
      3976.39       1.3417095    0.0070686456
      3980.37       1.3441174    0.0071072578
      3984.35       1.3482899    0.0070862892
      3988.33       1.3536436    0.0071248869
      3992.32       1.3597063    0.0070449279
      3996.31       1.3626457    0.0070865303
      4000.31       1.3601559    0.0070629862
      4004.31       1.3597341    0.0071026957
      4008.31       1.3562390    0.0071481874
      4012.32       1.3487298    0.0071238613
      4016.33       1.3422483    0.0071655205
      4020.35       1.3357147    0.0071431787
      4024.37       1.3286336    0.0071903659
      4028.40       1.3184761    0.0071662703
      4032.42       1.3090564    0.0071433470
      4036.46       1.3033520    0.0071883308
      4040.50       1.2985301    0.0071052531
      4044.54       1.2922890    0.0070818083
      4048.58       1.2773981    0.0070591590
      4052.63       1.2717904    0.0070373851
      4056.68       1.2657168    0.0070214573
      4060.74       1.2693605    0.0069984559
      4064.80       1.2685587    0.0069762975
      4068.86       1.2789214    0.0068937135
      4072.93       1.2861590    0.0069392551
      4077.01       1.2927524    0.0069165157
      4081.08       1.3002419    0.0068943986
      4085.17       1.3121662    0.0068127605
      4089.25       1.3174209    0.0067922951
      4093.34       1.3246465    0.0068357538
      4097.43       1.3256242    0.0068138069
      4101.53       1.3258284    0.0067329451
      4105.63       1.3177160    0.0067124361
      4109.74       1.3098087    0.0066925594
      4113.85       1.2980573    0.0066732861
      4117.96       1.2895823    0.0066546164
      4122.08       1.2767453    0.0066341105
      4126.20       1.2654862    0.0066140259
      4130.33       1.2589640    0.0065944126
      4134.46       1.2480162    0.0065753176
      4138.59       1.2396109    0.0064979342
      4142.73       1.2295309    0.0065369236
      4146.88       1.2256998    0.0065172235
      4151.02       1.2183696    0.0064977371
      4155.18       1.2108618    0.0064235458
      4159.33       1.2066512    0.0064032592
      4163.49       1.2011231    0.0063834063
      4167.65       1.1952599    0.0064219881
      4171.82       1.1883310    0.0064028894
      4175.99       1.1815215    0.0063309642
      4180.17       1.1747824    0.0063108491
      4184.35       1.1672844    0.0062912258
      4188.54       1.1596890    0.0062718376
      4192.72       1.1544260    0.0062527927
      4196.92       1.1496342    0.0062340993
      4201.11       1.1460552    0.0062208098
      4205.31       1.1437200    0.0062012927
      4209.52       1.1406053    0.0061819792
      4213.73       1.1368647    0.0061628686
      4217.94       1.1293751    0.0061440595
      4222.16       1.1262287    0.0061256699
      4226.38       1.1225454    0.0060557296
      4230.61       1.1235127    0.0060379259
      4234.84       1.1228505    0.0060202576
      4239.08       1.1241657    0.0060570300
      4243.32       1.1252508    0.0060384550
      4247.56       1.1321047    0.0060202441
      4251.81       1.1364770    0.0059513370
      4256.06       1.1446108    0.0059336574
      4260.32       1.1516402    0.0059160505
      4264.58       1.1585723    0.0058986686
      4268.84       1.1655163    0.0058815507
      4273.11       1.1712891    0.0058646387
      4277.38       1.1751488    0.0058476399
      4281.66       1.1841021    0.0058308315
      4285.94       1.1927715    0.0057646000
      4290.23       1.1991288    0.0057476010
      4294.52       1.2080827    0.0057810107
      4298.81       1.2115022    0.0057639497
      4303.11       1.2209643    0.0057470601
      4307.42       1.2240212    0.0057303371
      4311.72       1.2312102    0.0057137422
      4316.04       1.2381651    0.0056972932
      4320.35       1.2463949    0.0056808829
      4324.67       1.2546762    0.0056189463
      4329.00       1.2641791    0.0056023741
      4333.33       1.2711548    0.0055859018
      4337.66       1.2797431    0.0055694567
      4342.00       1.2842594    0.0055531623
      4346.34       1.2909770    0.0055370118
      4350.69       1.2941475    0.0055208718
      4355.04       1.2954571    0.0055049765
      4359.39       1.2992445    0.0054892083
      4363.75       1.3069025    0.0054734344
      4368.12       1.3165933    0.0054576856
      4372.48       1.3245119    0.0054421480
      4376.86       1.3312327    0.0054266500
      4381.23       1.3338673    0.0053668765
      4385.61       1.3365940    0.0053516367
      4390.00       1.3394019    0.0053364838
      4394.39       1.3462112    0.0053212882
      4398.79       1.3537283    0.0053063308
      4403.18       1.3576074    0.0052914668
      4407.59       1.3609920    0.0052765107
      4412.00       1.3615472    0.0052616234
      4416.41       1.3619396    0.0052470198
      4420.82       1.3666314    0.0052323182
      4425.25       1.3661521    0.0052176912
      4429.67       1.3660891    0.0052031586
      4434.10       1.3656736    0.0051887200
      4438.54       1.3683041    0.0051742567
      4442.97       1.3716421    0.0051599443
      4447.42       1.3743520    0.0051457356
      4451.86       1.3745383    0.0051314609
      4456.32       1.3778900    0.0051172553
      4460.77       1.3800891    0.0050603670
      4465.24       1.3824469    0.0050465554
      4469.70       1.3843170    0.0050327657
      4474.17       1.3872177    0.0050190799
      4478.65       1.3893909    0.0050055791
      4483.12       1.3916553    0.0049919713
      4487.61       1.3914876    0.0049785456
      4492.09       1.3878663    0.0049652301
      4496.59       1.3861886    0.0049519549
      4501.08       1.3858397    0.0049387548
      4505.58       1.3841689    0.0049257297
      4510.09       1.3801921    0.0049127694
      4514.60       1.3784525    0.0048998384
      4519.12       1.3750283    0.0048449000
      4523.63       1.3725557    0.0048319205
      4528.16       1.3713545    0.0048190743
      4532.69       1.3696900    0.0048062728
      4537.22       1.3670075    0.0047936016
      4541.76       1.3655391    0.0047810420
      4546.30       1.3652824    0.0047685060
      4550.85       1.3654623    0.0047941971
      4555.40       1.3625444    0.0047818932
      4559.95       1.3565734    0.0047303755
      4564.51       1.3504608    0.0047176998
      4569.08       1.3445609    0.0047052283
      4573.65       1.3403686    0.0046928346
      4578.22       1.3330015    0.0046806123
      4582.80       1.3259672    0.0046684609
      4587.38       1.3167247    0.0046565276
      4591.97       1.3075835    0.0046069830
      4596.56       1.2992457    0.0045954966
      4601.16       1.2926127    0.0045841076
      4605.76       1.2845553    0.0045728987
      4610.37       1.2815000    0.0045964150
      4614.98       1.2797761    0.0045846455
      4619.59       1.2738242    0.0045730149
      4624.21       1.2701899    0.0045245448
      4628.84       1.2641757    0.0045133972
      4633.47       1.2603900    0.0045024375
      4638.10       1.2529427    0.0044916262
      4642.74       1.2488770    0.0044811285
      4647.38       1.2411894    0.0044328650
      4652.03       1.2360822    0.0044562064
      4656.68       1.2315395    0.0044453255
      4661.34       1.2263838    0.0044347039
      4666.00       1.2227846    0.0044243483
      4670.67       1.2163489    0.0043779054
      4675.33       1.2120401    0.0043670124
      4680.01       1.2060644    0.0043564487
      4684.69       1.2041351    0.0043798872
      4689.38       1.2014553    0.0043697234
      4694.07       1.1972202    0.0043244999
      4698.76       1.1950422    0.0043138818
      4703.46       1.1899689    0.0043035395
      4708.16       1.1835670    0.0042933828
      4712.87       1.1819159    0.0042835290
      4717.58       1.1746794    0.0042725833
      4722.30       1.1675571    0.0042622336
      4727.03       1.1627276    0.0042520579
      4731.75       1.1642166    0.0042422723
      4736.48       1.1583990    0.0041995895
      4741.22       1.1575038    0.0042221171
      4745.96       1.1546808    0.0042120232
      4750.71       1.1530693    0.0042023498
      4755.46       1.1535778    0.0041600680
      4760.22       1.1505542    0.0041511146
      4764.97       1.1483185    0.0041424549
      4769.74       1.1437121    0.0041634250
      4774.51       1.1404606    0.0041216392
      4779.29       1.1370188    0.0041128656
      4784.07       1.1316175    0.0041044192
      4788.85       1.1280920    0.0040931451
      4793.64       1.1199035    0.0040842449
      4798.43       1.1155552    0.0040757435
      4803.23       1.1107416    0.0040675933
      4808.03       1.1071877    0.0040261497
      4812.84       1.1027190    0.0040479938
      4817.66       1.1023335    0.0040398322
      4822.48       1.1016372    0.0039994574
      4827.30       1.0985018    0.0039907998
      4832.12       1.0988926    0.0040127461
      4836.96       1.1003591    0.0039734561
      4841.79       1.0973877    0.0039647218
      4846.63       1.0946314    0.0039564502
      4851.48       1.0906677    0.0039479639
      4856.33       1.0878110    0.0039392726
      4861.19       1.0829975    0.0039310123
      4866.05       1.0804408    0.0038935165
      4870.92       1.0796224    0.0039143963
      4875.79       1.0772885    0.0039062416
      4880.66       1.0764289    0.0038689692
      4885.55       1.0746856    0.0038900897
      4890.43       1.0765362    0.0038819216
      4895.32       1.0796840    0.0038450151
      4900.22       1.0838636    0.0038379844
      4905.12       1.0859575    0.0038581848
      4910.02       1.0904413    0.0038215701
      4914.94       1.0968418    0.0038147195
      4919.85       1.1022403    0.0038349846
      4924.77       1.1068496    0.0037987005
      4929.70       1.1134787    0.0037921024
      4934.62       1.1174052    0.0037834745
      4939.56       1.1246302    0.0037765024
      4944.50       1.1317532    0.0037701038
      4949.44       1.1412576    0.0037614749
      4954.39       1.1511759    0.0037547786
      4959.35       1.1623640    0.0037196788
      4964.31       1.1752024    0.0037400599
      4969.27       1.1861510    0.0037336245
      4974.24       1.1969380    0.0036985656
      4979.22       1.2065907    0.0037191861
      4984.20       1.2150292    0.0036850142
      4989.18       1.2250092    0.0036780341
      4994.17       1.2313565    0.0036989137
      4999.16       1.2383097    0.0036646766
      5004.16       1.2444989    0.0036581818
      5009.17       1.2517530    0.0036516698
      5014.18       1.2565093    0.0036448649
      5019.19       1.2604306    0.0036122188
      5024.21       1.2667231    0.0036320490
      5029.23       1.2744075    0.0035993209
      5034.26       1.2807379    0.0036195104
      5039.30       1.2876492    0.0036130912
      5044.34       1.2962702    0.0035811397
      5049.39       1.3012264    0.0036008002
      5054.43       1.3033384    0.0035687536
      5059.49       1.3072602    0.0035886893
      5064.55       1.3111823    0.0035566158
      5069.61       1.3125104    0.0035515753
      5074.68       1.3139415    0.0035447971
      5079.76       1.3176962    0.0035396429
      5084.84       1.3190987    0.0035332419
      5089.92       1.3175510    0.0035280169
      5095.01       1.3179288    0.0034967786
      5100.11       1.3173802    0.0035166921
      5105.21       1.3159269    0.0034859380
      5110.31       1.3169198    0.0035056444
      5115.42       1.3182338    0.0034750711
      5120.54       1.3198818    0.0034947655
      5125.66       1.3204970    0.0034645317
      5130.79       1.3200995    0.0034592551
      5135.92       1.3175280    0.0034541640
      5141.05       1.3144388    0.0034488727
      5146.20       1.3069231    0.0034439322
      5151.34       1.3022110    0.0034387860
      5156.49       1.3016851    0.0034339912
      5161.65       1.2985535    0.0034288692
      5166.81       1.2919526    0.0034241805
      5171.98       1.2880379    0.0034192042
      5177.15       1.2818539    0.0034145916
      5182.33       1.2726087    0.0033856484
      5187.51       1.2631888    0.0034051673
      5192.70       1.2571162    0.0033764612
      5197.89       1.2482051    0.0033958975
      5203.09       1.2388049    0.0033674372
      5208.29       1.2332326    0.0033868448
      5213.50       1.2271143    0.0033586865
      5218.72       1.2217999    0.0033779827
      5223.93       1.2164080    0.0033501265
      5229.16       1.2113000    0.0033455648
      5234.39       1.2077251    0.0033418636
      5239.62       1.2030660    0.0033372628
      5244.86       1.1994616    0.0033338189
      5250.11       1.1971420    0.0033291466
      5255.36       1.1961113    0.0033019414
      5260.61       1.1931368    0.0033212901
      5265.87       1.1907040    0.0032940038
      5271.14       1.1893519    0.0033136800
      5276.41       1.1852644    0.0032863179
      5281.69       1.1844292    0.0032828053
      5286.97       1.1833337    0.0032789072
      5292.26       1.1827734    0.0032752487
      5297.55       1.1797727    0.0032722169
      5302.85       1.1765610    0.0032679559
      5308.15       1.1721862    0.0032647179
      5313.46       1.1714052    0.0032610309
      5318.77       1.1701096    0.0032576357
      5324.09       1.1674933    0.0032322117
      5329.42       1.1658389    0.0032507991
      5334.75       1.1654386    0.0032477285
      5340.08       1.1600560    0.0032221864
      5345.42       1.1569819    0.0032410324
      5350.77       1.1506045    0.0032161273
      5356.12       1.1423667    0.0032126848
      5361.48       1.1353067    0.0032317126
      5366.83       1.1292016    0.0032068073
      5372.20       1.1205023    0.0032035597
      5377.58       1.1131127    0.0032014132
      5382.95       1.1062859    0.0031979606
      5388.34       1.1016884    0.0031949332
      5393.72       1.0956948    0.0031705022
      5399.12       1.0907074    0.0031895078
      5404.52       1.0828930    0.0031866429
      5409.92       1.0765566    0.0031623289
      5415.33       1.0741432    0.0031814149
      5420.75       1.0678749    0.0031569205
      5426.17       1.0655302    0.0031545436
      5431.60       1.0608800    0.0031525171
      5437.03       1.0565346    0.0031493740
      5442.47       1.0517546    0.0031470904
      5447.91       1.0481910    0.0031451246
      5453.36       1.0445136    0.0031422722
      5458.81       1.0395799    0.0031399743
      5464.27       1.0352296    0.0031380377
      5469.73       1.0323733    0.0031148134
      5475.20       1.0297239    0.0031332658
      5480.68       1.0277388    0.0031312634
      5486.16       1.0266469    0.0031085455
      5491.65       1.0256954    0.0031062918
      5497.14       1.0241509    0.0031248972
      5502.64       1.0218930    0.0031231805
      5508.14       1.0177746    0.0031004481
      5513.65       1.0139580    0.0030984124
      5519.16       1.0080563    0.0030966015
      5524.68       1.0023633    0.0030950603
      5530.20      0.99565383    0.0030929864
      5535.73      0.98947499    0.0030911197
      5541.27      0.98418613    0.0030687612
      5546.81      0.98105754    0.0030672949
      5552.36      0.97853794    0.0030861768
      5557.91      0.97567045    0.0030844299
      5563.47      0.97310619    0.0030621750
      5569.04      0.97048303    0.0030608038
      5574.60      0.96979218    0.0030596148
      5580.18      0.97002947    0.0030783112
      5585.76      0.96778690    0.0030561608
      5591.35      0.96837419    0.0030548133
      5596.94      0.96746466    0.0030536352
      5602.53      0.96884388    0.0030525990
      5608.14      0.96887067    0.0030311854
      5613.75      0.96875901    0.0030494109
      5619.36      0.96894439    0.0030482322
      5624.98      0.96759196    0.0030471712
      5630.60      0.96651807    0.0030462321
      5636.23      0.96579069    0.0030251483
      5641.87      0.96602351    0.0030239568
      5647.51      0.96383276    0.0030228671
      5653.16      0.96328117    0.0030218971
      5658.82      0.96143452    0.0030404838
      5664.47      0.95994210    0.0030199950
      5670.14      0.96070545    0.0030189249
      5675.81      0.95977224    0.0030179181
      5681.48      0.96062191    0.0030170067
      5687.17      0.96017937    0.0030161729
      5692.85      0.95816288    0.0029956243
      5698.55      0.96084473    0.0029949204
      5704.25      0.96107337    0.0029943305
      5709.95      0.96080829    0.0030129988
      5715.66      0.96243161    0.0030124737
      5721.38      0.96072993    0.0030121941
      5727.10      0.95905118    0.0029919991
      5732.83      0.95697441    0.0029916368
      5738.56      0.95066538    0.0029915016
      5744.30      0.94365167    0.0029920059
      5750.04      0.93465583    0.0029935171
      5755.79      0.92612636    0.0029957878
      5761.55      0.91788352    0.0029981331
      5767.31      0.91155340    0.0029807603
      5773.08      0.90595268    0.0029835611
      5778.85      0.90303925    0.0029862738
      5784.63      0.89932934    0.0029879428
      5790.41      0.89499752    0.0029887742
      5796.21      0.89085406    0.0029892095
      5802.00      0.88820835    0.0029892061
      5807.81      0.88624683    0.0029886858
      5813.61      0.88323571    0.0029877812
      5819.43      0.87912669    0.0029868344
      5825.25      0.87866628    0.0029669138
      5831.07      0.87769175    0.0029662861
      5836.90      0.87468274    0.0029654265
      5842.74      0.87261193    0.0029641189
      5848.58      0.86686299    0.0029624892
      5854.43      0.86162988    0.0029606554
      5860.29      0.85818646    0.0029589469
      5866.15      0.85702928    0.0029570684
      5872.01      0.85427263    0.0029547474
      5877.89      0.85411899    0.0029525786
      5883.76      0.85418970    0.0029511264
      5889.65      0.85374986    0.0029499585
      5895.54      0.85373670    0.0029483960
      5901.43      0.85149205    0.0029468795
      5907.34      0.85019490    0.0029458321
      5913.24      0.84786589    0.0029451599
      5919.16      0.84412374    0.0029446401
      5925.08      0.84204619    0.0029442347
      5931.00      0.83830402    0.0029440055
      5936.93      0.83589582    0.0029438932
      5942.87      0.83477289    0.0029437830
      5948.81      0.82970633    0.0029436663
      5954.76      0.82659520    0.0029436095
      5960.72      0.82103894    0.0029436000
      5966.68      0.81453930    0.0029258726
      5972.64      0.81044887    0.0029259053
      5978.62      0.80394540    0.0029259625
      5984.60      0.79693616    0.0029260558
      5990.58      0.79234903    0.0029261385
      5996.57      0.78642987    0.0029262495
      6002.57      0.77884370    0.0029263998
      6008.57      0.77340027    0.0029265473
      6014.58      0.76505649    0.0029267239
      6020.60      0.76056501    0.0029093404
      6026.62      0.75448812    0.0029093777
      6032.65      0.74856281    0.0029094121
      6038.68      0.74579913    0.0029094461
      6044.72      0.74168603    0.0029095280
      6050.76      0.73840536    0.0029096410
      6056.81      0.73877012    0.0029097621
      6062.87      0.73859581    0.0028928121
      6068.93      0.73833244    0.0028930132
      6075.00      0.73952144    0.0028932614
      6081.08      0.74093903    0.0028935398
      6087.16      0.74507474    0.0029113910
      6093.25      0.74678423    0.0029118000
      6099.34      0.75229570    0.0028965444
      6105.44      0.75723397    0.0028978082
      6111.54      0.75961302    0.0028976818
      6117.66      0.76250306    0.0028982006
      6123.78      0.76187795    0.0029004648
      6129.90      0.76436021    0.0028876412
      6136.03      0.76673819    0.0028928740
      6142.17      0.76492256    0.0029175019
      6148.31      0.76485134    0.0029245122
      6154.46      0.76181777    0.0029314067
      6160.61      0.75877054    0.0029206427
      6166.77      0.75597759    0.0029245495
      6172.94      0.75543621    0.0029266338
      6179.11      0.75470981    0.0029266289
      6185.29      0.75015274    0.0029248188
      6191.48      0.75286605    0.0029202849
      6197.67      0.75371060    0.0029147915
      6203.87      0.75535856    0.0029092262
      6210.07      0.75723226    0.0028876893
      6216.28      0.76052320    0.0028850090
      6222.50      0.76306905    0.0029000006
      6228.72      0.76439788    0.0028964661
      6234.95      0.76716454    0.0028768405
      6241.19      0.76846156    0.0028750472
      6247.42      0.77424545    0.0028734772
      6253.67      0.77755775    0.0028887433
      6259.93      0.77923332    0.0028706036
      6266.19      0.78436820    0.0028695448
      6272.46      0.78785182    0.0028688033
      6278.73      0.79315422    0.0028513565
      6285.01      0.79647207    0.0028679535
      6291.29      0.80004081    0.0028678513
      6297.58      0.80134826    0.0028513206
      6303.88      0.80355706    0.0028510687
      6310.19      0.80822430    0.0028683713
      6316.50      0.80677800    0.0028529411
      6322.81      0.80646849    0.0028539717
      6329.14      0.80866322    0.0028559531
      6335.47      0.80775210    0.0028599828
      6341.80      0.80862822    0.0028614154
      6348.14      0.80679682    0.0028627165
      6354.49      0.80632710    0.0028480223
      6360.85      0.80568754    0.0028661991
      6367.21      0.80581344    0.0028664968
      6373.57      0.80570166    0.0028500477
      6379.95      0.80427940    0.0028494318
      6386.33      0.80569781    0.0028643831
      6392.72      0.80760940    0.0028466761
      6399.11      0.80541142    0.0028455489
      6405.51      0.80478370    0.0028445300
      6411.92      0.80344846    0.0028438055
      6418.32      0.80344826    0.0028433480
      6424.74      0.80275546    0.0028422345
      6431.17      0.80065040    0.0028408416
      6437.60      0.79821117    0.0028228660
      6444.04      0.79612719    0.0028373991
      6450.48      0.79559332    0.0028361674
      6456.94      0.79328532    0.0028183981
      6463.39      0.79207607    0.0028326810
      6469.85      0.78845651    0.0028146310
      6476.33      0.78749028    0.0028128509
      6482.80      0.78539765    0.0028122327
      6489.28      0.78164632    0.0028108869
      6495.77      0.77700125    0.0027943139
      6502.27      0.77269096    0.0028094408
      6508.77      0.77051334    0.0028084276
      6515.28      0.76869792    0.0027921582
      6521.80      0.76391610    0.0028069237
      6528.32      0.76482109    0.0027904676
      6534.85      0.76292149    0.0028053516
      6541.38      0.76072257    0.0027887892
      6547.92      0.75784519    0.0027881588
      6554.47      0.75767002    0.0027871092
      6561.03      0.75522399    0.0027862901
      6567.59      0.75284510    0.0027852478
      6574.16      0.75169060    0.0027843003
      6580.73      0.74961649    0.0027675059
      6587.31      0.74756861    0.0027821546
      6593.90      0.74133207    0.0027653537
      6600.50      0.73699258    0.0027798782
      6607.10      0.73117462    0.0027630457
      6613.70      0.72572444    0.0027774392
      6620.32      0.72043006    0.0027605642
      6626.94      0.71381628    0.0027441578
      6633.57      0.70954157    0.0027578930
      6640.20      0.70339478    0.0027414324
      6646.84      0.69793794    0.0027550788
      6653.49      0.69744533    0.0027385416
      6660.14      0.69260505    0.0027521222
      6666.80      0.68941648    0.0027373010
      6673.47      0.68801999    0.0027568189
      6680.14      0.68698590    0.0027519738
      6686.82      0.68306512    0.0027494243
      6693.51      0.68039239    0.0027457622
      6700.20      0.67805699    0.0027537748
      6706.90      0.67326851    0.0027694048
      6713.61      0.66921423    0.0027988203
      6720.32      0.66338411    0.0028204601
      6727.05      0.66153425    0.0028743727
      6733.77      0.65860412    0.0029015504
      6740.51      0.65401993    0.0029556751
      6747.25      0.64920137    0.0029690180
      6754.00      0.64373626    0.0029874998
      6760.75      0.64066420    0.0029885172
      6767.51      0.63590655    0.0029738686
      6774.28      0.63341866    0.0029437761
      6781.05      0.63231834    0.0029117737
      6787.84      0.62862774    0.0028705343
      6794.62      0.62414691    0.0028234654
      6801.42      0.61989606    0.0028144676
      6808.22      0.61412867    0.0027828070
      6815.03      0.60928611    0.0027585123
      6821.85      0.60586309    0.0027520840
      6828.67      0.60250115    0.0027238225
      6835.50      0.59914634    0.0027110226
      6842.33      0.59655476    0.0027013964
      6849.17      0.59447857    0.0026912773
      6856.02      0.59417060    0.0026837731
      6862.88      0.59173186    0.0026790555
      6869.74      0.59169577    0.0026743864
      6876.61      0.59243427    0.0026563500
      6883.49      0.59338458    0.0026519813
      6890.37      0.59436898    0.0026608880
      6897.27      0.59415125    0.0026404419
      6904.16      0.59460283    0.0026329724
      6911.07      0.59638525    0.0026402334
      6917.98      0.59615098    0.0026195523
      6924.89      0.59684513    0.0026132587
      6931.82      0.59670460    0.0025934275
      6938.75      0.59590008    0.0026007666
      6945.69      0.59700273    0.0025945442
      6952.64      0.59718868    0.0025756758
      6959.59      0.59734537    0.0025705230
      6966.55      0.59719858    0.0025803887
      6973.52      0.59675262    0.0025784162
      6980.49      0.59715544    0.0025638695
      6987.47      0.59719714    0.0025625188
      6994.46      0.59615259    0.0025625153
      7001.46      0.59661017    0.0025650231
      7008.46      0.59525034    0.0025722971
      7015.46      0.59575189    0.0025865115
      7022.48      0.59293128    0.0025936612
      7029.51      0.59057436    0.0026193628
      7036.53      0.58649221    0.0026153443
      7043.57      0.58434131    0.0025874486
      7050.62      0.58337956    0.0025822441
      7057.66      0.58022286    0.0025601073
      7064.72      0.57610955    0.0025351586
      7071.79      0.57420207    0.0025192362
      7078.86      0.57141381    0.0024883998
      7085.94      0.57025515    0.0024462082
      7093.03      0.56872814    0.0024149958
      7100.12      0.56537493    0.0023837268
      7107.22      0.56247804    0.0023646273
      7114.33      0.55938655    0.0023364478
      7121.44      0.55876624    0.0023104348
      7128.56      0.55807853    0.0022848084
      7135.69      0.55607047    0.0022494137
      7142.83      0.55337943    0.0022310599
      7149.97      0.55148926    0.0021999414
      7157.12      0.54739135    0.0021671647
      7164.28      0.54455912    0.0021333539
      7171.44      0.54033031    0.0020992214
      7178.62      0.53825412    0.0020664349
      7185.80      0.53424996    0.0020359447
      7192.98      0.53040159    0.0020013093
      7200.17      0.52511701    0.0019827393
      7207.38      0.51974747    0.0019559531
      7214.58      0.51586513    0.0019294979
      7221.80      0.51123024    0.0019038932
      7229.02      0.50542012    0.0018794241
      7236.25      0.50023557    0.0018560947
      7243.49      0.49620581    0.0018338623
      7250.73      0.49317559    0.0018076483
      7257.98      0.49058337    0.0017868957
      7265.24      0.48622607    0.0017666905
      7272.51      0.48327636    0.0017472664
      7279.78      0.48032969    0.0017283089
      7287.06      0.47731018    0.0017470473
      7294.35      0.47385606    0.0017699554
      7301.64      0.47041790    0.0017978949
      7308.94      0.46725326    0.0018323598
      7316.25      0.46454168    0.0018758586
      7323.57      0.46281107    0.0019365898
      7330.89      0.46134715    0.0020124183
      7338.22      0.46030617    0.0021118017
      7345.56      0.45914080    0.0022431940
      7352.91      0.45661635    0.0024165058
      7360.26      0.45503201    0.0026436929
      7367.62      0.45351100    0.0029398341
      7374.99      0.45209766    0.0033214516
      7382.37      0.45071627    0.0038104315
      7389.75      0.44955183    0.0044293355
      7397.14      0.44837484    0.0052086739
