# starting wavelength =        3711.8400
# ending wavelength =        7523.9600
# O2 telluric scale =        0
# O2 telluric shift =        0
# H2O telluric scale =        0
# H2O telluric shift =        0
      3715.10      0.57818211    0.0097536157
      3718.81      0.58013625    0.0083002206
      3722.53      0.58063683    0.0069373444
      3726.26      0.58065905    0.0060753619
      3729.98      0.58082816    0.0053972845
      3733.71      0.58033754    0.0049718256
      3737.45      0.57989889    0.0045414147
      3741.18      0.57876370    0.0042091604
      3744.93      0.57659707    0.0039525065
      3748.67      0.57501920    0.0037166637
      3752.42      0.57453857    0.0035677113
      3756.17      0.57454779    0.0034498974
      3759.93      0.57406605    0.0033545115
      3763.69      0.57645785    0.0032720180
      3767.45      0.57803855    0.0032038222
      3771.22      0.57961175    0.0031272495
      3774.99      0.58150179    0.0030798990
      3778.77      0.58369600    0.0030394453
      3782.54      0.58621590    0.0030153534
      3786.33      0.58841616    0.0030241225
      3790.11      0.59112654    0.0030180855
      3793.90      0.59253221    0.0030089298
      3797.70      0.59545293    0.0030180272
      3801.50      0.60010024    0.0030273196
      3805.30      0.60284737    0.0030027985
      3809.10      0.60897234    0.0030121444
      3812.91      0.61609561    0.0030214932
      3816.73      0.62554620    0.0030130824
      3820.54      0.63329802    0.0030063345
      3824.36      0.64155653    0.0030163176
      3828.19      0.65022900    0.0030073301
      3832.02      0.65769350    0.0030173038
      3835.85      0.66640663    0.0030107792
      3839.68      0.67668103    0.0030021387
      3843.52      0.68691765    0.0030122985
      3847.37      0.69547021    0.0030224624
      3851.22      0.70622062    0.0030141051
      3855.07      0.71642121    0.0030073466
      3858.92      0.72666095    0.0030183334
      3862.78      0.73878241    0.0030092946
      3866.64      0.74849572    0.0030200101
      3870.51      0.75750311    0.0030311599
      3874.38      0.76642577    0.0030048877
      3878.26      0.77541972    0.0030162169
      3882.13      0.78310581    0.0030072827
      3886.02      0.78964672    0.0030185073
      3889.90      0.79749276    0.0030300587
      3893.79      0.80182512    0.0030033586
      3897.69      0.80721608    0.0030151505
      3901.59      0.81147030    0.0030264762
      3905.49      0.81744279    0.0030179692
      3909.39      0.82287510    0.0030300621
      3913.30      0.82890147    0.0030213491
      3917.22      0.83487551    0.0030152584
      3921.13      0.84196187    0.0030270561
      3925.06      0.84738604    0.0030185696
      3928.98      0.85505072    0.0030313150
      3932.91      0.86128748    0.0030225215
      3936.84      0.86739824    0.0030354316
      3940.78      0.87284156    0.0030486220
      3944.72      0.87791373    0.0030202376
      3948.67      0.88300140    0.0030338688
      3952.61      0.89015455    0.0030249678
      3956.57      0.89607157    0.0030382842
      3960.52      0.90296937    0.0030524686
      3964.48      0.91029547    0.0030436160
      3968.45      0.91613637    0.0030577044
      3972.42      0.92192230    0.0030496656
      3976.39      0.92534197    0.0030636402
      3980.37      0.92643590    0.0030579000
      3984.35      0.92494984    0.0030487482
      3988.33      0.92438596    0.0030631446
      3992.32      0.92267170    0.0030547832
      3996.31      0.92084369    0.0030701068
      4000.31      0.91799868    0.0030852654
      4004.31      0.91631534    0.0030768778
      4008.31      0.91475431    0.0030930835
      4012.32      0.91139620    0.0030842605
      4016.33      0.90701857    0.0031005733
      4020.35      0.90220298    0.0030925871
      4024.37      0.89732469    0.0031089281
      4028.40      0.89508111    0.0031261484
      4032.42      0.89299836    0.0030941455
      4036.46      0.89022678    0.0031107090
      4040.50      0.88752975    0.0031021683
      4044.54      0.88576253    0.0031207265
      4048.58      0.88809936    0.0031116491
      4052.63      0.88989246    0.0031293562
      4056.68      0.89398386    0.0031210480
      4060.74      0.89874250    0.0031400438
      4064.80      0.90326259    0.0031586681
      4068.86      0.90722651    0.0031501847
      4072.93      0.91128758    0.0031708056
      4077.01      0.91785089    0.0031617005
      4081.08      0.92247149    0.0031816020
      4085.17      0.92766240    0.0031732888
      4089.25      0.93340005    0.0031948374
      4093.34      0.93755428    0.0031857336
      4097.43      0.94422875    0.0031771334
      4101.53      0.94903235    0.0031711119
      4105.63      0.95470934    0.0031618647
      4109.74      0.96005155    0.0031530218
      4113.85      0.96565362    0.0031445771
      4117.96      0.96915004    0.0031386115
      4122.08      0.97025233    0.0031295372
      4126.20      0.97265008    0.0031208553
      4130.33      0.97585569    0.0031125561
      4134.46      0.97834708    0.0031067644
      4138.59      0.98113250    0.0030978191
      4142.73      0.98367676    0.0030892271
      4146.88      0.98451444    0.0030537474
      4151.02      0.98585738    0.0030458519
      4155.18      0.98870558    0.0030666133
      4159.33      0.99199171    0.0030580575
      4163.49      0.99944486    0.0030228217
      4167.65       1.0046403    0.0030149142
      4171.82       1.0122211    0.0030072473
      4175.99       1.0220822    0.0029998954
      4180.17       1.0309566    0.0029924131
      4184.35       1.0392917    0.0029844534
      4188.54       1.0496403    0.0029767512
      4192.72       1.0589965    0.0029692970
      4196.92       1.0668709    0.0029620666
      4201.11       1.0734528    0.0029546851
      4205.31       1.0817890    0.0029468890
      4209.52       1.0886859    0.0029392887
      4213.73       1.0953780    0.0029319018
      4217.94       1.1007431    0.0028993562
      4222.16       1.1055950    0.0028914970
      4226.38       1.1083194    0.0028838201
      4230.61       1.1101153    0.0029023225
      4234.84       1.1140966    0.0028949434
      4239.08       1.1193512    0.0028632788
      4243.32       1.1229543    0.0028554854
      4247.56       1.1263307    0.0028478741
      4251.81       1.1319504    0.0028404434
      4256.06       1.1387798    0.0028331026
      4260.32       1.1450558    0.0028282681
      4264.58       1.1501482    0.0028205196
      4268.84       1.1566735    0.0028129155
      4273.11       1.1623061    0.0028054503
      4277.38       1.1675019    0.0027981167
      4281.66       1.1724997    0.0027908546
      4285.94       1.1776346    0.0027600160
      4290.23       1.1806352    0.0027530604
      4294.52       1.1835144    0.0027714456
      4298.81       1.1875114    0.0027640786
      4303.11       1.1884500    0.0027568375
      4307.42       1.1876313    0.0027497064
      4311.72       1.1857415    0.0027192830
      4316.04       1.1831791    0.0027123957
      4320.35       1.1803834    0.0027055937
      4324.67       1.1754741    0.0026988654
      4329.00       1.1707363    0.0026922054
      4333.33       1.1664144    0.0026856177
      4337.66       1.1639707    0.0026790892
      4342.00       1.1624240    0.0026726220
      4346.34       1.1613238    0.0026660561
      4350.69       1.1632824    0.0026592973
      4355.04       1.1657398    0.0026526128
      4359.39       1.1694612    0.0026460003
      4363.75       1.1767225    0.0026394631
      4368.12       1.1842243    0.0026329506
      4372.48       1.1938564    0.0026265384
      4376.86       1.2057786    0.0026201455
      4381.23       1.2166904    0.0025923390
      4385.61       1.2250277    0.0025857918
      4390.00       1.2334901    0.0025792958
      4394.39       1.2406620    0.0025728510
      4398.79       1.2472577    0.0025664577
      4403.18       1.2545001    0.0025600586
      4407.59       1.2598127    0.0025537287
      4412.00       1.2652153    0.0025474609
      4416.41       1.2731335    0.0025412462
      4420.82       1.2823604    0.0025350740
      4425.25       1.2957009    0.0025289400
      4429.67       1.3069467    0.0025228377
      4434.10       1.3205763    0.0024959900
      4438.54       1.3330453    0.0024899894
      4442.97       1.3472668    0.0024840080
      4447.42       1.3643551    0.0024780476
      4451.86       1.3794450    0.0024721102
      4456.32       1.3952428    0.0024661892
      4460.77       1.4100875    0.0024602883
      4465.24       1.4237312    0.0024544112
      4469.70       1.4383417    0.0024485611
      4474.17       1.4520327    0.0024427354
      4478.65       1.4634917    0.0024369393
      4483.12       1.4746625    0.0024311781
      4487.61       1.4850009    0.0024254610
      4492.09       1.4941315    0.0024197351
      4496.59       1.5021171    0.0024140316
      4501.08       1.5097414    0.0024083527
      4505.58       1.5160353    0.0024026910
      4510.09       1.5246850    0.0023970509
      4514.60       1.5317914    0.0023914324
      4519.12       1.5399170    0.0023858126
      4523.63       1.5468711    0.0023802379
      4528.16       1.5536140    0.0023746956
      4532.69       1.5587805    0.0023691852
      4537.22       1.5616405    0.0023637067
      4541.76       1.5645486    0.0023582507
      4546.30       1.5665403    0.0023528179
      4550.85       1.5672548    0.0023474091
      4555.40       1.5683874    0.0023224627
      4559.95       1.5658893    0.0023171581
      4564.51       1.5618456    0.0023118676
      4569.08       1.5583394    0.0023066038
      4573.65       1.5535891    0.0023013703
      4578.22       1.5505459    0.0022961675
      4582.80       1.5475621    0.0022910020
      4587.38       1.5437485    0.0022858785
      4591.97       1.5405927    0.0022808008
      4596.56       1.5370397    0.0022757747
      4601.16       1.5348146    0.0022708063
      4605.76       1.5321756    0.0022469016
      4610.37       1.5264284    0.0022418128
      4614.98       1.5194190    0.0022367598
      4619.59       1.5115858    0.0022317491
      4624.21       1.5032633    0.0022267849
      4628.84       1.4907356    0.0022218297
      4633.47       1.4769396    0.0022169431
      4638.10       1.4617459    0.0022121226
      4642.74       1.4451112    0.0022073658
      4647.38       1.4238838    0.0022024421
      4652.03       1.4035702    0.0021974883
      4656.68       1.3842178    0.0021925890
      4661.34       1.3650599    0.0021877460
      4666.00       1.3477839    0.0021829540
      4670.67       1.3294631    0.0021782200
      4675.33       1.3125556    0.0021735472
      4680.01       1.2981840    0.0021514458
      4684.69       1.2840911    0.0021469411
      4689.38       1.2746699    0.0021425060
      4694.07       1.2658772    0.0021381450
      4698.76       1.2573895    0.0021500537
      4703.46       1.2496447    0.0021454151
      4708.16       1.2443701    0.0021236082
      4712.87       1.2394041    0.0021191952
      4717.58       1.2328167    0.0021148784
      4722.30       1.2284823    0.0021106373
      4727.03       1.2234993    0.0021064771
      4731.75       1.2165984    0.0020848849
      4736.48       1.2086995    0.0020805130
      4741.22       1.2019752    0.0020924643
      4745.96       1.1945053    0.0020882335
      4750.71       1.1868096    0.0020841198
      4755.46       1.1796037    0.0020632380
      4760.22       1.1747729    0.0020589113
      4764.97       1.1716921    0.0020546938
      4769.74       1.1698198    0.0020505841
      4774.51       1.1694276    0.0020626134
      4779.29       1.1710338    0.0020422017
      4784.07       1.1724878    0.0020379232
      4788.85       1.1756049    0.0020337619
      4793.64       1.1784008    0.0020297186
      4798.43       1.1836423    0.0020099868
      4803.23       1.1889353    0.0020215244
      4808.03       1.1931160    0.0020173218
      4812.84       1.1989750    0.0020132567
      4817.66       1.2019099    0.0019936894
      4822.48       1.2052765    0.0019899517
      4827.30       1.2084800    0.0020013312
      4832.12       1.2123369    0.0019973168
      4836.96       1.2136258    0.0019779013
      4841.79       1.2171958    0.0019742027
      4846.63       1.2226010    0.0019706597
      4851.48       1.2288537    0.0019817189
      4856.33       1.2337510    0.0019624412
      4861.19       1.2389347    0.0019588188
      4866.05       1.2439260    0.0019553405
      4870.92       1.2475116    0.0019520497
      4875.79       1.2531728    0.0019473646
      4880.66       1.2571543    0.0019438246
      4885.55       1.2602831    0.0019404702
      4890.43       1.2629799    0.0019216743
      4895.32       1.2647216    0.0019326782
      4900.22       1.2663767    0.0019292511
      4905.12       1.2668521    0.0019109191
      4910.02       1.2668562    0.0019072582
      4914.94       1.2676998    0.0019037939
      4919.85       1.2689132    0.0019150209
      4924.77       1.2713834    0.0018966597
      4929.70       1.2749608    0.0018931556
      4934.62       1.2808208    0.0019042684
      4939.56       1.2871303    0.0018862892
      4944.50       1.2928717    0.0018827767
      4949.44       1.2978294    0.0018794971
      4954.39       1.3026253    0.0018761202
      4959.35       1.3068038    0.0018726194
      4964.31       1.3121342    0.0018693343
      4969.27       1.3167005    0.0018522117
      4974.24       1.3197635    0.0018626096
      4979.22       1.3226680    0.0018453197
      4984.20       1.3255127    0.0018423446
      4989.18       1.3282201    0.0018527895
      4994.17       1.3301679    0.0018356702
      4999.16       1.3336770    0.0018327632
      5004.16       1.3372934    0.0018431832
      5009.17       1.3411837    0.0018261970
      5014.18       1.3460645    0.0018233598
      5019.19       1.3521419    0.0018065246
      5024.21       1.3587176    0.0018168623
      5029.23       1.3660263    0.0018141158
      5034.26       1.3732546    0.0017973337
      5039.30       1.3814667    0.0018077273
      5044.34       1.3887546    0.0018051039
      5049.39       1.3954133    0.0017883105
      5054.43       1.4040135    0.0017987836
      5059.49       1.4122493    0.0017824194
      5064.55       1.4209551    0.0017795157
      5069.61       1.4294760    0.0017767389
      5074.68       1.4387530    0.0017736990
      5079.76       1.4490564    0.0017840858
      5084.84       1.4585249    0.0017680306
      5089.92       1.4683791    0.0017651371
      5095.01       1.4795193    0.0017625090
      5100.11       1.4890109    0.0017595031
      5105.21       1.4972372    0.0017440390
      5110.31       1.5058560    0.0017540315
      5115.42       1.5150775    0.0017512732
      5120.54       1.5233874    0.0017361395
      5125.66       1.5321420    0.0017458248
      5130.79       1.5413661    0.0017306316
      5135.92       1.5502797    0.0017405110
      5141.05       1.5592934    0.0017252325
      5146.20       1.5679208    0.0017230501
      5151.34       1.5768149    0.0017199602
      5156.49       1.5853836    0.0017176915
      5161.65       1.5950590    0.0017147521
      5166.81       1.6032134    0.0017124306
      5171.98       1.6116938    0.0017096572
      5177.15       1.6193558    0.0017072929
      5182.33       1.6266827    0.0016924564
      5187.51       1.6343624    0.0017022974
      5192.70       1.6409530    0.0016875914
      5197.89       1.6464214    0.0016973501
      5203.09       1.6497788    0.0016827528
      5208.29       1.6535861    0.0016924505
      5213.50       1.6553308    0.0016779836
      5218.72       1.6572171    0.0016755537
      5223.93       1.6609325    0.0016733287
      5229.16       1.6643806    0.0016709091
      5234.39       1.6670523    0.0016687153
      5239.62       1.6700978    0.0016663077
      5244.86       1.6737980    0.0016641340
      5250.11       1.6759117    0.0016617486
      5255.36       1.6787351    0.0016596246
      5260.61       1.6811268    0.0016572698
      5265.87       1.6831728    0.0016551396
      5271.14       1.6846990    0.0016411660
      5276.41       1.6852318    0.0016506846
      5281.69       1.6856243    0.0016368329
      5286.97       1.6857350    0.0016463245
      5292.26       1.6837537    0.0016325885
      5297.55       1.6808501    0.0016420362
      5302.85       1.6771059    0.0016284386
      5308.15       1.6740295    0.0016262793
      5313.46       1.6710367    0.0016243406
      5318.77       1.6685945    0.0016221211
      5324.09       1.6676750    0.0016203245
      5329.42       1.6662704    0.0016180820
      5334.75       1.6652550    0.0016164346
      5340.08       1.6657740    0.0016141311
      5345.42       1.6657419    0.0016008978
      5350.77       1.6643854    0.0016102719
      5356.12       1.6633208    0.0015969854
      5361.48       1.6618551    0.0016065138
      5366.83       1.6579425    0.0015931568
      5372.20       1.6529714    0.0015913532
      5377.58       1.6475296    0.0015894223
      5382.95       1.6410065    0.0015875075
      5388.34       1.6341444    0.0015858842
      5393.72       1.6252217    0.0015837754
      5399.12       1.6157020    0.0015820553
      5404.52       1.6069810    0.0015693657
      5409.92       1.5975106    0.0015783440
      5415.33       1.5879323    0.0015659338
      5420.75       1.5779949    0.0015747921
      5426.17       1.5689379    0.0015730971
      5431.60       1.5588795    0.0015606114
      5437.03       1.5486877    0.0015695389
      5442.47       1.5375060    0.0015573722
      5447.91       1.5258482    0.0015554429
      5453.36       1.5140984    0.0015644483
      5458.81       1.5011543    0.0015522803
      5464.27       1.4890961    0.0015504554
      5469.73       1.4757077    0.0015382594
      5475.20       1.4638007    0.0015473114
      5480.68       1.4531512    0.0015455548
      5486.16       1.4423427    0.0015334336
      5491.65       1.4316784    0.0015424686
      5497.14       1.4210474    0.0015407282
      5502.64       1.4120576    0.0015286733
      5508.14       1.4035120    0.0015377255
      5513.65       1.3944247    0.0015360266
      5519.16       1.3864358    0.0015240278
      5524.68       1.3777259    0.0015226619
      5530.20       1.3693421    0.0015209975
      5535.73       1.3607077    0.0015194964
      5541.27       1.3516103    0.0015181227
      5546.81       1.3411867    0.0015064909
      5552.36       1.3319746    0.0015150397
      5557.91       1.3216700    0.0015136582
      5563.47       1.3114090    0.0015022230
      5569.04       1.3009616    0.0015007031
      5574.60       1.2892314    0.0015093297
      5580.18       1.2796986    0.0015080504
      5585.76       1.2696721    0.0014965642
      5591.35       1.2585595    0.0014951266
      5596.94       1.2483778    0.0015037756
      5602.53       1.2384601    0.0014925596
      5608.14       1.2283672    0.0014910629
      5613.75       1.2184409    0.0014896722
      5619.36       1.2081606    0.0014784710
      5624.98       1.1992677    0.0014871571
      5630.60       1.1893082    0.0014857034
      5636.23       1.1807382    0.0014843504
      5641.87       1.1724547    0.0014732128
      5647.51       1.1642020    0.0014720490
      5653.16       1.1565282    0.0014805292
      5658.82       1.1504043    0.0014792061
      5664.47       1.1443140    0.0014680851
      5670.14       1.1385642    0.0014669202
      5675.81       1.1336109    0.0014658152
      5681.48       1.1305554    0.0014742205
      5687.17       1.1303810    0.0014631364
      5692.85       1.1300226    0.0014619616
      5698.55       1.1308043    0.0014608291
      5704.25       1.1324883    0.0014597393
      5709.95       1.1351087    0.0014489496
      5715.66       1.1385058    0.0014477333
      5721.38       1.1411887    0.0014559561
      5727.10       1.1437537    0.0014548092
      5732.83       1.1460103    0.0014443676
      5738.56       1.1477093    0.0014431110
      5744.30       1.1494389    0.0014418911
      5750.04       1.1502756    0.0014407224
      5755.79       1.1505547    0.0014396048
      5761.55       1.1496339    0.0014387839
      5767.31       1.1486850    0.0014375287
      5773.08       1.1479286    0.0014363180
      5778.85       1.1468619    0.0014351323
      5784.63       1.1469201    0.0014339898
      5790.41       1.1460315    0.0014328744
      5796.21       1.1447145    0.0014224981
      5802.00       1.1421493    0.0014214772
      5807.81       1.1402526    0.0014205560
      5813.61       1.1373065    0.0014197510
      5819.43       1.1364315    0.0014189360
      5825.25       1.1344364    0.0014270604
      5831.07       1.1292304    0.0014167952
      5836.90       1.1217596    0.0014160326
      5842.74       1.1143056    0.0014156618
      5848.58       1.1054760    0.0014157618
      5854.43       1.0970117    0.0014160399
      5860.29       1.0875618    0.0014163181
      5866.15       1.0783920    0.0014167849
      5872.01       1.0694288    0.0014173939
      5877.89       1.0618424    0.0014084538
      5883.76       1.0543160    0.0014081312
      5889.65       1.0465520    0.0014075331
      5895.54       1.0391965    0.0014067650
      5901.43       1.0309196    0.0014057628
      5907.34       1.0236321    0.0014045059
      5913.24       1.0167220    0.0014031541
      5919.16       1.0107199    0.0014018650
      5925.08       1.0053228    0.0014006473
      5931.00       1.0011588    0.0013993798
      5936.93      0.99645295    0.0013891027
      5942.87      0.98969442    0.0013874899
      5948.81      0.98395657    0.0013857334
      5954.76      0.98012532    0.0013839663
      5960.72      0.97558380    0.0013822112
      5966.68      0.97195193    0.0013802843
      5972.64      0.96815909    0.0013782264
      5978.62      0.96441805    0.0013764108
      5984.60      0.96039037    0.0013748916
      5990.58      0.95581279    0.0013733003
      5996.57      0.95065280    0.0013715646
      6002.57      0.94508203    0.0013699984
      6008.57      0.93997215    0.0013686339
      6014.58      0.93489278    0.0013673964
      6020.60      0.93026690    0.0013661981
      6026.62      0.92652511    0.0013650616
      6032.65      0.92363038    0.0013640036
      6038.68      0.92170172    0.0013629551
      6044.72      0.92075673    0.0013535409
      6050.76      0.92192029    0.0013525008
      6056.81      0.92339415    0.0013514789
      6062.87      0.92622443    0.0013504581
      6068.93      0.92972454    0.0013494459
      6075.00      0.93280205    0.0013484345
      6081.08      0.93632463    0.0013474214
      6087.16      0.93972475    0.0013464115
      6093.25      0.94168104    0.0013454091
      6099.34      0.94252919    0.0013444046
      6105.44      0.94308051    0.0013351458
      6111.54      0.94201131    0.0013340772
      6117.66      0.94052232    0.0013330153
      6123.78      0.93959313    0.0013319444
      6129.90      0.93893193    0.0013309007
      6136.03      0.93855216    0.0013298520
      6142.17      0.93855279    0.0013288007
      6148.31      0.93879252    0.0013277770
      6154.46      0.94046059    0.0013187884
      6160.61      0.94304127    0.0013177719
      6166.77      0.94656262    0.0013247480
      6172.94      0.95045943    0.0013236050
      6179.11      0.95507808    0.0013224879
      6185.29      0.96045209    0.0013213824
      6191.48      0.96563893    0.0013124638
      6197.67      0.97098053    0.0013118411
      6203.87      0.97802875    0.0013115502
      6210.07      0.98371664    0.0013106005
      6216.28      0.98900103    0.0013094166
      6222.50      0.99413296    0.0013009819
      6228.72      0.99862886    0.0013012309
      6234.95       1.0039333    0.0013101468
      6241.19       1.0098142    0.0013116884
      6247.42       1.0153555    0.0013135966
      6253.67       1.0211729    0.0013080673
      6259.93       1.0269797    0.0013095220
      6266.19       1.0337275    0.0013104320
      6272.46       1.0388817    0.0013105830
      6278.73       1.0439304    0.0013178922
      6285.01       1.0495190    0.0013078409
      6291.29       1.0532318    0.0013049279
      6297.58       1.0558104    0.0013014245
      6303.88       1.0563196    0.0012976892
      6310.19       1.0555497    0.0012864384
      6316.50       1.0532979    0.0012909901
      6322.81       1.0500358    0.0012887278
      6329.14       1.0433690    0.0012861097
      6335.47       1.0357793    0.0012757383
      6341.80       1.0274963    0.0012735864
      6348.14       1.0194154    0.0012716184
      6354.49       1.0109944    0.0012691518
      6360.85       1.0043677    0.0012672463
      6367.21      0.99839887    0.0012654741
      6373.57      0.99429145    0.0012638479
      6379.95      0.99071877    0.0012618427
      6386.33      0.98905806    0.0012603258
      6392.72      0.98704891    0.0012589559
      6399.11      0.98747916    0.0012500966
      6405.51      0.98946167    0.0012486770
      6411.92      0.99087066    0.0012547039
      6418.32      0.99232086    0.0012462234
      6424.74      0.99269378    0.0012451969
      6431.17      0.99362080    0.0012445693
      6437.60      0.99328090    0.0012445357
      6444.04      0.99251676    0.0012439462
      6450.48      0.99136997    0.0012432065
      6456.94      0.99008896    0.0012353212
      6463.39      0.98740764    0.0012416278
      6469.85      0.98579781    0.0012405225
      6476.33      0.98544431    0.0012320287
      6482.80      0.98372123    0.0012373671
      6489.28      0.98154211    0.0012281904
      6495.77      0.97919444    0.0012261678
      6502.27      0.97739187    0.0012242715
      6508.77      0.97653329    0.0012219126
      6515.28      0.97530714    0.0012201430
      6521.80      0.97373058    0.0012185600
      6528.32      0.97214348    0.0012162967
      6534.85      0.96916920    0.0012143438
      6541.38      0.96646184    0.0012050176
      6547.92      0.96317768    0.0012095675
      6554.47      0.96002845    0.0012003930
      6561.03      0.95579580    0.0011982707
      6567.59      0.95134584    0.0012028418
      6574.16      0.94602466    0.0011933943
      6580.73      0.94121596    0.0011911084
      6587.31      0.93543363    0.0011888617
      6593.90      0.92954282    0.0011868004
      6600.50      0.92303778    0.0011781374
      6607.10      0.91600740    0.0011827730
      6613.70      0.90937404    0.0011741166
      6620.32      0.90279131    0.0011788212
      6626.94      0.89698937    0.0011768048
      6633.57      0.89078412    0.0011682026
      6640.20      0.88474857    0.0011726631
      6646.84      0.87810917    0.0011640343
      6653.49      0.87138192    0.0011622236
      6660.14      0.86522322    0.0011598052
      6666.80      0.85887522    0.0011579248
      6673.47      0.85289687    0.0011554951
      6680.14      0.84729375    0.0011535423
      6686.82      0.84088923    0.0011510862
      6693.51      0.83431674    0.0011490731
      6700.20      0.82838664    0.0011403306
      6706.90      0.82247828    0.0011445387
      6713.61      0.81529338    0.0011357877
      6720.32      0.80815936    0.0011399120
      6727.05      0.80127701    0.0011311480
      6733.77      0.79503597    0.0011287830
      6740.51      0.78856553    0.0011263965
      6747.25      0.78214242    0.0011178465
      6754.00      0.77540014    0.0011215337
      6760.75      0.76872545    0.0011129591
      6767.51      0.76160648    0.0011165602
      6774.28      0.75463284    0.0011082306
      6781.05      0.74937621    0.0011132105
      6787.84      0.74456409    0.0011094984
      6794.62      0.73933625    0.0011087098
      6801.42      0.73564669    0.0011048087
      6808.22      0.73248835    0.0011035239
      6815.03      0.72867148    0.0011066538
      6821.85      0.72511713    0.0011146124
      6828.67      0.72278681    0.0011200994
      6835.50      0.72012708    0.0011388089
      6842.33      0.71812682    0.0011477103
      6849.17      0.71631659    0.0011676612
      6856.02      0.71494950    0.0011725284
      6862.88      0.71325478    0.0011797924
      6869.74      0.71000202    0.0011802940
      6876.61      0.70646281    0.0011745938
      6883.49      0.70151652    0.0011622561
      6890.37      0.69499126    0.0011485953
      6897.27      0.68838678    0.0011301097
      6904.16      0.68257592    0.0011086487
      6911.07      0.67713346    0.0011007973
      6917.98      0.67037479    0.0010856859
      6924.89      0.66369790    0.0010750913
      6931.82      0.65702927    0.0010696281
      6938.75      0.65049261    0.0010555269
      6945.69      0.64370088    0.0010480902
      6952.64      0.63745239    0.0010423046
      6959.59      0.63227717    0.0010357192
      6966.55      0.62727392    0.0010301096
      6973.52      0.62184833    0.0010261418
      6980.49      0.61620802    0.0010217464
      6987.47      0.61160938    0.0010125985
      6994.46      0.60592592    0.0010143636
      7001.46      0.59898839    0.0010098479
      7008.46      0.59205280    0.0010000083
      7015.46      0.58467304   0.00099480178
      7022.48      0.57863120   0.00099518397
      7029.51      0.57363548   0.00098501980
      7036.53      0.56878396   0.00098007164
      7043.57      0.56306808   0.00097037390
      7050.62      0.55732457   0.00097081614
      7057.66      0.55265047   0.00096586525
      7064.72      0.54824965   0.00095643785
      7071.79      0.54456321   0.00095178130
      7078.86      0.54120405   0.00095287931
      7085.94      0.53813795   0.00094940676
      7093.03      0.53455747   0.00094167631
      7100.12      0.53184991   0.00093848141
      7107.22      0.52779003   0.00093557227
      7114.33      0.52352423   0.00093383480
      7121.44      0.51997801   0.00093308184
      7128.56      0.51536069   0.00093441063
      7135.69      0.51047588   0.00093361255
      7142.83      0.50596208   0.00093975339
      7149.97      0.50079705   0.00094025538
      7157.12      0.49525971   0.00093435465
      7164.28      0.48937221   0.00092555599
      7171.44      0.48141223   0.00091519007
      7178.62      0.47501589   0.00090368327
      7185.80      0.46808264   0.00089107115
      7192.98      0.46123066   0.00087747102
      7200.17      0.45480979   0.00086365231
      7207.38      0.44799185   0.00085395726
      7214.58      0.44177447   0.00083996853
      7221.80      0.43458271   0.00082326166
      7229.02      0.42695517   0.00081016410
      7236.25      0.41929093   0.00080186139
      7243.49      0.41170121   0.00079003095
      7250.73      0.40423799   0.00077798419
      7257.98      0.39732148   0.00076535392
      7265.24      0.39007345   0.00075189925
      7272.51      0.38274254   0.00073571023
      7279.78      0.37554856   0.00072515280
      7287.06      0.36774598   0.00071073798
      7294.35      0.35996598   0.00069657172
      7301.64      0.35204329   0.00068312431
      7308.94      0.34376343   0.00067046157
      7316.25      0.33506511   0.00065838290
      7323.57      0.32649332   0.00064504868
      7330.89      0.31804645   0.00063352010
      7338.22      0.30981988   0.00062224380
      7345.56      0.30152682   0.00061401062
      7352.91      0.29332809   0.00060342544
      7360.26      0.28550959   0.00059322939
      7367.62      0.27819048   0.00058336854
      7374.99      0.27078382   0.00057373938
      7382.37      0.26355705   0.00056430103
      7389.75      0.25682814   0.00055392597
      7397.14      0.25044450   0.00054498493
      7404.53      0.24438941   0.00054289115
      7411.94      0.23853015   0.00054847858
      7419.35      0.23316403   0.00055549171
      7426.77      0.22766707   0.00056428181
      7434.20      0.22257699   0.00057547429
      7441.63      0.21802575   0.00058995804
      7449.07      0.21409379   0.00060886925
      7456.52      0.21039787   0.00063387156
      7463.98      0.20716355   0.00066711453
      7471.45      0.20455494   0.00071840814
      7478.92      0.20213570   0.00077909501
      7486.40      0.20016593   0.00085827806
      7493.88      0.19848953   0.00096097347
      7501.38      0.19709779    0.0010924556
      7508.88      0.19599116    0.0012597542
      7516.39      0.19522935    0.0014705331
      7523.91      0.19521435    0.0017338992
