# starting wavelength =        4011.6722
# ending wavelength =        10378.100
# O2 telluric scale =        0
# O2 telluric shift =        0
# H2O telluric scale =        0
# H2O telluric shift =        0
      4012.32      0.61141260     0.055305743
      4016.33      0.63091594     0.055146473
      4020.35      0.63905950     0.054987125
      4024.37      0.64846189     0.054828445
      4028.40      0.65008181     0.054669789
      4032.42      0.67163976     0.054511656
      4036.46      0.66622766     0.054353581
      4040.50      0.67727800     0.054195667
      4044.54      0.70403197     0.054037772
      4048.58      0.69890838     0.054230605
      4052.63      0.68783822     0.054486945
      4056.68      0.70419102     0.054328163
      4060.74      0.68039275     0.054169465
      4064.80      0.64529365     0.054010937
      4068.86      0.60753865     0.053853054
      4072.93      0.60504176     0.053695820
      4077.01      0.57785813     0.053538115
      4081.08      0.56166495     0.053739581
      4085.17      0.54852967     0.053581306
      4089.25      0.53750714     0.053423835
      4093.34      0.52027900     0.053267147
      4097.43      0.54339908     0.053111240
      4101.53      0.56250047     0.052955052
      4105.63      0.53081101     0.052799658
      4109.74      0.53570783     0.052999549
      4113.85      0.55663324     0.052840207
      4117.96      0.55801387     0.052681653
      4122.08      0.54755821     0.052523419
      4126.20      0.54584583     0.052365478
      4130.33      0.58217246     0.052208424
      4134.46      0.62236221     0.052412597
      4138.59      0.60601255     0.052255097
      4142.73      0.60955741     0.052098716
      4146.88      0.61968182     0.051942642
      4151.02      0.61166962     0.052206192
      4155.18      0.59111495     0.052050146
      4159.33      0.60891829     0.052266311
      4163.49      0.60024203     0.052110868
      4167.65      0.59002780     0.051956479
      4171.82      0.58233251     0.051802188
      4175.99      0.57267305     0.051649138
      4180.17      0.55873007     0.051847363
      4184.35      0.57474740     0.051688422
      4188.54      0.58090330     0.051530774
      4192.72      0.57567750     0.051374448
      4196.92      0.57562724     0.051218210
      4201.11      0.58122970     0.051441523
      4205.31      0.59518829     0.051286361
      4209.52      0.57677885     0.051132236
      4213.73      0.57460939     0.050979693
      4217.94      0.55469883     0.050828079
      4222.16      0.56105609     0.051031539
      4226.38      0.58025320     0.050873489
      4230.61      0.58071578     0.050716468
      4234.84      0.58831764     0.050560319
      4239.08      0.61918902     0.050793094
      4243.32      0.61153626     0.050638817
      4247.56      0.59054407     0.050485747
      4251.81      0.60486300     0.050334688
      4256.06      0.62675474     0.050106751
      4260.32      0.64440891     0.049948953
      4264.58      0.65588395     0.049793226
      4268.84      0.65180712     0.049638141
      4273.11      0.63971560     0.049877200
      4277.38      0.63128885     0.049714888
      4281.66      0.62193051     0.049554005
      4285.94      0.61487430     0.049394707
      4290.23      0.61472011     0.049629724
      4294.52      0.60473921     0.049473205
      4298.81      0.65505603     0.049318200
      4303.11      0.67139449     0.049165180
      4307.42      0.68133864     0.049403304
      4311.72      0.69403626     0.049241881
      4316.04      0.71691889     0.049081859
      4320.35      0.75025382     0.048924624
      4324.67      0.75764096     0.049172245
      4329.00      0.76318280     0.049018064
      4333.33      0.76769791     0.048866898
      4337.66      0.80756580     0.049106960
      4342.00      0.85036895     0.048945184
      4346.34      0.84630555     0.048786878
      4350.69      0.83860022     0.048632021
      4355.04      0.82100954     0.048895750
      4359.39      0.81409712     0.048270923
      4363.75      0.84467020     0.048108705
      4368.12      0.86549919     0.048362463
      4372.48      0.84444656     0.048206350
      4376.86      0.81164831     0.048053305
      4381.23      0.81334748     0.048314727
      4385.61      0.80701074     0.048149833
      4390.00      0.78373530     0.047988233
      4394.39      0.76122684     0.048259384
      4398.79      0.75684488     0.048104397
      4403.18      0.74447866     0.047953860
      4407.59      0.76895715     0.048215527
      4412.00      0.77352554     0.048052333
      4416.41      0.78958491     0.047418536
      4420.82      0.79261663     0.047704182
      4425.25      0.80584126     0.047534466
      4429.67      0.81785439     0.047369123
      4434.10      0.81957070     0.047649618
      4438.54      0.86982734     0.047492832
      4442.97      0.91015795     0.047341486
      4447.42      0.91589247     0.047618541
      4451.86      0.92043098     0.047453460
      4456.32      0.92480229     0.047294285
      4460.77      0.92399999     0.047600369
      4465.24      0.94200092     0.046934128
      4469.70      0.94998571     0.046767481
      4474.17      0.94938459     0.047062778
      4478.65      0.95597095     0.046908115
      4483.12      0.96152921     0.047210146
      4487.61      0.98144978     0.047040206
      4492.09       1.0092700     0.046877007
      4496.59       1.0468644     0.047199041
      4501.08       1.0867265     0.046519616
      4505.58       1.1488161     0.046350549
      4510.09       1.1696995     0.046660559
      4514.60       1.1852876     0.046505295
      4519.12       1.2120731     0.046821185
      4523.63       1.2436179     0.046650515
      4528.16       1.2567582     0.046487153
      4532.69       1.3027556     0.046829834
      4537.22       1.3089569     0.046124627
      4541.76       1.3042243     0.045956152
      4546.30       1.2985760     0.046288468
      4550.85       1.3134564     0.045604213
      4555.40       1.3395873     0.045431591
      4559.95       1.3235540     0.045269068
      4564.51       1.3160657     0.045598603
      4569.08       1.3129350     0.044912983
      4573.65       1.3239097     0.044746729
      4578.22       1.3404537     0.044589944
      4582.80       1.3671582     0.044398691
      4587.38       1.3580625     0.044228359
      4591.97       1.3504038     0.044069374
      4596.56       1.3070374     0.043888321
      4601.16       1.2531753     0.043715915
      4605.76       1.2217529     0.043553927
      4610.37       1.2205780     0.042921228
      4614.98       1.1876262     0.043205582
      4619.59       1.1677750     0.043042403
      4624.21       1.1496909     0.042414370
      4628.84       1.1498071     0.042699069
      4633.47       1.1252826     0.042535016
      4638.10       1.1009246     0.041912322
      4642.74       1.0890319     0.042194551
      4647.38       1.0676993     0.042030499
      4652.03       1.0395279     0.041413083
      4656.68       1.0178752     0.041273396
      4661.34       1.0245842     0.041528533
      4666.00       1.0168879     0.040917082
      4670.67       1.0254594     0.040779144
      4675.33       1.0224506     0.040573777
      4680.01       1.0075123     0.040425673
      4684.69      0.99437661     0.040289821
      4689.38      0.98714195     0.040084166
      4694.07      0.99905670     0.039938629
      4698.76       1.0173495     0.039805647
      4703.46       1.0311229     0.039597375
      4708.16       1.0174037     0.039455154
      4712.87       1.0059708     0.038870191
      4717.58       1.0223567     0.039114729
      4722.30       1.0453479     0.038976311
      4727.03       1.0603033     0.038392475
      4731.75       1.0605524     0.038636150
      4736.48       1.0556197     0.038502325
      4741.22       1.0496037     0.037918329
      4745.96       1.0535362     0.038162390
      4750.71       1.0671567     0.037597007
      4755.46       1.0718378     0.037449925
      4760.22       1.0996974     0.037694006
      4764.97       1.0895224     0.037126575
      4769.74       1.0912714     0.036985841
      4774.51       1.0708951     0.036809904
      4779.29       1.0524710     0.036661985
      4784.07       1.0551628     0.036499220
      4788.85       1.0549064     0.036344409
      4793.64       1.0522860     0.036204064
      4798.43       1.0270007     0.036030674
      4803.23       1.0261957     0.035884001
      4808.03       1.0350421     0.035368063
      4812.84       1.0581954     0.035569273
      4817.66       1.0533833     0.035050836
      4822.48       1.0444995     0.035259414
      4827.30       1.0295537     0.035115980
      4832.12       1.0226178     0.034611767
      4836.96       1.0109920     0.034803689
      4841.79      0.99802061     0.034297971
      4846.63      0.98805822     0.034496017
      4851.48      0.97984501     0.033988703
      4856.33      0.97719503     0.033867815
      4861.19      0.98264793     0.033682614
      4866.05      0.97644121     0.033557541
      4870.92      0.97485947     0.033742471
      4875.79      0.98460701     0.033250462
      4880.66      0.97853055     0.033438682
      4885.55      0.98260741     0.032947172
      4890.43      0.96855620     0.032830832
      4895.32      0.97560698     0.032645945
      4900.22      0.96951914     0.032527310
      4905.12      0.99220083     0.032347221
      4910.02       1.0011816     0.032226167
      4914.94       1.0013928     0.032050138
      4919.85       1.0124103     0.031927637
      4924.77       1.0063125     0.031452101
      4929.70       1.0023802     0.031631597
      4934.62      0.98616787     0.031162051
      4939.56      0.97128666     0.031337141
      4944.50      0.98205575     0.030874387
      4949.44      0.99034640     0.031045344
      4954.39      0.99598346     0.030587465
      4959.35      0.99598960     0.030756012
      4964.31      0.99045270     0.030302506
      4969.27      0.99172407     0.030177050
      4974.24      0.99261150     0.030018476
      4979.22      0.98682279     0.029892781
      4984.20      0.97651230     0.029736247
      4989.18      0.97894645     0.029610692
      4994.17      0.96449139     0.029454863
      4999.16      0.97829431     0.029330861
      5004.16      0.97335109     0.029175319
      5009.17      0.97830604     0.029052188
      5014.18      0.98113090     0.028897142
      5019.19      0.95089297     0.028474920
      5024.21      0.93845048     0.028620294
      5029.23      0.92629700     0.028202546
      5034.26      0.92741517     0.028345416
      5039.30      0.94101891     0.027931940
      5044.34      0.95755255     0.028071763
      5049.39      0.96457070     0.027663572
      5054.43      0.98743349     0.027799657
      5059.49       1.0022759     0.027397027
      5064.55       1.0151190     0.027529470
      5069.61       1.0238550     0.027132383
      5074.68       1.0241073     0.026976143
      5079.76       1.0261421     0.026869758
      5084.84       1.0366099     0.026712484
      5089.92       1.0575860     0.026609453
      5095.01       1.0590810     0.026451108
      5100.11       1.0700814     0.026351940
      5105.21       1.0896319     0.026191823
      5110.31       1.1100854     0.025806446
      5115.42       1.1233523     0.025935212
      5120.54       1.1428832     0.025784615
      5125.66       1.1647909     0.025680816
      5130.79       1.1875592     0.025527968
      5135.92       1.2108205     0.025154801
      5141.05       1.2279602     0.025274267
      5146.20       1.2350644     0.024901521
      5151.34       1.2545759     0.025023815
      5156.49       1.2779691     0.024650859
      5161.65       1.2893586     0.024513670
      5166.81       1.2932730     0.024402844
      5171.98       1.2983325     0.024263197
      5177.15       1.3169373     0.024379175
      5182.33       1.3587493     0.024016007
      5187.51       1.3765265     0.023881867
      5192.70       1.3965468     0.023771832
      5197.89       1.4243545     0.023634771
      5203.09       1.4343889     0.023292527
      5208.29       1.4483515     0.023391430
      5213.50       1.4464218     0.023259071
      5218.72       1.4413785     0.022916703
      5223.93       1.4370814     0.023016431
      5229.16       1.4222938     0.022683233
      5234.39       1.4205230     0.022777183
      5239.62       1.4228706     0.022645077
      5244.86       1.4392936     0.022313444
      5250.11       1.4517223     0.022407388
      5255.36       1.4751546     0.022085657
      5260.61       1.4843363     0.021948577
      5265.87       1.4961591     0.022041920
      5271.14       1.5236792     0.021722237
      5276.41       1.5402971     0.021588075
      5281.69       1.5690248     0.021500656
      5286.97       1.5951766     0.021363216
      5292.26       1.6155485     0.021231679
      5297.55       1.6241817     0.021143718
      5302.85       1.6432856     0.021008734
      5308.15       1.6584608     0.020879118
      5313.46       1.6842977     0.020791485
      5318.77       1.7072824     0.020658332
      5324.09       1.7004318     0.020353036
      5329.42       1.6907744     0.020230983
      5334.75       1.7048476     0.020311962
      5340.08       1.7174645     0.020011414
      5345.42       1.7346382     0.019890039
      5350.77       1.7436164     0.019970049
      5356.12       1.7448640     0.019673326
      5361.48       1.7461279     0.019553055
      5366.83       1.7567561     0.019632056
      5372.20       1.7763303     0.019339468
      5377.58       1.7717772     0.019219574
      5382.95       1.7856187     0.019103331
      5388.34       1.8048154     0.019008933
      5393.72       1.8385904     0.018889564
      5399.12       1.8758091     0.018773851
      5404.52       1.9169808     0.018498310
      5409.92       1.9584713     0.018563872
      5415.33       2.0062285     0.018448261
      5420.75       2.0457090     0.018180014
      5426.17       2.0759152     0.018242708
      5431.60       2.1207583     0.018126978
      5437.03       2.1728846     0.018014367
      5442.47       2.2085078     0.017748662
      5447.91       2.2396472     0.017810066
      5453.36       2.2565859     0.017697055
      5458.81       2.2437387     0.017439783
      5464.27       2.2364950     0.017324384
      5469.73       2.2316016     0.017212121
      5475.20       2.2122029     0.017135981
      5480.68       2.1770302     0.017020823
      5486.16       2.1394686     0.016907804
      5491.65       2.1078570     0.016797431
      5497.14       2.0781898     0.016722589
      5502.64       2.0350728     0.016609158
      5508.14       1.9975631     0.016498514
      5513.65       1.9485165     0.016389866
      5519.16       1.9080394     0.016149363
      5524.68       1.8895999     0.016205277
      5530.20       1.8817127     0.016096029
      5535.73       1.8745342     0.015857560
      5541.27       1.8757247     0.015753117
      5546.81       1.8734177     0.015650577
      5552.36       1.8780168     0.015701184
      5557.91       1.8863929     0.015467306
      5563.47       1.8853308     0.015363724
      5569.04       1.9114099     0.015262213
      5574.60       1.9303308     0.015161925
      5580.18       1.9497792     0.015208795
      5585.76       1.9776598     0.014981919
      5591.35       1.9997645     0.014880968
      5596.94       2.0159298     0.014781391
      5602.53       2.0167711     0.014683405
      5608.14       1.9962801     0.014466335
      5613.75       1.9828408     0.014507215
      5619.36       1.9574930     0.014408629
      5624.98       1.9361820     0.014311029
      5630.60       1.9106683     0.014215072
      5636.23       1.8803377     0.014005258
      5641.87       1.8484719     0.013908005
      5647.51       1.8145730     0.013811969
      5653.16       1.7854609     0.013851318
      5658.82       1.7538244     0.013756726
      5664.47       1.7341969     0.013555802
      5670.14       1.7145923     0.013460482
      5675.81       1.6968614     0.013365908
      5681.48       1.6892000     0.013272825
      5687.17       1.6954165     0.013180418
      5692.85       1.6953350     0.013118455
      5698.55       1.6981000     0.013024661
      5704.25       1.6966698     0.012931828
      5709.95       1.6929370     0.012840025
      5715.66       1.7015251     0.012749224
      5721.38       1.7192208     0.012659402
      5727.10       1.7337129     0.012471867
      5732.83       1.7265926     0.012384198
      5738.56       1.7333344     0.012297217
      5744.30       1.7409962     0.012330906
      5750.04       1.7359249     0.012242164
      5755.79       1.7247872     0.012154312
      5761.55       1.7430977     0.011973270
      5767.31       1.7686474     0.011887605
      5773.08       1.7839140     0.011802546
      5778.85       1.7989468     0.011718243
      5784.63       1.8185592     0.011634660
      5790.41       1.8408745     0.011551633
      5796.21       1.8500042     0.011469301
      5802.00       1.8449789     0.011387766
      5807.81       1.8450843     0.011219392
      5813.61       1.8357098     0.011139594
      5819.43       1.8171506     0.011060257
      5825.25       1.8163946     0.011084980
      5831.07       1.7970837     0.011005631
      5836.90       1.8020270     0.010928117
      5842.74       1.7968299     0.010853975
      5848.58       1.8097668     0.010783913
      5854.43       1.8018366     0.010715774
      5860.29       1.7915416     0.010567578
      5866.15       1.7761401     0.010500064
      5872.01       1.7889964     0.010434432
      5877.89       1.7935194     0.010366890
      5883.76       1.7839413     0.010295407
      5889.65       1.7782646     0.010222137
      5895.54       1.7732170     0.010148150
      5901.43       1.7726871     0.010073110
      5907.34       1.7548431    0.0099970199
      5913.24       1.7374330    0.0099202240
      5919.16       1.7322504    0.0098443449
      5925.08       1.7142204    0.0097693947
      5931.00       1.7054235    0.0096946339
      5936.93       1.7034054    0.0095479013
      5942.87       1.7075366    0.0094724460
      5948.81       1.7298307    0.0093964186
      5954.76       1.7387663    0.0093209901
      5960.72       1.7424744    0.0092461377
      5966.68       1.7469747    0.0091707927
      5972.64       1.7523107    0.0090950412
      5978.62       1.7537013    0.0090211940
      5984.60       1.7591068    0.0089496558
      5990.58       1.7573871    0.0088785379
      5996.57       1.7463457    0.0088069508
      6002.57       1.7447948    0.0087368573
      6008.57       1.7389623    0.0086685522
      6014.58       1.7366083    0.0086013960
      6020.60       1.7207936    0.0085349352
      6026.62       1.7095780    0.0084694794
      6032.65       1.7137832    0.0084048298
      6038.68       1.7088455    0.0083407052
      6044.72       1.7114561    0.0082004414
      6050.76       1.7050767    0.0081378338
      6056.81       1.7040830    0.0080757350
      6062.87       1.7056383    0.0080142419
      6068.93       1.6970134    0.0079531421
      6075.00       1.6944146    0.0078925050
      6081.08       1.7062562    0.0078324056
      6087.16       1.7112858    0.0077726453
      6093.25       1.7111901    0.0077134079
      6099.34       1.7094826    0.0076545866
      6105.44       1.7064050    0.0075962975
      6111.54       1.7003049    0.0075383730
      6117.66       1.7146935    0.0074809868
      6123.78       1.7171179    0.0073539577
      6129.90       1.7161964    0.0072974338
      6136.03       1.7159861    0.0072412358
      6142.17       1.7214491    0.0071856269
      6148.31       1.7300897    0.0071303848
      6154.46       1.7311844    0.0070756617
      6160.61       1.7304084    0.0070213148
      6166.77       1.7240005    0.0069676498
      6172.94       1.7109566    0.0069639344
      6179.11       1.6933291    0.0068482088
      6185.29       1.6652140    0.0067951737
      6191.48       1.6480671    0.0067430472
      6197.67       1.6295513    0.0066930528
      6203.87       1.6127339    0.0066456162
      6210.07       1.5922526    0.0065956616
      6216.28       1.5727117    0.0065442038
      6222.50       1.5548949    0.0064966146
      6228.72       1.5355107    0.0063972616
      6234.95       1.5238403    0.0063586885
      6241.19       1.5110812    0.0063233101
      6247.42       1.5036967    0.0062897705
      6253.67       1.4996283    0.0063016656
      6259.93       1.4912234    0.0062662934
      6266.19       1.4849438    0.0061725218
      6272.46       1.4855097    0.0061310160
      6278.73       1.4904781    0.0060857522
      6285.01       1.4877444    0.0060365974
      6291.29       1.4885304    0.0059843897
      6297.58       1.4945849    0.0059299975
      6303.88       1.4919328    0.0058558410
      6310.19       1.5027644    0.0058013528
      6316.50       1.5168130    0.0057504810
      6322.81       1.5307531    0.0057027910
      6329.14       1.5447306    0.0056549751
      6335.47       1.5569750    0.0055548740
      6341.80       1.5674879    0.0055087773
      6348.14       1.5794258    0.0054640819
      6354.49       1.5908632    0.0054572805
      6360.85       1.6080056    0.0054144480
      6367.21       1.6214433    0.0053236263
      6373.57       1.6342573    0.0052819042
      6379.95       1.6441149    0.0052413082
      6386.33       1.6595973    0.0052018245
      6392.72       1.6792879    0.0051536841
      6399.11       1.7010619    0.0051151102
      6405.51       1.7181098    0.0050773450
      6411.92       1.7344413    0.0050403369
      6418.32       1.7502900    0.0049613515
      6424.74       1.7530986    0.0049275868
      6431.17       1.7569893    0.0049285105
      6437.60       1.7641798    0.0048970941
      6444.04       1.7658443    0.0048243347
      6450.48       1.7642395    0.0047928434
      6456.94       1.7640798    0.0047618471
      6463.39       1.7605355    0.0047621495
      6469.85       1.7666497    0.0046891312
      6476.33       1.7657141    0.0046568776
      6482.80       1.7626929    0.0046242579
      6489.28       1.7595260    0.0045916070
      6495.77       1.7556322    0.0045469450
      6502.27       1.7523153    0.0045140121
      6508.77       1.7521699    0.0044822187
      6515.28       1.7536904    0.0044114972
      6521.80       1.7535151    0.0044106620
      6528.32       1.7489567    0.0043803968
      6534.85       1.7408423    0.0043122424
      6541.38       1.7337552    0.0042813857
      6547.92       1.7221120    0.0042797125
      6554.47       1.7122613    0.0042503176
      6561.03       1.7108072    0.0041844740
      6567.59       1.7049135    0.0041554701
      6574.16       1.6999540    0.0041545656
      6580.73       1.7016007    0.0040910217
      6587.31       1.6978370    0.0040635411
      6593.90       1.6925756    0.0040373119
      6600.50       1.6833905    0.0040052658
      6607.10       1.6736620    0.0039796359
      6613.70       1.6647939    0.0039549329
      6620.32       1.6533065    0.0038985509
      6626.94       1.6378272    0.0039004975
      6633.57       1.6265540    0.0038448258
      6640.20       1.6080159    0.0038222834
      6646.84       1.5872885    0.0038250770
      6653.49       1.5745585    0.0037714318
      6660.14       1.5605685    0.0037500521
      6666.80       1.5490474    0.0037536398
      6673.47       1.5383463    0.0037017611
      6680.14       1.5301283    0.0036814927
      6686.82       1.5244824    0.0036620515
      6693.51       1.5271886    0.0036357679
      6700.20       1.5257350    0.0036166552
      6706.90       1.5243730    0.0035678900
      6713.61       1.5203845    0.0035733811
      6720.32       1.5099049    0.0035554809
      6727.05       1.4988991    0.0035082336
      6733.77       1.4895230    0.0035146397
      6740.51       1.4768236    0.0034692351
      6747.25       1.4602144    0.0034521149
      6754.00       1.4373913    0.0034595714
      6760.75       1.4197255    0.0034154516
      6767.51       1.3994995    0.0033996709
      6774.28       1.3799130    0.0033813780
      6781.05       1.3652828    0.0033702863
      6787.84       1.3536793    0.0033678357
      6794.62       1.3470885    0.0033585436
      6801.42       1.3330563    0.0033402574
      6808.22       1.3294091    0.0033276119
      6815.03       1.3291229    0.0033302914
      6821.85       1.3277854    0.0033231029
      6828.67       1.3271626    0.0033742994
      6835.50       1.3253816    0.0033845077
      6842.33       1.3241823    0.0034519970
      6849.17       1.3242476    0.0034621732
      6856.02       1.3269070    0.0034889487
      6862.88       1.3299911    0.0035092147
      6869.74       1.3327919    0.0035091674
      6876.61       1.3367044    0.0034886852
      6883.49       1.3448248    0.0034580527
      6890.37       1.3497268    0.0034189984
      6897.27       1.3566061    0.0033593786
      6904.16       1.3617649    0.0033158962
      6911.07       1.3677395    0.0032677155
      6917.98       1.3774252    0.0032433145
      6924.89       1.3890000    0.0032104511
      6931.82       1.3918934    0.0031819835
      6938.75       1.3984980    0.0031344872
      6945.69       1.4005170    0.0031383715
      6952.64       1.3932535    0.0030994050
      6959.59       1.3921874    0.0030836271
      6966.55       1.3854388    0.0030723329
      6973.52       1.3798445    0.0030628990
      6980.49       1.3788287    0.0030558004
      6987.47       1.3735318    0.0030504364
      6994.46       1.3649506    0.0030448435
      7001.46       1.3588412    0.0030392724
      7008.46       1.3549446    0.0030326988
      7015.46       1.3543640    0.0030047843
      7022.48       1.3502477    0.0030182622
      7029.51       1.3449381    0.0029914394
      7036.53       1.3411105    0.0030070261
      7043.57       1.3420867    0.0029819309
      7050.62       1.3461159    0.0029770928
      7057.66       1.3509715    0.0029740219
      7064.72       1.3513941    0.0029708846
      7071.79       1.3546063    0.0029694920
      7078.86       1.3544522    0.0029692522
      7085.94       1.3571383    0.0029715354
      7093.03       1.3622463    0.0029753708
      7100.12       1.3587809    0.0029583992
      7107.22       1.3562534    0.0029851581
      7114.33       1.3602473    0.0029949074
      7121.44       1.3606066    0.0030061068
      7128.56       1.3557506    0.0030282128
      7135.69       1.3549430    0.0030376973
      7142.83       1.3517451    0.0030924270
      7149.97       1.3484783    0.0031106099
      7157.12       1.3514830    0.0031673609
      7164.28       1.3468062    0.0031721627
      7171.44       1.3478315    0.0031959699
      7178.62       1.3493056    0.0032071729
      7185.80       1.3489938    0.0032174893
      7192.98       1.3541605    0.0032215739
      7200.17       1.3526266    0.0032193270
      7207.38       1.3600123    0.0032189616
      7214.58       1.3585710    0.0032000358
      7221.80       1.3595866    0.0032293696
      7229.02       1.3544331    0.0032179062
      7236.25       1.3412733    0.0032310301
      7243.49       1.3358124    0.0032650724
      7250.73       1.3289242    0.0032478063
      7257.98       1.3167156    0.0032495311
      7265.24       1.3024303    0.0032464633
      7272.51       1.2851479    0.0032417136
      7279.78       1.2613200    0.0032395814
      7287.06       1.2488739    0.0032377872
      7294.35       1.2338081    0.0032329304
      7301.64       1.2148960    0.0032045465
      7308.94       1.1974358    0.0032210393
      7316.25       1.1820515    0.0032163452
      7323.57       1.1649602    0.0031932077
      7330.89       1.1497164    0.0032156270
      7338.22       1.1322195    0.0032181611
      7345.56       1.1132668    0.0032018741
      7352.91       1.0926765    0.0032108634
      7360.26       1.0687026    0.0032407542
      7367.62       1.0403785    0.0032275867
      7374.99       1.0121666    0.0032379319
      7382.37      0.98670448    0.0032448246
      7389.75      0.96007060    0.0032567254
      7397.14      0.93767103    0.0032701330
      7404.53      0.91667613    0.0032607643
      7411.94      0.88746881    0.0032955362
      7419.35      0.86174907    0.0033119893
      7426.77      0.84447086    0.0033292210
      7434.20      0.82385846    0.0033217765
      7441.63      0.80667366    0.0033598504
      7449.07      0.78679176    0.0033792556
      7456.52      0.76793946    0.0033735109
      7463.98      0.74562928    0.0033934252
      7471.45      0.72382208    0.0034141971
      7478.92      0.70799884    0.0034298685
      7486.40      0.68978651    0.0034511224
      7493.88      0.67287819    0.0034751012
      7501.38      0.65017435    0.0035131004
      7508.88      0.63351851    0.0035567436
      7516.39      0.62000310    0.0036183724
      7523.91      0.61107763    0.0036479782
      7531.43      0.60723377    0.0036288388
      7538.96      0.60918135    0.0037005868
      7546.50      0.60888197    0.0038306073
      7554.05      0.60500220    0.0040028850
      7561.60      0.61074413    0.0041969655
      7569.16      0.62190677    0.0044833432
      7576.73      0.63711559    0.0048112887
      7584.31      0.64205166    0.0051590323
      7591.89      0.64642461    0.0054087627
      7599.49      0.65496979    0.0056852297
      7607.09      0.66737717    0.0058389357
      7614.70      0.68741060    0.0058321484
      7622.31      0.70053572    0.0056574361
      7629.93      0.71181152    0.0054252031
      7637.56      0.72419194    0.0051470078
      7645.20      0.72936356    0.0049241500
      7652.85      0.73374018    0.0047064620
      7660.50      0.74630738    0.0045428489
      7668.16      0.75540493    0.0044029759
      7675.83      0.75826675    0.0042977288
      7683.50      0.76157691    0.0042500426
      7691.19      0.76406332    0.0042308687
      7698.88      0.76355615    0.0041967343
      7706.58      0.76176765    0.0041868273
      7714.29      0.76610494    0.0042085624
      7722.00      0.76764336    0.0042185190
      7729.73      0.76832864    0.0042365713
      7737.45      0.77746231    0.0042604564
      7745.19      0.78909738    0.0042570284
      7752.94      0.80594605    0.0042863235
      7760.69      0.81828637    0.0043172108
      7768.45      0.82675351    0.0043495563
      7776.22      0.84028741    0.0043829426
      7784.00      0.85348829    0.0044168494
      7791.78      0.86201372    0.0044511903
      7799.57      0.86924573    0.0044521077
      7807.37      0.87490228    0.0044867156
      7815.18      0.87452029    0.0045454791
      7822.99      0.86637322    0.0045816066
      7830.82      0.85773124    0.0046191155
      7838.65      0.85513865    0.0046576535
      7846.49      0.84528644    0.0046971369
      7854.34      0.83511282    0.0047379193
      7862.19      0.82577321    0.0047442163
      7870.05      0.81397136    0.0047853781
      7877.93      0.81056442    0.0048249285
      7885.80      0.81255293    0.0048633204
      7893.69      0.80609497    0.0049014163
      7901.58      0.80298231    0.0049394178
      7909.49      0.79766255    0.0049773321
      7917.40      0.79098770    0.0050152105
      7925.31      0.78618861    0.0050532560
      7933.24      0.77464544    0.0050919126
      7941.17      0.76594740    0.0051317613
      7949.11      0.75248878    0.0051729176
      7957.06      0.73446322    0.0052142749
      7965.02      0.72248070    0.0052167950
      7972.98      0.70419410    0.0052583165
      7980.96      0.69396077    0.0052996370
      7988.94      0.68754428    0.0053399902
      7996.93      0.67348195    0.0053795782
      8004.93      0.66041719    0.0053918987
      8012.93      0.64906703    0.0054329116
      8020.95      0.63561078    0.0054740037
      8028.97      0.62237781    0.0055144636
      8036.99      0.60920601    0.0055567522
      8045.03      0.59733049    0.0056014119
      8053.08      0.58387881    0.0056491725
      8061.13      0.56988739    0.0057019926
      8069.20      0.55500575    0.0057597124
      8077.26      0.54593185    0.0058223651
      8085.34      0.53241322    0.0058944340
      8093.43      0.52466276    0.0059774374
      8101.52      0.51628108    0.0060705803
      8109.62      0.50815036    0.0061702909
      8117.73      0.50383036    0.0062539667
      8125.85      0.49898394    0.0063662160
      8133.98      0.50227037    0.0064709493
      8142.11      0.50000711    0.0065507053
      8150.25      0.50398575    0.0066129903
      8158.41      0.50901590    0.0066695898
      8166.56      0.51088241    0.0067195921
      8174.73      0.50954625    0.0068114805
      8182.91      0.50892713    0.0068114860
      8191.09      0.50660126    0.0068421461
      8199.28      0.50629657    0.0068702358
      8207.48      0.49893661    0.0069006785
      8215.69      0.49343007    0.0069371012
      8223.91      0.49099198    0.0069755894
      8232.13      0.49167035    0.0070083576
      8240.36      0.49296265    0.0070003514
      8248.60      0.50538512    0.0070279555
      8256.85      0.52300009    0.0070535364
      8265.11      0.53795866    0.0070777058
      8273.37      0.55761644    0.0071096083
      8281.65      0.58318203    0.0071704129
      8289.93      0.61447716    0.0072136175
      8298.22      0.65060171    0.0072305316
      8306.52      0.69057139    0.0072415231
      8314.83      0.72438601    0.0072592370
      8323.14      0.76143249    0.0072377813
      8331.46      0.79867377    0.0072615062
      8339.80      0.83690126    0.0072902374
      8348.13      0.87148298    0.0073647788
      8356.48      0.89926120    0.0073918946
      8364.84      0.92916187    0.0073838385
      8373.21      0.95374524    0.0074191045
      8381.58      0.97937492    0.0074580492
      8389.96       1.0109176    0.0074967851
      8398.35       1.0468878    0.0074985523
      8406.75       1.0848840    0.0075907117
      8415.16       1.1180252    0.0076343269
      8423.57       1.1456226    0.0076796805
      8432.00       1.1816494    0.0076873152
      8440.43       1.2168052    0.0077351906
      8448.87       1.2574175    0.0078362342
      8457.32       1.2961955    0.0078853970
      8465.78       1.3284914    0.0078966354
      8474.25       1.3624236    0.0079481094
      8482.72       1.4016216    0.0079998121
      8491.20       1.4386448    0.0080647841
      8499.69       1.4740974    0.0081157903
      8508.19       1.5035879    0.0081662951
      8516.70       1.5264781    0.0082166755
      8525.22       1.5525573    0.0082232383
      8533.75       1.5692446    0.0083281040
      8542.28       1.5800165    0.0083777178
      8550.82       1.5888148    0.0083845776
      8559.37       1.5901076    0.0084342727
      8567.93       1.5922720    0.0085414907
      8576.50       1.5830951    0.0085481233
      8585.08       1.5754513    0.0085978768
      8593.66       1.5652648    0.0086493707
      8602.26       1.5372282    0.0087179429
      8610.86       1.5126061    0.0087700988
      8619.47       1.4842708    0.0087795722
      8628.09       1.4532136    0.0088329701
      8636.72       1.4290315    0.0089446654
      8645.36       1.3973528    0.0089531939
      8654.00       1.3692054    0.0090060415
      8662.66       1.3434569    0.0091178397
      8671.32       1.3234738    0.0091243281
      8679.99       1.3025238    0.0091763361
      8688.67       1.2768925    0.0091816005
      8697.36       1.2520703    0.0092936906
      8706.06       1.2253480    0.0093464707
      8714.76       1.2041336    0.0093519965
      8723.48       1.1862536    0.0094675824
      8732.21       1.1714339    0.0094745632
      8740.93       1.1515269    0.0095274636
      8749.68       1.1435893    0.0096453270
      8758.43       1.1243848    0.0096524536
      8767.19       1.0959769    0.0097066760
      8775.96       1.0767508    0.0097779457
      8784.73       1.0553958    0.0098319890
      8793.52       1.0383620    0.0098395555
      8802.31       1.0239358    0.0099585064
      8811.11       1.0110788     0.010013864
      8819.92       1.0099311     0.010087566
      8828.75       1.0003458     0.010144075
      8837.57      0.98864027     0.010154956
      8846.41      0.97166378     0.010281687
      8855.26      0.95090789     0.010301862
      8864.12      0.93382155     0.010371483
      8872.98      0.93042476     0.010463175
      8881.85      0.92326380     0.010552989
      8890.73      0.91054307     0.010678236
      8899.63      0.89429347     0.010792582
      8908.52      0.87485054     0.010968191
      8917.43      0.86356973     0.011133307
      8926.35      0.84955201     0.011279293
      8935.28      0.83701487     0.011559995
      8944.22      0.82866239     0.011728759
      8953.16      0.81446034     0.012015982
      8962.11      0.81399180     0.012141495
      8971.08      0.82032817     0.012364434
      8980.05      0.81970435     0.012371096
      8989.03      0.81356028     0.012340773
      8998.02      0.79463567     0.012416345
      9007.02      0.78212366     0.012351498
      9016.02      0.77268144     0.012431206
      9025.04      0.76837775     0.012415873
      9034.07      0.76444031     0.012539140
      9043.10      0.77077980     0.012559638
      9052.14      0.76922305     0.012758246
      9061.20      0.77317512     0.012817796
      9070.26      0.77532741     0.012965587
      9079.33      0.78072854     0.013075075
      9088.41      0.80617775     0.013188802
      9097.50      0.82739010     0.013258194
      9106.60      0.84689451     0.013331936
      9115.70      0.86110722     0.013314171
      9124.82      0.87784076     0.013442142
      9133.94      0.90182782     0.013404137
      9143.08      0.92161960     0.013496614
      9152.22      0.94082413     0.013394691
      9161.37      0.95720459     0.013361553
      9170.54      0.96788327     0.013339056
      9179.71      0.97045726     0.013319150
      9188.89      0.96170033     0.013330323
      9198.08      0.94638004     0.013367596
      9207.28      0.93023600     0.013452321
      9216.48      0.92058199     0.013514229
      9225.70      0.90918771     0.013753050
      9234.92      0.88537556     0.013935090
      9244.16      0.86218714     0.014308498
      9253.40      0.83628060     0.014849241
      9262.66      0.82321075     0.015371104
      9271.92      0.80321976     0.016213770
      9281.20      0.78337338     0.017009823
      9290.48      0.77388275     0.018115538
      9299.77      0.75777065     0.019275749
      9309.07      0.74716596     0.020163350
      9318.38      0.73777265     0.021087024
      9327.69      0.74732736     0.021461138
      9337.02      0.74344635     0.021675365
      9346.36      0.73295425     0.021761780
      9355.71      0.73054951     0.021285359
      9365.07      0.70218362     0.020862296
      9374.43      0.68960424     0.020504667
      9383.80      0.68082514     0.020334154
      9393.19      0.68366642     0.020266013
      9402.58      0.68719413     0.020373166
      9411.98      0.66112242     0.020466229
      9421.40      0.66281850     0.020766251
      9430.82      0.66648280     0.020977825
      9440.25      0.68730950     0.021006054
      9449.69      0.70185601     0.021015830
      9459.14      0.68887772     0.020965937
      9468.60      0.69334801     0.020727889
      9478.07      0.69061924     0.020652477
      9487.55      0.69566358     0.020548533
      9497.04      0.68766812     0.020346019
      9506.53      0.68329100     0.020392438
      9516.04      0.67898514     0.020286800
      9525.56      0.68936705     0.020170502
      9535.08      0.69913244     0.019945024
      9544.62      0.69647467     0.019784485
      9554.16      0.71035425     0.019613126
      9563.72      0.70444371     0.019539019
      9573.29      0.69919935     0.019228710
      9582.85      0.69536523     0.018999982
      9592.44      0.67349733     0.018799152
      9602.03      0.66415908     0.018538408
      9611.63      0.65753190     0.018203238
      9621.25      0.64874054     0.018061374
      9630.87      0.63279744     0.017776628
      9640.50      0.61975163     0.017475642
      9650.14      0.60341280     0.017155115
      9659.79      0.58984909     0.016954211
      9669.45      0.56725511     0.016802275
      9679.12      0.56589258     0.016704946
      9688.80      0.57333888     0.016674685
      9698.49      0.57572962     0.016609836
      9708.19      0.58609041     0.016737247
      9717.90      0.58907823     0.016814866
      9727.62      0.58837587     0.016881370
      9737.34      0.58366035     0.016743650
      9747.08      0.57205688     0.016567420
      9756.83      0.56993201     0.016455455
      9766.59      0.55552382     0.016252550
      9776.35      0.56913546     0.016048943
      9786.13      0.57252410     0.015995153
      9795.92      0.58216441     0.015796379
      9805.71      0.57713389     0.015613701
      9815.52      0.57458656     0.015518443
      9825.34      0.57290376     0.015360919
      9835.17      0.57574037     0.015213676
      9845.00      0.57487609     0.015076457
      9854.84      0.56988951     0.015007930
      9864.70      0.57169237     0.014886357
      9874.56      0.57595913     0.014845815
      9884.44      0.58086900     0.014752725
      9894.32      0.59061960     0.014716422
      9904.22      0.59757985     0.014625346
      9914.13      0.58774287     0.014542949
      9924.04      0.58532985     0.014470441
      9933.96      0.57870438     0.014452936
      9943.90      0.57736133     0.014442894
      9953.84      0.58451143     0.014376958
      9963.79      0.59120900     0.014313160
      9973.76      0.58836793     0.014251955
      9983.74      0.58282265     0.014194422
      9993.72      0.57387502     0.014185031
