# starting wavelength =        3628.5988
# ending wavelength =        9433.7954
# O2 telluric scale =        0
# O2 telluric shift =        0
# H2O telluric scale =        0
# H2O telluric shift =        0
      3630.66       1.3898265     0.032971725
      3634.29       1.3964166     0.032908212
      3637.93       1.4022764     0.032845230
      3641.57       1.4024515     0.032575614
      3645.21       1.4019214     0.032510932
      3648.86       1.4059176     0.032446774
      3652.50       1.4112964     0.032383334
      3656.16       1.4104086     0.032467189
      3659.81       1.4190570     0.032202314
      3663.47       1.4280330     0.032137413
      3667.14       1.4349090     0.032073122
      3670.80       1.4403811     0.032009550
      3674.48       1.4500578     0.031749551
      3678.15       1.4605245     0.031687682
      3681.83       1.4716207     0.031626325
      3685.51       1.4697981     0.031701106
      3689.20       1.4693424     0.031442219
      3692.88       1.4797662     0.031379521
      3696.58       1.4857172     0.031317584
      3700.27       1.4848101     0.031256405
      3703.98       1.4865569     0.031195912
      3707.68       1.4814726     0.030937467
      3711.39       1.4830729     0.031204157
      3715.10       1.4840238     0.031353014
      3718.81       1.4799160     0.031493292
      3722.53       1.4735435     0.031682602
      3726.26       1.4688070     0.031834964
      3729.98       1.4656415     0.032072312
      3733.71       1.4616754     0.032239027
      3737.45       1.4348017     0.031101582
      3741.18       1.4083434     0.030774774
      3744.93       1.3904926     0.030531976
      3748.67       1.3890333     0.030353056
      3752.42       1.3924514     0.029952009
      3756.17       1.3855963     0.029887707
      3759.93       1.3727636     0.029936708
      3763.69       1.3647377     0.029921952
      3767.45       1.3557571     0.029737948
      3771.22       1.3531375     0.029765090
      3774.99       1.3472346     0.029803982
      3778.77       1.3367862     0.029853068
      3782.54       1.3248170     0.029773307
      3786.33       1.3193230     0.029931982
      3790.11       1.3159806     0.030003601
      3793.90       1.3113529     0.029960757
      3797.70       1.3105362     0.030034308
      3801.50       1.3111194     0.030109660
      3805.30       1.3036205     0.030295779
      3809.10       1.3034440     0.030251520
      3812.91       1.3012300     0.030321536
      3816.73       1.2923040     0.030389877
      3820.54       1.2861549     0.030455471
      3824.36       1.2897215     0.030315395
      3828.19       1.2871450     0.030545069
      3832.02       1.2819729     0.030589917
      3835.85       1.2755247     0.030406284
      3839.68       1.2686569     0.030435250
      3843.52       1.2629341     0.030457922
      3847.37       1.2621676     0.030474343
      3851.22       1.2630985     0.030395010
      3855.07       1.2610251     0.030385856
      3858.92       1.2596276     0.030369715
      3862.78       1.2555721     0.030123233
      3866.64       1.2503873     0.030081982
      3870.51       1.2405882     0.030122186
      3874.38       1.2314577     0.030011519
      3878.26       1.2271711     0.029666318
      3882.13       1.2284325     0.029536705
      3886.02       1.2249133     0.029401616
      3889.90       1.2320271     0.029198897
      3893.79       1.2285837     0.029045490
      3897.69       1.2266956     0.028888414
      3901.59       1.2296827     0.028728299
      3905.49       1.2331739     0.028400397
      3909.39       1.2267868     0.028312199
      3913.30       1.2208349     0.028139515
      3917.22       1.2154182     0.027809527
      3921.13       1.2157436     0.027639646
      3925.06       1.2194332     0.027469953
      3928.98       1.2294748     0.027204781
      3932.91       1.2359687     0.027034475
      3936.84       1.2415656     0.026866335
      3940.78       1.2474982     0.026701165
      3944.72       1.2517942     0.026779665
      3948.67       1.2563406     0.026747098
      3952.61       1.2618881     0.026805815
      3956.57       1.2681574     0.026775476
      3960.52       1.2802292     0.026390194
      3964.48       1.2945496     0.025840897
      3968.45       1.3041297     0.025617590
      3972.42       1.3114263     0.025431580
      3976.39       1.3180839     0.025277573
      3980.37       1.3271736     0.025077171
      3984.35       1.3321342     0.024994970
      3988.33       1.3345237     0.024935746
      3992.32       1.3392134     0.024781267
      3996.31       1.3445579     0.024770920
      4000.31       1.3489886     0.024953645
      4004.31       1.3509659     0.024897481
      4008.31       1.3558667     0.024989296
      4012.32       1.3601239     0.025119113
      4016.33       1.3678083     0.025542271
      4020.35       1.3713940     0.025472832
      4024.37       1.3757145     0.025253767
      4028.40       1.3795609     0.025103831
      4032.42       1.3834051     0.025039907
      4036.46       1.3876855     0.024825846
      4040.50       1.3934123     0.024710683
      4044.54       1.4594502     0.033802396
      4048.58       1.4698686     0.033490062
      4052.63       1.4766992     0.033638111
      4056.68       1.4773095     0.033860897
      4060.74       1.4774213     0.033831489
      4064.80       1.4826645     0.034482682
      4068.86       1.4870985     0.034830645
      4072.93       1.4875304     0.034851554
      4077.01       1.4844156     0.035638055
      4081.08       1.4835867     0.035976027
      4085.17       1.4801532     0.035852248
      4089.25       1.4777750     0.036126874
      4093.34       1.4648072     0.036814704
      4097.43       1.4574895     0.036417869
      4101.53       1.4536000     0.036524617
      4105.63       1.4536293     0.036857207
      4109.74       1.4527481     0.036198709
      4113.85       1.4552729     0.035879435
      4117.96       1.4599128     0.035526413
      4122.08       1.4646602     0.034992564
      4126.20       1.4692151     0.034544158
      4130.33       1.4736405     0.034085391
      4134.46       1.4804835     0.033428706
      4138.59       1.4843670     0.032946371
      4142.73       1.4881778     0.032479248
      4146.88       1.4978856     0.031887634
      4151.02       1.5043795     0.031463507
      4155.18       1.5083692     0.030793154
      4159.33       1.5148595     0.030452926
      4163.49       1.5205559     0.030487791
      4167.65       1.5157768     0.030146032
      4171.82       1.5143242     0.030098022
      4175.99       1.5162313     0.031076762
      4180.17       1.5090193     0.031819021
      4184.35       1.5035815     0.031141076
      4188.54       1.4998262     0.030718763
      4192.72       1.4903164     0.030001290
      4196.92       1.4860846     0.029615493
      4201.11       1.4834241     0.029243726
      4205.31       1.4803212     0.029159374
      4209.52       1.4766746     0.029081477
      4213.73       1.4680218     0.028959875
      4217.94       1.4632125     0.028876883
      4222.16       1.4562309     0.028800488
      4226.38       1.4458632     0.028677148
      4230.61       1.4384844     0.028595751
      4234.84       1.4314975     0.028234350
      4239.08       1.4214337     0.028393335
      4243.32       1.4125474     0.028315609
      4247.56       1.4048898     0.027958660
      4251.81       1.3995120     0.028114439
      4256.06       1.3950080     0.027754770
      4260.32       1.3855022     0.027684551
      4264.58       1.3737828     0.027834901
      4268.84       1.3631943     0.027480106
      4273.11       1.3523042     0.027412140
      4277.38       1.3338413     0.027279065
      4281.66       1.3227392     0.027206911
      4285.94       1.3124975     0.027141493
      4290.23       1.3060596     0.027005388
      4294.52       1.3074394     0.026935859
      4298.81       1.3069712     0.026590669
      4303.11       1.3066183     0.026733749
      4307.42       1.3067972     0.026666865
      4311.72       1.3078196     0.026320425
      4316.04       1.3045061     0.026463992
      4320.35       1.3086075     0.026125846
      4324.67       1.3088270     0.026052239
      4329.00       1.3071821     0.026196548
      4333.33       1.3084095     0.025856681
      4337.66       1.3123605     0.025995494
      4342.00       1.3176448     0.025663629
      4346.34       1.3201511     0.025589717
      4350.69       1.3246541     0.025472923
      4355.04       1.3270987     0.025395763
      4359.39       1.3325181     0.025325506
      4363.75       1.3428972     0.025204042
      4368.12       1.3467274     0.025130672
      4372.48       1.3515247     0.025014630
      4376.86       1.3542568     0.024937973
      4381.23       1.3532245     0.024623912
      4385.61       1.3615495     0.024747186
      4390.00       1.3681009     0.024674685
      4394.39       1.3785628     0.024366853
      4398.79       1.3848570     0.024482609
      4403.18       1.3897321     0.024174115
      4407.59       1.3985300     0.024292577
      4412.00       1.4036670     0.023982915
      4416.41       1.4078319     0.023919935
      4420.82       1.4080157     0.023793574
      4425.25       1.4061515     0.023728011
      4429.67       1.3978973     0.023841430
      4434.10       1.3983539     0.023537890
      4438.54       1.4004608     0.023477072
      4442.97       1.3961186     0.023349449
      4447.42       1.3953982     0.023286318
      4451.86       1.4023998     0.023162408
      4456.32       1.4031144     0.023097031
      4460.77       1.4029910     0.022800406
      4465.24       1.4080819     0.022909186
      4469.70       1.4077723     0.022617825
      4474.17       1.4123402     0.022722493
      4478.65       1.4174923     0.022434710
      4483.12       1.4206058     0.022364560
      4487.61       1.4237274     0.022473165
      4492.09       1.4279336     0.022181670
      4496.59       1.4317128     0.022286998
      4501.08       1.4369802     0.021999989
      4505.58       1.4368259     0.021933641
      4510.09       1.4362265     0.021819205
      4514.60       1.4346921     0.021751399
      4519.12       1.4317359     0.021638964
      4523.63       1.4282539     0.021569944
      4528.16       1.4265110     0.021459518
      4532.69       1.4255782     0.021389392
      4537.22       1.4216132     0.021120127
      4541.76       1.4166145     0.021209629
      4546.30       1.4116167     0.020940980
      4550.85       1.4077954     0.021030778
      4555.40       1.4079546     0.020762786
      4559.95       1.4103322     0.020852775
      4564.51       1.4106511     0.020585323
      4569.08       1.4102414     0.020527156
      4573.65       1.4050932     0.020408552
      4578.22       1.4036436     0.020349560
      4582.80       1.4050892     0.020232575
      4587.38       1.4015726     0.020172864
      4591.97       1.3968755     0.020057213
      4596.56       1.3923669     0.019996976
      4601.16       1.3868204     0.019882361
      4605.76       1.3866241     0.019821573
      4610.37       1.3879067     0.019565350
      4614.98       1.3866709     0.019647072
      4619.59       1.3832478     0.019393100
      4624.21       1.3808782     0.019473209
      4628.84       1.3800271     0.019221564
      4633.47       1.3759985     0.019300143
      4638.10       1.3776325     0.019050728
      4642.74       1.3780154     0.019127742
      4647.38       1.3749908     0.018880403
      4652.03       1.3766069     0.018955990
      4656.68       1.3774067     0.018710619
      4661.34       1.3791498     0.018649721
      4666.00       1.3817786     0.018541202
      4670.67       1.3815039     0.018480604
      4675.33       1.3803734     0.018372500
      4680.01       1.3749501     0.018137575
      4684.69       1.3705189     0.018204493
      4689.38       1.3706181     0.017971234
      4694.07       1.3694300     0.018036983
      4698.76       1.3638420     0.017805636
      4703.46       1.3603716     0.017870070
      4708.16       1.3596410     0.017640724
      4712.87       1.3588854     0.017703599
      4717.58       1.3599856     0.017476286
      4722.30       1.3559281     0.017537881
      4727.03       1.3512266     0.017312456
      4731.75       1.3512956     0.017372617
      4736.48       1.3504995     0.017149281
      4741.22       1.3509378     0.017042941
      4745.96       1.3475555     0.016986924
      4750.71       1.3407517     0.016880247
      4755.46       1.3389134     0.016825406
      4760.22       1.3462760     0.016718492
      4764.97       1.3372766     0.016664441
      4769.74       1.3300886     0.016557449
      4774.51       1.3257170     0.016504355
      4779.29       1.3259496     0.016397256
      4784.07       1.3223510     0.016184149
      4788.85       1.3208714     0.016237594
      4793.64       1.3182777     0.016025272
      4798.43       1.3163110     0.016078585
      4803.23       1.3115870     0.015867240
      4808.03       1.3075056     0.015920495
      4812.84       1.2986735     0.015709978
      4817.66       1.2921439     0.015612095
      4822.48       1.2868125     0.015553424
      4827.30       1.2800831     0.015455093
      4832.12       1.2782763     0.015397799
      4836.96       1.2773091     0.015298884
      4841.79       1.2769895     0.015099050
      4846.63       1.2767232     0.015143468
      4851.48       1.2750800     0.014946510
      4856.33       1.2745214     0.014988875
      4861.19       1.2711921     0.014794729
      4866.05       1.2792421     0.014835136
      4870.92       1.2640557     0.014644013
      4875.79       1.2736204     0.014543098
      4880.66       1.2743848     0.014584808
      4885.55       1.2816174     0.014392675
      4890.43       1.2879759     0.014432316
      4895.32       1.2889836     0.014243364
      4900.22       1.3154904     0.014144961
      4905.12       1.3208752     0.014095050
      4910.02       1.3079555     0.013995885
      4914.94       1.3025628     0.013947900
      4919.85       1.3107590     0.013848000
      4924.77       1.3141016     0.013663522
      4929.70       1.3136673     0.013701092
      4934.62       1.3100596     0.013603805
      4939.56       1.3113182     0.013423644
      4944.50       1.3160825     0.013457207
      4949.44       1.3143345     0.013277298
      4954.39       1.3072051     0.013311944
      4959.35       1.3072958     0.013132141
      4964.31       1.3099605     0.013040398
      4969.27       1.3105949     0.012988282
      4974.24       1.3093804     0.012895613
      4979.22       1.3131178     0.012805834
      4984.20       1.3143688     0.012752101
      4989.18       1.3099700     0.012661268
      4994.17       1.3046596     0.012609779
      4999.16       1.3007885     0.012518121
      5004.16       1.3008157     0.012351389
      5009.17       1.3017651     0.012376295
      5014.18       1.3018388     0.012286333
      5019.19       1.3005857     0.012120299
      5024.21       1.3015351     0.012145052
      5029.23       1.3014838     0.011982521
      5034.26       1.2988983     0.011891494
      5039.30       1.2987203     0.011846293
      5044.34       1.2994965     0.011754238
      5049.39       1.2984313     0.011664667
      5054.43       1.2975837     0.011618573
      5059.49       1.3001428     0.011527977
      5064.55       1.2945359     0.011371221
      5069.61       1.3065750     0.011392951
      5074.68       1.3071377     0.011303693
      5079.76       1.3106192     0.011149838
      5084.84       1.3115192     0.011169310
      5089.92       1.3104236     0.011015432
      5095.01       1.3131787     0.011036661
      5100.11       1.2956508     0.010947740
      5105.21       1.2849498     0.010796613
      5110.31       1.2891728     0.010712417
      5115.42       1.2906215     0.010664638
      5120.54       1.2845593     0.010579488
      5125.66       1.2816913     0.010496331
      5130.79       1.2808805     0.010448381
      5135.92       1.2738717     0.010364182
      5141.05       1.2665515     0.010281869
      5146.20       1.2803964     0.014494810
      5151.34       1.2718436     0.014436038
      5156.49       1.2626691     0.014311187
      5161.65       1.2564313     0.014194934
      5166.81       1.2534587     0.014134952
      5171.98       1.2486662     0.014011465
      5177.15       1.2491782     0.013896946
      5182.33       1.2471646     0.013836535
      5187.51       1.2400976     0.013715121
      5192.70       1.2369225     0.013415596
      5197.89       1.2395722     0.013310621
      5203.09       1.2439870     0.013421511
      5208.29       1.2445147     0.013126958
      5213.50       1.2550396     0.013022553
      5218.72       1.2629806     0.013130055
      5223.93       1.2740325     0.012840594
      5229.16       1.2787219     0.012735599
      5234.39       1.2763975     0.012841242
      5239.62       1.2748120     0.012556365
      5244.86       1.2813127     0.012451504
      5250.11       1.2839543     0.012555485
      5255.36       1.2850248     0.012274299
      5260.61       1.2888706     0.012169832
      5265.87       1.2885587     0.012070518
      5271.14       1.2902221     0.011995801
      5276.41       1.2948317     0.011890274
      5281.69       1.2905411     0.011790612
      5286.97       1.2868560     0.011719784
      5292.26       1.2918359     0.011613579
      5297.55       1.2984430     0.011512712
      5302.85       1.2949322     0.011263402
      5308.15       1.2907684     0.011339961
      5313.46       1.2882013     0.011237954
      5318.77       1.2872169     0.011141409
      5324.09       1.2887994     0.011069364
      5329.42       1.2824596     0.010966710
      5334.75       1.2741842     0.010868253
      5340.08       1.2800257     0.010628482
      5345.42       1.2824418     0.010698479
      5350.77       1.2686784     0.010598713
      5356.12       1.2599478     0.010369035
      5361.48       1.2483375     0.010265275
      5366.83       1.2397982     0.010332782
      5372.20       1.2389201     0.010235676
      5377.58       1.2335392     0.010008297
      5382.95       1.2312342    0.0099073172
      5388.34       1.2218857    0.0099719705
      5393.72       1.2184354    0.0097553885
      5399.12       1.2195787    0.0096535063
      5404.52       1.2189898    0.0095550103
      5409.92       1.2161350    0.0096164694
      5415.33       1.2164522    0.0094040980
      5420.75       1.2243335    0.0093040299
      5426.17       1.2252642    0.0092075970
      5431.60       1.2233861    0.0091588034
      5437.03       1.2190286    0.0090576673
      5442.47       1.2210084    0.0089593903
      5447.91       1.2184878    0.0088643138
      5453.36       1.2127506    0.0088160137
      5458.81       1.2079576    0.0087165213
      5464.27       1.2051678    0.0086200076
      5469.73       1.2014751    0.0085260707
      5475.20       1.1992478    0.0084790793
      5480.68       1.1957728    0.0083810682
      5486.16       1.1965564    0.0082858977
      5491.65       1.1973354    0.0081927743
      5497.14       1.2043739    0.0080042475
      5502.64       1.2122430    0.0080506840
      5508.14       1.2124387    0.0079564140
      5513.65       1.2146538    0.0078642416
      5519.16       1.2184040    0.0076811838
      5524.68       1.2277105    0.0075943424
      5530.20       1.2247955    0.0076325640
      5535.73       1.2242325    0.0075413339
      5541.27       1.2218387    0.0073631976
      5546.81       1.2191519    0.0072768875
      5552.36       1.2106480    0.0071921848
      5557.91       1.2036475    0.0072236537
      5563.47       1.1950989    0.0070503258
      5569.04       1.1878403    0.0069643451
      5574.60       1.1785500    0.0068800583
      5580.18       1.1728285    0.0067972875
      5585.76       1.1722627    0.0067433564
      5591.35       1.1721179    0.0066578209
      5596.94       1.1767306    0.0065737844
      5602.53       1.1804347    0.0064912844
      5608.14       1.1845629    0.0064100059
      5613.75       1.1875520    0.0063571242
      5619.36       1.1913787    0.0062734099
      5624.98       1.1886530    0.0061909576
      5630.60       1.1865824    0.0061101157
      5636.23       1.1916242    0.0060309422
      5641.87       1.1927137    0.0058829262
      5647.51       1.1910631    0.0058993743
      5653.16       1.1911316    0.0058190859
      5658.82       1.1846631    0.0057404801
      5664.47       1.1799625    0.0056642142
      5670.14       1.1734003    0.0055264576
      5675.81       1.1623156    0.0054522897
      5681.48       1.1572077    0.0054691381
      5687.17       1.1480110    0.0053959867
      5692.85       1.1496102    0.0053242513
      5698.55       1.1510438    0.0051953903
      5704.25       1.1571846    0.0051206198
      5709.95       1.1622184    0.0050446428
      5715.66       1.1688533    0.0049690047
      5721.38       1.1670209    0.0049780035
      5727.10       1.1626558    0.0048535699
      5732.83       1.1608938    0.0047753902
      5738.56       1.1690402    0.0046976607
      5744.30       1.1804898    0.0046212602
      5750.04       1.1863384    0.0045455928
      5755.79       1.1895098    0.0044703866
      5761.55       1.1901267    0.0044317735
      5767.31       1.1871657    0.0043545691
      5773.08       1.1836499    0.0042778088
      5778.85       1.1761120    0.0042032158
      5784.63       1.1717346    0.0041314657
      5790.41       1.1769222    0.0040603969
      5796.21       1.1791763    0.0039505895
      5802.00       1.1798373    0.0038843686
      5807.81       1.1805288    0.0038895912
      5813.61       1.1813545    0.0039768738
      5819.43       1.1810569    0.0040931101
      5825.25       1.1787371    0.0042546515
      5831.07       1.1701111    0.0044914764
      5836.90       1.1693971    0.0047412022
      5842.74       1.1697947    0.0042252216
      5848.58       1.1746213    0.0042121587
      5854.43       1.1756142    0.0043793136
      5860.29       1.1768689    0.0046631456
      5866.15       1.1730566    0.0049742228
      5872.01       1.1670326    0.0052881422
      5877.89       1.1742201    0.0054708822
      5883.76       1.1731854    0.0054453402
      5889.65       1.1790522    0.0052621370
      5895.54       1.1905741    0.0049868332
      5901.43       1.1853088    0.0046873423
      5907.34       1.1813306    0.0044205823
      5913.24       1.1767558    0.0042220354
      5919.16       1.1680321    0.0042053424
      5925.08       1.1574081    0.0047847352
      5931.00       1.1466171    0.0043520662
      5936.93       1.1375988    0.0040685081
      5942.87       1.1321320    0.0038693681
      5948.81       1.1219265    0.0037205981
      5954.76       1.1128162    0.0036038189
      5960.72       1.1061160    0.0035540006
      5966.68       1.0959552    0.0035548166
      5972.64       1.0844322    0.0035555520
      5978.62       1.0765370    0.0035081702
      5984.60       1.0688306    0.0035080406
      5990.58       1.0691037    0.0035080553
      5996.57       1.0662095    0.0035080991
      6002.57       1.0646978    0.0035083512
      6008.57       1.0596583    0.0035090967
      6014.58       1.0564936    0.0035113360
      6020.60       1.0571299    0.0035557082
      6026.62       1.0555486    0.0035563013
      6032.65       1.0505478    0.0035567690
      6038.68       1.0461409    0.0035597585
      6044.72       1.0420665    0.0035184499
      6050.76       1.0384923    0.0035243165
      6056.81       1.0336013    0.0035318809
      6062.87       1.0234187    0.0035404883
      6068.93       1.0180213    0.0035490395
      6075.00       1.0121987    0.0035567107
      6081.08       1.0071799    0.0035623729
      6087.16       1.0018270    0.0035655861
      6093.25       1.0042051    0.0035656442
      6099.34       1.0069387    0.0035628418
      6105.44       1.0148018    0.0035574960
      6111.54       1.0199373    0.0035505972
      6117.66       1.0247532    0.0035433373
      6123.78       1.0337906    0.0035375036
      6129.90       1.0436618    0.0035340045
      6136.03       1.0558744    0.0034851985
      6142.17       1.0643304    0.0034815903
      6148.31       1.0764811    0.0034776859
      6154.46       1.0871372    0.0034752253
      6160.61       1.0976231    0.0034729732
      6166.77       1.1085352    0.0034709437
      6172.94       1.1206569    0.0034692623
      6179.11       1.1330204    0.0034678658
      6185.29       1.1510078    0.0034667245
      6191.48       1.1692500    0.0034659384
      6197.67       1.1919788    0.0034654814
      6203.87       1.2091702    0.0034653097
      6210.07       1.2238442    0.0034653481
      6216.28       1.2391534    0.0034654177
      6222.50       1.2597093    0.0034657758
      6228.72       1.2771869    0.0034667047
      6234.95       1.2969013    0.0034684297
      6241.19       1.3136296    0.0034711887
      6247.42       1.3334950    0.0034745214
      6253.67       1.3640566    0.0034772244
      6259.93       1.3913202    0.0034794137
      6266.19       1.4206992    0.0034814241
      6272.46       1.4460214    0.0034831352
      6278.73       1.4697979    0.0034841835
      6285.01       1.4899731    0.0034842041
      6291.29       1.5062208    0.0034834090
      6297.58       1.5161902    0.0034820060
      6303.88       1.5186782    0.0034804112
      6310.19       1.5154113    0.0034789958
      6316.50       1.5090992    0.0034780071
      6322.81       1.4937698    0.0034365842
      6329.14       1.4789286    0.0034361789
      6335.47       1.4724503    0.0034352656
      6341.80       1.4587621    0.0034340023
      6348.14       1.4410272    0.0034323482
      6354.49       1.4248411    0.0034306786
      6360.85       1.4086311    0.0034294550
      6367.21       1.3994028    0.0034284157
      6373.57       1.3911455    0.0034266692
      6379.95       1.3768758    0.0034248423
      6386.33       1.3627538    0.0034235157
      6392.72       1.3482694    0.0034227956
      6399.11       1.3340160    0.0034224008
      6405.51       1.3159569    0.0034222704
      6411.92       1.2994584    0.0034222419
      6418.32       1.2789781    0.0033804680
      6424.74       1.2571590    0.0033800635
      6431.17       1.2409904    0.0033795320
      6437.60       1.2260818    0.0033791807
      6444.04       1.2098795    0.0033787631
      6450.48       1.1949843    0.0034215816
      6456.94       1.1828763    0.0034213917
      6463.39       1.1674893    0.0034213140
      6469.85       1.1527733    0.0034212185
      6476.33       1.1379466    0.0034212611
      6482.80       1.1219331    0.0034213036
      6489.28       1.1127920    0.0033815777
      6495.77       1.0951441    0.0033809354
      6502.27       1.0858005    0.0033802469
      6508.77       1.0669914    0.0033797598
      6515.28       1.0629328    0.0033792252
      6521.80       1.0475770    0.0033789072
      6528.32       1.0331697    0.0033785423
      6534.85       1.0227714    0.0033784103
      6541.38       1.0110928    0.0033782426
      6547.92      0.99956136    0.0033830366
      6554.47      0.99289111    0.0033820944
      6561.03      0.98448297    0.0033811376
      6567.59      0.97765522    0.0033804810
      6574.16      0.97507781    0.0033808704
      6580.73      0.97167669    0.0033865337
      6587.31      0.97270034    0.0033972568
      6593.90      0.96967485    0.0034007052
      6600.50      0.97183746    0.0033610645
      6607.10      0.97337073    0.0033708272
      6613.70      0.97954010    0.0033918573
      6620.32      0.98790181    0.0034735480
      6626.94      0.99182210    0.0035169333
      6633.57      0.98930585    0.0035669722
      6640.20       1.0009519    0.0035865549
      6646.84      0.98408425    0.0036337708
      6653.49      0.98126970    0.0036725787
      6660.14      0.98414308    0.0036979952
      6666.80      0.97730479    0.0037074017
      6673.47      0.97447540    0.0037000710
      6680.14      0.97606883    0.0037098126
      6686.82      0.97120134    0.0036216663
      6693.51      0.96893912    0.0035799294
      6700.20      0.96826300    0.0035421499
      6706.90      0.96359125    0.0035153287
      6713.61      0.96106231    0.0034989802
      6720.32      0.95819722    0.0034333426
      6727.05      0.95413090    0.0034088324
      6733.77      0.95041127    0.0034305984
      6740.51      0.94807606    0.0034195962
      6747.25      0.94729851    0.0034097931
      6754.00      0.94599075    0.0034022873
      6760.75      0.94560687    0.0033578475
      6767.51      0.94036797    0.0033539413
      6774.28      0.93327398    0.0033518768
      6781.05      0.92877201    0.0033911822
      6787.84      0.92992217    0.0033902808
      6794.62      0.92523989    0.0033495478
      6801.42      0.92804894    0.0033453913
      6808.22      0.92590505    0.0033404651
      6815.03      0.92208675    0.0033358732
      6821.85      0.92203786    0.0033723319
      6828.67      0.92125982    0.0033311153
      6835.50      0.92206616    0.0033271356
      6842.33      0.92402539    0.0033234365
      6849.17      0.92576157    0.0033205423
      6856.02      0.92630627    0.0033221418
      6862.88      0.92870823    0.0033195295
      6869.74      0.93174792    0.0033188585
      6876.61      0.93491677    0.0033201715
      6883.49      0.93758235    0.0033223912
      6890.37      0.94118090    0.0032930916
      6897.27      0.93903409    0.0033358332
      6904.16      0.93969236    0.0033437364
      6911.07      0.94339513    0.0033569755
      6917.98      0.94721777    0.0033461114
      6924.89      0.94784034    0.0033748881
      6931.82      0.94655151    0.0034578918
      6938.75      0.94548815    0.0034916684
      6945.69      0.94192886    0.0034855131
      6952.64      0.94153470    0.0035050962
      6959.59      0.93908612    0.0035185156
      6966.55      0.93912251    0.0035667025
      6973.52      0.93985421    0.0035272054
      6980.49      0.93353351    0.0035215738
      6987.47      0.92887808    0.0035138321
      6994.46      0.92439409    0.0035413859
      7001.46      0.91461281    0.0035010667
      7008.46      0.91915777    0.0035023842
      7015.46      0.92472041    0.0035057122
      7022.48      0.93225839    0.0034696529
      7029.51      0.93651981    0.0035081216
      7036.53      0.94248181    0.0035028516
      7043.57      0.94633731    0.0034930484
      7050.62      0.94697504    0.0034362330
      7057.66      0.94717078    0.0034594205
      7064.72      0.94904104    0.0034880060
      7071.79      0.95141319    0.0035761732
      7078.86      0.94522637    0.0034911960
      7085.94      0.94595370    0.0034036674
      7093.03      0.94299807    0.0034071148
      7100.12      0.93522531    0.0034177144
      7107.22      0.92929066    0.0034852229
      7114.33      0.91581516    0.0036072906
      7121.44      0.91024712    0.0036342109
      7128.56      0.90428630    0.0036927807
      7135.69      0.89595856    0.0037335960
      7142.83      0.90591703    0.0037229024
      7149.97      0.90613518    0.0036664421
      7157.12      0.90570387    0.0035924028
      7164.28      0.90549612    0.0034938352
      7171.44      0.90266737    0.0034056003
      7178.62      0.90419088    0.0033254764
      7185.80      0.90456542    0.0032336882
      7192.98      0.90894169    0.0032561636
      7200.17      0.91507715    0.0033291158
      7207.38      0.92020742    0.0033651801
      7214.58      0.92107542    0.0032704076
      7221.80      0.92237673    0.0032309710
      7229.02      0.92240864    0.0031964066
      7236.25      0.91941515    0.0031959479
      7243.49      0.92165964    0.0032295566
      7250.73      0.91785456    0.0031954655
      7257.98      0.92015716    0.0031953906
      7265.24      0.91935404    0.0032295711
      7272.51      0.92426474    0.0032022864
      7279.78      0.93286037    0.0032223071
      7287.06      0.94090501    0.0032841589
      7294.35      0.95226828    0.0032928263
      7301.64      0.96873893    0.0032825969
      7308.94      0.98672696    0.0032928627
      7316.25       1.0072368    0.0033443090
      7323.57       1.0250562    0.0034308441
      7330.89       1.0485281    0.0036258642
      7338.22       1.0629220    0.0037959162
      7345.56       1.0723495    0.0039945272
      7352.91       1.0803454    0.0043233675
      7360.26       1.0821712    0.0045414121
      7367.62       1.0796521    0.0047000371
      7374.99       1.0632565    0.0049097266
      7382.37       1.0444124    0.0049227982
      7389.75       1.0187342    0.0047282666
      7397.14       1.0027359    0.0046068016
      7404.53      0.99437912    0.0042780342
      7411.94      0.99125228    0.0040708393
      7419.35      0.98350386    0.0038929898
      7426.77      0.98197777    0.0036666456
      7434.20      0.97662110    0.0035537196
      7441.63      0.96854623    0.0034144351
      7449.07      0.96255915    0.0033459810
      7456.52      0.96122732    0.0033068691
      7463.98      0.95420989    0.0032660615
      7471.45      0.94647682    0.0032376732
      7478.92      0.93999149    0.0032087295
      7486.40      0.93006345    0.0031914479
      7493.88      0.92532795    0.0031467936
      7501.38      0.91769828    0.0031713493
      7508.88      0.91087003    0.0031661855
      7516.39      0.89929551    0.0031652211
      7523.91      0.89525002    0.0031620600
      7531.43      0.88624363    0.0031295204
      7538.96      0.87877897    0.0031614697
      7546.50      0.87963557    0.0031293903
      7554.05      0.87506105    0.0031623616
      7561.60      0.86785939    0.0031300034
      7569.16      0.86482167    0.0031301306
      7576.73      0.85756679    0.0031620277
      7584.31      0.85496863    0.0031308584
      7591.89      0.85152085    0.0031642059
      7599.49      0.84756264    0.0031338151
      7607.09      0.83846944    0.0031357934
      7614.70      0.83433011    0.0031387183
      7622.31      0.83154314    0.0031418220
      7629.93      0.83232776    0.0031491355
      7637.56      0.83246416    0.0031529702
      7645.20      0.83225865    0.0031583281
      7652.85      0.82850401    0.0031611085
      7660.50      0.82355982    0.0031348631
      7668.16      0.82117208    0.0031771608
      7675.83      0.81492494    0.0031613801
      7683.50      0.81622298    0.0032150231
      7691.19      0.82481515    0.0032156066
      7698.88      0.82039085    0.0032862451
      7706.58      0.82384733    0.0033061586
      7714.29      0.82718583    0.0033508232
      7722.00      0.83022203    0.0034318681
      7729.73      0.83369619    0.0034873481
      7737.45      0.83179720    0.0035816193
      7745.19      0.83085623    0.0036424824
      7752.94      0.82646635    0.0037401095
      7760.69      0.82738910    0.0038014836
      7768.45      0.82782307    0.0039034302
      7776.22      0.83014510    0.0039707125
      7784.00      0.82554508    0.0040781281
      7791.78      0.82219592    0.0041448407
      7799.57      0.81096305    0.0042547896
      7807.37      0.80453861    0.0043251265
      7815.18      0.79580373    0.0044427157
      7822.99      0.79179558    0.0045196133
      7830.82      0.79286227    0.0046489045
      7838.65      0.79116586    0.0047349788
      7846.49      0.78051064    0.0048839514
      7854.34      0.77669780    0.0049861121
      7862.19      0.76891081    0.0051576091
      7870.05      0.75681381    0.0052469580
      7877.93      0.74855179    0.0054612437
      7885.80      0.74170110    0.0055592387
      7893.69      0.73039228    0.0057703717
      7901.58      0.72022006    0.0058373511
      7909.49      0.71206676    0.0060224093
      7917.40      0.70696547    0.0060737613
      7925.31      0.70216631    0.0062031271
      7933.24      0.69820538    0.0062825542
      7941.17      0.70078922    0.0063977617
      7949.11      0.70069613    0.0064704081
      7957.06      0.70077010    0.0065791242
      7965.02      0.69671645    0.0066553601
      7972.98      0.69155364    0.0067755604
      7980.96      0.69077218    0.0068073276
      7988.94      0.69062491    0.0069686736
      7996.93      0.68760382    0.0069914400
      8004.93      0.68875922    0.0071493276
      8012.93      0.68937305    0.0071641780
      8020.95      0.68478358    0.0072705711
      8028.97      0.68586559    0.0074502178
      8036.99      0.68881412    0.0074934022
      8045.03      0.68909338    0.0076691049
      8053.08      0.68671423    0.0076666355
      8061.13      0.68751096    0.0077592563
      8069.20      0.68724310    0.0078200388
      8077.26      0.69241531    0.0079240620
      8085.34      0.69337664    0.0079936421
      8093.43      0.69586836    0.0081067673
      8101.52      0.69511709    0.0082186994
      8109.62      0.69474748    0.0082868234
      8117.73      0.69405862    0.0084065653
      8125.85      0.69369310    0.0084281605
      8133.98      0.69688960    0.0086146850
      8142.11      0.70023780    0.0087459088
      8150.25      0.69796564    0.0087676068
      8158.41      0.70160969    0.0089627872
      8166.56      0.69978890    0.0089906538
      8174.73      0.69680891    0.0091918359
      8182.91      0.69721258    0.0093369422
      8191.09      0.69801273    0.0093651903
      8199.28      0.69987067    0.0095755695
      8207.48      0.70167635    0.0096078646
      8215.69      0.70230773    0.0097572231
      8223.91      0.70633423    0.0099776217
      8232.13      0.71439394     0.010008482
      8240.36      0.71244069     0.010161321
      8248.60      0.71892758     0.010264170
      8256.85      0.72380806     0.010414008
      8265.11      0.72608036     0.010566435
      8273.37      0.72475725     0.010668346
      8281.65      0.72549854     0.010818972
      8289.93      0.72771692     0.010973291
      8298.22      0.72254352     0.010997655
      8306.52      0.71421324     0.011231677
      8314.83      0.71036660     0.011251834
      8323.14      0.70376113     0.011410866
      8331.46      0.69979423     0.011651181
      8339.80      0.69828434     0.011672725
      8348.13      0.69498908     0.011839161
      8356.48      0.69278998     0.012088581
      8364.84      0.68771982     0.012108977
      8373.21      0.68602844     0.012277601
      8381.58      0.69298118     0.012449393
      8389.96      0.69923697     0.012552077
      8398.35      0.70443151     0.012721325
      8406.75      0.71072000     0.012893200
      8415.16      0.71405695     0.012997613
      8423.57      0.72016534     0.013166819
      8432.00      0.72275853     0.013339106
      8440.43      0.72580985     0.013355599
      8448.87      0.72237608     0.013618889
      8457.32      0.72218230     0.013795842
      8465.78      0.71597823     0.013976725
      8474.25      0.71401909     0.013989246
      8482.72      0.71185195     0.014264811
      8491.20      0.71355185     0.014448913
      8499.69      0.72089649     0.014464511
      8508.19      0.72180561     0.014645084
      8516.70      0.72348585     0.014931680
      8525.22      0.72735548     0.014949215
      8533.75      0.73040718     0.015131907
      8542.28      0.73823845     0.015317955
      8550.82      0.74815553     0.015615320
      8559.37      0.75072577     0.015632777
      8567.93      0.75474391     0.015823223
      8576.50      0.75457669     0.016020612
      8585.08      0.75900049     0.016042316
      8593.66      0.75206450     0.016369282
      8602.26      0.75066056     0.016584654
      8610.86      0.74622401     0.016820680
      8619.47      0.74180868     0.016887511
      8628.09      0.72798899     0.017178917
      8636.72      0.71909135     0.017601379
      8645.36      0.71750111     0.017981386
      8654.00      0.71470731     0.018181998
      8662.66      0.71884318     0.018644822
      8671.32      0.71626195     0.019139798
      8679.99      0.71909927     0.019721529
      8688.67      0.72007733     0.019937950
      8697.36      0.72120590     0.020358603
      8706.06      0.72910809     0.020682002
      8714.76      0.73950358     0.020902538
      8723.48      0.74231604     0.020837133
      8732.21      0.74770397     0.021101696
      8740.93      0.75145266     0.021206520
      8749.68      0.75846943     0.021361311
      8758.43      0.75737549     0.021563333
      8767.19      0.75482434     0.021558831
      8775.96      0.75466940     0.021845888
      8784.73      0.75098526     0.022340594
      8793.52      0.74444863     0.022694756
      8802.31      0.73548227     0.023054991
      8811.11      0.73169797     0.023101604
      8819.92      0.72157582     0.023385966
      8828.75      0.71179662     0.023627030
      8837.57      0.71027818     0.023853256
      8846.41      0.71409283     0.024244905
      8855.26      0.72253509     0.024199634
      8864.12      0.72970576     0.024377943
      8872.98      0.73689413     0.024483832
      8881.85      0.73884705     0.024535354
      8890.73      0.74748316     0.024586361
      8899.63      0.75117237     0.024415021
      8908.52      0.75157008     0.024491161
      8917.43      0.75956772     0.024829926
      8926.35      0.75965917     0.025034326
      8935.28      0.75625142     0.025301239
      8944.22      0.76045203     0.025687243
      8953.16      0.75429581     0.026288083
      8962.11      0.74823137     0.027043535
      8971.08      0.73964587     0.028619476
      8980.05      0.72615117     0.030354210
      8989.03      0.71628569     0.033517745
      8998.02      0.70608970     0.037319192
      9007.02      0.69870136     0.035838391
      9016.02      0.68950817     0.038700473
      9025.04      0.68679606     0.041290749
      9034.07      0.67439259     0.045897629
      9043.10      0.66233269     0.051261634
      9052.14      0.64532851     0.056838787
      9061.20      0.65827850     0.061480627
      9070.26      0.64777375     0.064930259
      9079.33      0.65514463     0.063254029
      9088.41      0.67557570     0.060216564
      9097.50      0.65917813     0.054612847
      9106.60      0.65110077     0.052070275
      9115.70      0.64472616     0.050011177
      9124.82      0.64680245     0.050279196
      9133.94      0.65446720     0.060966766
      9143.08      0.63503274     0.053880097
      9152.22      0.62869657     0.050652019
      9161.37      0.63191179     0.047716133
      9170.54      0.63494110     0.045843219
      9179.71      0.62809962     0.044183326
      9188.89      0.62638534     0.042959568
      9198.08      0.62629341     0.042960892
      9207.28      0.62916486     0.043332230
      9216.48      0.62418014     0.043330082
      9225.70      0.62690835     0.043335027
      9234.92      0.63460084     0.043264087
      9244.16      0.62776774     0.043198057
      9253.40      0.63653038     0.043063089
      9262.66      0.63390456     0.042900049
      9271.92      0.62685501     0.042698662
      9281.20      0.62804140     0.042433630
      9290.48      0.62708191     0.042087408
      9299.77      0.63707682     0.041419205
      9309.07      0.62271483     0.041101738
      9318.38      0.58934884     0.040670313
      9327.69      0.58748243     0.040274277
      9337.02      0.58746492     0.039851387
      9346.36      0.58322298     0.039356996
      9355.71      0.57656687     0.038878704
      9365.07      0.58143072     0.038534878
      9374.43      0.58601571     0.038300975
      9383.80      0.60049719     0.037873562
      9393.19      0.60074363     0.037830031
      9402.58      0.57652923     0.037924287
      9411.98      0.55413846     0.038118163
      9421.40      0.54645201     0.038407400
      9430.82      0.54670629     0.038718260
