# starting wavelength =        3553.2100
# ending wavelength =        8667.0900
# O2 telluric scale =        0
# O2 telluric shift =        0
# H2O telluric scale =        0
# H2O telluric shift =        0
      3555.25      0.63244874     0.013712377
      3558.80      0.60916923     0.011231265
      3562.36      0.58645521    0.0096510681
      3565.92      0.56443249    0.0084309599
      3569.49      0.54302259    0.0074815829
      3573.06      0.52464852    0.0069283550
      3576.64      0.51148677    0.0063155192
      3580.21      0.49959284    0.0058377202
      3583.79      0.49113374    0.0053739503
      3587.38      0.48649167    0.0051055104
      3590.96      0.48522501    0.0048915208
      3594.55      0.48885250    0.0047173264
      3598.15      0.48999478    0.0046170908
      3601.75      0.49475770    0.0044915088
      3605.35      0.50064693    0.0043843248
      3608.96      0.50950464    0.0042915883
      3612.56      0.51428363    0.0042310214
      3616.18      0.52029573    0.0041622932
      3619.79      0.52803411    0.0041005058
      3623.41      0.53773320    0.0041027929
      3627.04      0.54560726    0.0041338949
      3630.66      0.55544269    0.0041363540
      3634.29      0.56706111    0.0041389775
      3637.93      0.58103592    0.0041416616
      3641.57      0.59158353    0.0041732905
      3645.21      0.60383896    0.0041754644
      3648.86      0.61594252    0.0041776857
      3652.50      0.62349820    0.0041477311
      3656.16      0.63190632    0.0042112083
      3659.81      0.63765598    0.0042818303
      3663.47      0.64406877    0.0043610310
      3667.14      0.64723353    0.0044508723
      3670.80      0.64547920    0.0045539797
      3674.48      0.64110407    0.0046745755
      3678.15      0.63199664    0.0044912956
      3681.83      0.62207471    0.0043163539
      3685.51      0.61238091    0.0042940890
      3689.20      0.60378650    0.0043621494
      3692.88      0.59309420    0.0044206900
      3696.58      0.58194624    0.0045032562
      3700.27      0.57250653    0.0046020022
      3703.98      0.56446291    0.0047384925
      3707.68      0.55317757    0.0048529294
      3711.39      0.54161687    0.0049701153
      3715.10      0.53216755    0.0050838786
      3718.81      0.52254370    0.0051871990
      3722.53      0.51520663    0.0053398855
      3726.26      0.50273044    0.0054107213
      3729.98      0.49105663    0.0054443580
      3733.71      0.48041245    0.0054096825
      3737.45      0.46939002    0.0053455307
      3741.18      0.46183655    0.0053104922
      3744.93      0.46031587    0.0051999934
      3748.67      0.45733160    0.0050778190
      3752.42      0.45691518    0.0049522276
      3756.17      0.46014240    0.0048304123
      3759.93      0.46310207    0.0047547223
      3763.69      0.46800640    0.0046569004
      3767.45      0.47598344    0.0045853175
      3771.22      0.48675288    0.0045575881
      3774.99      0.49814622    0.0046288028
      3778.77      0.51077637    0.0051226174
      3782.54      0.52482427    0.0049561508
      3786.33      0.53911301    0.0048196195
      3790.11      0.55545202    0.0047052665
      3793.90      0.57227433    0.0046077104
      3797.70      0.58706080    0.0045602013
      3801.50      0.60480874    0.0045619760
      3805.30      0.62291629    0.0045636667
      3809.10      0.64101130    0.0046052480
      3812.91      0.65959383    0.0046955599
      3816.73      0.67874881    0.0046629935
      3820.54      0.69798717    0.0046669493
      3824.36      0.71731033    0.0046188241
      3828.19      0.73551292    0.0046144330
      3832.02      0.75246423    0.0047254801
      3835.85      0.76885965    0.0048594158
      3839.68      0.78226743    0.0048288123
      3843.52      0.79555761    0.0048813198
      3847.37      0.81022426    0.0048832284
      3851.22      0.82269616    0.0049426057
      3855.07      0.83788796    0.0050736259
      3858.92      0.84801783    0.0051881932
      3862.78      0.86002751    0.0053080972
      3866.64      0.87096187    0.0054705757
      3870.51      0.88054848    0.0055798733
      3874.38      0.89456202    0.0057504949
      3878.26      0.90870194    0.0057934829
      3882.13      0.92096276    0.0057967964
      3886.02      0.93083881    0.0056598025
      3889.90      0.94368133    0.0055715882
      3893.79      0.95571580    0.0055793365
      3897.69      0.96586790    0.0054507305
      3901.59      0.97743863    0.0053255643
      3905.49      0.98847364    0.0052175898
      3909.39      0.99858216    0.0051462724
      3913.30       1.0096771    0.0051526746
      3917.22       1.0182938    0.0051910790
      3921.13       1.0237822    0.0050972951
      3925.06       1.0289788    0.0051375619
      3928.98       1.0341308    0.0050246519
      3932.91       1.0372625    0.0052089245
      3936.84       1.0378992    0.0051378352
      3940.78       1.0358108    0.0051046566
      3944.72       1.0331459    0.0051294905
      3948.67       1.0281756    0.0052253936
      3952.61       1.0222331    0.0053795714
      3956.57       1.0125594    0.0055394239
      3960.52       1.0018216    0.0056332546
      3964.48      0.99049811    0.0057046724
      3968.45      0.98163782    0.0057465739
      3972.42      0.96946143    0.0057299952
      3976.39      0.96116398    0.0056746819
      3980.37      0.95039667    0.0055926630
      3984.35      0.94063477    0.0055374246
      3988.33      0.93545552    0.0054889691
      3992.32      0.93230601    0.0053707915
      3996.31      0.93050108    0.0052689626
      4000.31      0.92974533    0.0051992838
      4004.31      0.92987458    0.0051903751
      4008.31      0.93184616    0.0056600746
      4012.32      0.93070042    0.0054632419
      4016.33      0.93014705    0.0053088898
      4020.35      0.92919410    0.0052439104
      4024.37      0.92888788    0.0053729098
      4028.40      0.92769718    0.0055705026
      4032.42      0.92223729    0.0055013076
      4036.46      0.91768873    0.0053845342
      4040.50      0.91400307    0.0053976902
      4044.54      0.91009282    0.0054686485
      4048.58      0.90858974    0.0056501257
      4052.63      0.90494408    0.0057742655
      4056.68      0.90112650    0.0060226770
      4060.74      0.89689037    0.0063437049
      4064.80      0.89140901    0.0067740915
      4068.86      0.89032878    0.0073781217
      4072.93      0.89292679    0.0064943365
      4077.01      0.88877958    0.0063956447
      4081.08      0.88415109    0.0065668263
      4085.17      0.87743934    0.0067505200
      4089.25      0.86904181    0.0069151853
      4093.34      0.86226243    0.0070445870
      4097.43      0.85691006    0.0074281955
      4101.53      0.84710247    0.0074807053
      4105.63      0.83276654    0.0077940152
      4109.74      0.82684545    0.0069970357
      4113.85      0.81963249    0.0064296289
      4117.96      0.81617972    0.0061580514
      4122.08      0.81388066    0.0059043626
      4126.20      0.81174985    0.0056959634
      4130.33      0.81299891    0.0055212349
      4134.46      0.81511035    0.0064750119
      4138.59      0.81628778    0.0060763051
      4142.73      0.81793195    0.0057992984
      4146.88      0.82072141    0.0055959845
      4151.02      0.82220484    0.0054393890
      4155.18      0.82283525    0.0054386859
      4159.33      0.82397947    0.0054382781
      4163.49      0.82492698    0.0053772116
      4167.65      0.82615660    0.0053770338
      4171.82      0.82940083    0.0053772594
      4175.99      0.83138434    0.0053776311
      4180.17      0.83159003    0.0054411940
      4184.35      0.82999148    0.0054400595
      4188.54      0.82955316    0.0054389309
      4192.72      0.82671686    0.0053774423
      4196.92      0.82590634    0.0053771098
      4201.11      0.82651580    0.0053769656
      4205.31      0.82287241    0.0053771618
      4209.52      0.82451109    0.0053775895
      4213.73      0.82477867    0.0054395720
      4217.94      0.82704131    0.0053774454
      4222.16      0.82614973    0.0053766407
      4226.38      0.82738471    0.0053760820
      4230.61      0.82953803    0.0053759312
      4234.84      0.83061215    0.0053760816
      4239.08      0.83618000    0.0053765670
      4243.32      0.84146774    0.0053124905
      4247.56      0.84511707    0.0053755419
      4251.81      0.84832276    0.0053746683
      4256.06      0.84968072    0.0053743641
      4260.32      0.85139053    0.0053744132
      4264.58      0.84899013    0.0053124354
      4268.84      0.84745413    0.0053107371
      4273.11      0.84320736    0.0053093684
      4277.38      0.83912836    0.0053726589
      4281.66      0.83456290    0.0053722531
      4285.94      0.82416316    0.0053116994
      4290.23      0.81874465    0.0053096059
      4294.52      0.81166304    0.0053079321
      4298.81      0.79700174    0.0053066423
      4303.11      0.78963424    0.0053700495
      4307.42      0.78065039    0.0053107525
      4311.72      0.76980018    0.0053076269
      4316.04      0.75907553    0.0053057292
      4320.35      0.75272776    0.0053043152
      4324.67      0.74216397    0.0052466462
      4329.00      0.73395256    0.0053075497
      4333.33      0.72896023    0.0053048509
      4337.66      0.72496738    0.0053027638
      4342.00      0.72119056    0.0053013626
      4346.34      0.71903003    0.0052438347
      4350.69      0.71683465    0.0053040693
      4355.04      0.72037595    0.0053013277
      4359.39      0.72694323    0.0052993325
      4363.75      0.73322824    0.0052412705
      4368.12      0.74074290    0.0052406052
      4372.48      0.75195948    0.0052996750
      4376.86      0.76406808    0.0052972211
      4381.23      0.77723962    0.0052386734
      4385.61      0.79667356    0.0052377159
      4390.00      0.80647401    0.0052375589
      4394.39      0.81680382    0.0052945082
      4398.79      0.82966106    0.0052358161
      4403.18      0.84190946    0.0052347466
      4407.59      0.85574071    0.0052342734
      4412.00      0.87369721    0.0052346745
      4416.41      0.88964858    0.0052325908
      4420.82      0.90412541    0.0052312686
      4425.25      0.91795968    0.0052308544
      4429.67      0.92979345    0.0051718095
      4434.10      0.94322363    0.0052292517
      4438.54      0.95971900    0.0052278209
      4442.97      0.97611888    0.0052273873
      4447.42      0.99219630    0.0051679934
      4451.86       1.0106490    0.0052252607
      4456.32       1.0299623    0.0052240924
      4460.77       1.0483689    0.0051665631
      4465.24       1.0677820    0.0051637349
      4469.70       1.0876256    0.0052212134
      4474.17       1.1079248    0.0052202999
      4478.65       1.1308582    0.0051618637
      4483.12       1.1533495    0.0051592302
      4487.61       1.1763917    0.0052170853
      4492.09       1.2051578    0.0051599908
      4496.59       1.2344675    0.0051568299
      4501.08       1.2613301    0.0051547018
      4505.58       1.2889561    0.0051580473
      4510.09       1.3118373    0.0051543233
      4514.60       1.3352467    0.0051517111
      4519.12       1.3581033    0.0051559484
      4523.63       1.3788865    0.0051517306
      4528.16       1.3977636    0.0051486500
      4532.69       1.4126295    0.0050938248
      4537.22       1.4289010    0.0051489551
      4541.76       1.4425211    0.0051455053
      4546.30       1.4534900    0.0050903896
      4550.85       1.4634033    0.0051459264
      4555.40       1.4712379    0.0051422018
      4559.95       1.4786006    0.0050868939
      4564.51       1.4812129    0.0050857838
      4569.08       1.4795363    0.0051387355
      4573.65       1.4776062    0.0050832058
      4578.22       1.4748387    0.0050820732
      4582.80       1.4673583    0.0051349810
      4587.38       1.4537338    0.0050794343
      4591.97       1.4381242    0.0050782256
      4596.56       1.4193595    0.0051310387
      4601.16       1.3988983    0.0050755832
      4605.76       1.3750903    0.0050743916
      4610.37       1.3496857    0.0051268783
      4614.98       1.3243970    0.0050714482
      4619.59       1.3002118    0.0050704528
      4624.21       1.2792435    0.0050696492
      4628.84       1.2557132    0.0050673985
      4633.47       1.2332088    0.0050666560
      4638.10       1.2120527    0.0050651914
      4642.74       1.1922273    0.0050632357
      4647.38       1.1760188    0.0050088107
      4652.03       1.1572051    0.0050606381
      4656.68       1.1380496    0.0050590217
      4661.34       1.1177741    0.0050038340
      4666.00       1.0974957    0.0050560979
      4670.67       1.0722576    0.0050027585
      4675.33       1.0498819    0.0049989397
      4680.01       1.0288169    0.0050516718
      4684.69       1.0075091    0.0049973237
      4689.38      0.98711800    0.0049940600
      4694.07      0.96689727    0.0049960959
      4698.76      0.94972373    0.0049919397
      4703.46      0.93683623    0.0049894711
      4708.16      0.92580566    0.0049900840
      4712.87      0.91666756    0.0049866194
      4717.58      0.91151927    0.0049887033
      4722.30      0.91143205    0.0049843284
      4727.03      0.91554925    0.0049323767
      4731.75      0.92261973    0.0049822170
      4736.48      0.93130088    0.0049788952
      4741.22      0.94255526    0.0049806352
      4745.96      0.94757458    0.0049762460
      4750.71      0.95253621    0.0049246631
      4755.46      0.95508230    0.0049739947
      4760.22      0.95088483    0.0049216510
      4764.97      0.94906285    0.0049204803
      4769.74      0.94575951    0.0049678502
      4774.51      0.93852906    0.0049169016
      4779.29      0.93134791    0.0049651574
      4784.07      0.92471408    0.0049134456
      4788.85      0.91722210    0.0049624383
      4793.64      0.91234259    0.0049102293
      4798.43      0.90979923    0.0049093421
      4803.23      0.90617528    0.0049071291
      4808.03      0.90792992    0.0049056532
      4812.84      0.91487680    0.0049040967
      4817.66      0.92490925    0.0049022108
      4822.48      0.93996180    0.0048500980
      4827.30      0.95790241    0.0048986226
      4832.12      0.97794951    0.0048471411
      4836.96       1.0003045    0.0048952156
      4841.79       1.0248084    0.0048441839
      4846.63       1.0480504    0.0048918115
      4851.48       1.0711076    0.0048411751
      4856.33       1.0970191    0.0048885247
      4861.19       1.1194107    0.0048381291
      4866.05       1.1372168    0.0048343999
      4870.92       1.1533699    0.0048350965
      4875.79       1.1639792    0.0048311160
      4880.66       1.1723590    0.0048318500
      4885.55       1.1722576    0.0048276862
      4890.43       1.1652153    0.0048286112
      4895.32       1.1534167    0.0048243339
      4900.22       1.1349591    0.0048252857
      4905.12       1.1165677    0.0048207885
      4910.02       1.0905955    0.0048217821
      4914.94       1.0653840    0.0048173179
      4919.85       1.0360099    0.0048182550
      4924.77       1.0103304    0.0048138327
      4929.70      0.98300199    0.0048146904
      4934.62      0.95986959    0.0048102248
      4939.56      0.93571472    0.0048109329
      4944.50      0.91599617    0.0048066158
      4949.44      0.89934110    0.0048071020
      4954.39      0.88759507    0.0048030104
      4959.35      0.87649133    0.0048032654
      4964.31      0.86934658    0.0047535595
      4969.27      0.86614544    0.0047993234
      4974.24      0.86857751    0.0047499753
      4979.22      0.87059375    0.0047953828
      4984.20      0.87562342    0.0047464659
      4989.18      0.88166154    0.0047913822
      4994.17      0.88805871    0.0047428774
      4999.16      0.89597223    0.0047416987
      5004.16      0.90371824    0.0047394959
      5009.17      0.91278377    0.0047379208
      5014.18      0.92192078    0.0047361444
      5019.19      0.92989601    0.0047340284
      5024.21      0.93784766    0.0047329287
      5029.23      0.94460555    0.0047303914
      5034.26      0.95083783    0.0046825093
      5039.30      0.95698053    0.0047268541
      5044.34      0.96482148    0.0046785143
      5049.39      0.97088214    0.0047234895
      5054.43      0.97513864    0.0046745852
      5059.49      0.97987178    0.0046744719
      5064.55      0.98505381    0.0047179271
      5069.61      0.99139054    0.0046701649
      5074.68      0.99846763    0.0047143868
      5079.76       1.0046539    0.0046659490
      5084.84       1.0120200    0.0046661512
      5089.92       1.0208067    0.0046620253
      5095.01       1.0310812    0.0046615534
      5100.11       1.0413474    0.0047053860
      5105.21       1.0531150    0.0046572084
      5110.31       1.0656332    0.0046574724
      5115.42       1.0782445    0.0046532280
      5120.54       1.0913353    0.0046527513
      5125.66       1.1050909    0.0046069797
      5130.79       1.1195512    0.0046484064
      5135.92       1.1344387    0.0046483852
      5141.05       1.1516510    0.0046016749
      5146.20       1.1656871    0.0046435644
      5151.34       1.1809062    0.0045983261
      5156.49       1.1981259    0.0046393801
      5161.65       1.2153034    0.0046389777
      5166.81       1.2358006    0.0045930113
      5171.98       1.2547986    0.0046343845
      5177.15       1.2736061    0.0045900396
      5182.33       1.2918754    0.0045879530
      5187.51       1.3130449    0.0046295941
      5192.70       1.3307783    0.0045846586
      5197.89       1.3479882    0.0045827962
      5203.09       1.3660336    0.0045822394
      5208.29       1.3837173    0.0045795038
      5213.50       1.4017599    0.0045778002
      5218.72       1.4187574    0.0045769169
      5223.93       1.4344470    0.0045743197
      5229.16       1.4501110    0.0045727507
      5234.39       1.4637417    0.0045283669
      5239.62       1.4793501    0.0045693906
      5244.86       1.4913862    0.0045678309
      5250.11       1.5035523    0.0045233313
      5255.36       1.5166308    0.0045643957
      5260.61       1.5251254    0.0045190841
      5265.87       1.5332960    0.0045184111
      5271.14       1.5366917    0.0045595876
      5276.41       1.5388632    0.0045141239
      5281.69       1.5378934    0.0045132940
      5286.97       1.5380479    0.0045133052
      5292.26       1.5368079    0.0045093634
      5297.55       1.5353474    0.0045083035
      5302.85       1.5365490    0.0045079319
      5308.15       1.5381524    0.0044645947
      5313.46       1.5384546    0.0045039332
      5318.77       1.5378802    0.0045027669
      5324.09       1.5383170    0.0044601461
      5329.42       1.5373009    0.0044984277
      5334.75       1.5362909    0.0044974868
      5340.08       1.5369941    0.0044972939
      5345.42       1.5388203    0.0044539510
      5350.77       1.5438516    0.0044926276
      5356.12       1.5499784    0.0044920366
      5361.48       1.5552525    0.0044497144
      5366.83       1.5634332    0.0044480708
      5372.20       1.5714703    0.0044868786
      5377.58       1.5811888    0.0044458253
      5382.95       1.5932807    0.0044438378
      5388.34       1.6095373    0.0044423626
      5393.72       1.6296455    0.0044415196
      5399.12       1.6475643    0.0044400440
      5404.52       1.6698436    0.0044381839
      5409.92       1.6902409    0.0044367957
      5415.33       1.7047775    0.0043948590
      5420.75       1.7145798    0.0044345332
      5426.17       1.7272635    0.0044327660
      5431.60       1.7328809    0.0044314278
      5437.03       1.7344358    0.0043895115
      5442.47       1.7294736    0.0043889639
      5447.91       1.7217407    0.0044275572
      5453.36       1.7066276    0.0044260976
      5458.81       1.6862193    0.0043842116
      5464.27       1.6624642    0.0043835398
      5469.73       1.6376802    0.0043832040
      5475.20       1.6097370    0.0044211883
      5480.68       1.5818370    0.0043790808
      5486.16       1.5527031    0.0043782285
      5491.65       1.5244993    0.0043776627
      5497.14       1.4963005    0.0043773939
      5502.64       1.4683398    0.0043774618
      5508.14       1.4418662    0.0043732686
      5513.65       1.4151699    0.0043724701
      5519.16       1.3899804    0.0043719346
      5524.68       1.3654200    0.0043716501
      5530.20       1.3458760    0.0043314912
      5535.73       1.3301235    0.0043303918
      5541.27       1.3108284    0.0043669164
      5546.81       1.2898919    0.0043663401
      5552.36       1.2690420    0.0043659839
      5557.91       1.2504608    0.0043265708
      5563.47       1.2292406    0.0043253710
      5569.04       1.2107057    0.0043244999
      5574.60       1.1904848    0.0043238107
      5580.18       1.1667996    0.0043605268
      5585.76       1.1427884    0.0043223567
      5591.35       1.1176640    0.0043210336
      5596.94       1.0922908    0.0043200178
      5602.53       1.0663844    0.0043191419
      5608.14       1.0422959    0.0043184055
      5613.75       1.0170444    0.0043177993
      5619.36      0.99718688    0.0042788979
      5624.98      0.97991997    0.0042786596
      5630.60      0.96284491    0.0043154080
      5636.23      0.95203801    0.0043144704
      5641.87      0.94183118    0.0043136655
      5647.51      0.93123739    0.0043129710
      5653.16      0.92097698    0.0042739839
      5658.82      0.91390529    0.0042736241
      5664.47      0.91028815    0.0042733657
      5670.14      0.90634981    0.0042731868
      5675.81      0.90709875    0.0042731333
      5681.48      0.90800774    0.0042731919
      5687.17      0.91015073    0.0042733057
      5692.85      0.91410628    0.0042697195
      5698.55      0.92205941    0.0042692531
      5704.25      0.93065973    0.0042689153
      5709.95      0.93868723    0.0042687945
      5715.66      0.94739526    0.0042689778
      5721.38      0.95642105    0.0042694261
      5727.10      0.96607464    0.0042697746
      5732.83      0.97263217    0.0042702146
      5738.56      0.97783769    0.0042339171
      5744.30      0.98288078    0.0042348692
      5750.04      0.98427997    0.0042372637
      5755.79      0.98976236    0.0042406923
      5761.55      0.99509565    0.0042442201
      5767.31       1.0027883    0.0042481637
      5773.08       1.0180019    0.0042528273
      5778.85       1.0309493    0.0042572816
      5784.63       1.0457603    0.0042601471
      5790.41       1.0621109    0.0042619173
      5796.21       1.0784221    0.0042630508
      5802.00       1.0933535    0.0042264764
      5807.81       1.1062232    0.0042263188
      5813.61       1.1137809    0.0042255757
      5819.43       1.1148029    0.0042247863
      5825.25       1.1203653    0.0042242898
      5831.07       1.1227211    0.0042239332
      5836.90       1.1211877    0.0042231815
      5842.74       1.1158304    0.0042217941
      5848.58       1.1107370    0.0042199989
      5854.43       1.1044594    0.0042179312
      5860.29       1.0965085    0.0042160202
      5866.15       1.0915681    0.0042138557
      5872.01       1.0862273    0.0042110496
      5877.89       1.0804768    0.0042084546
      5883.76       1.0784921    0.0042069770
      5889.65       1.0745485    0.0042058110
      5895.54       1.0746273    0.0042040572
      5901.43       1.0737096    0.0042024006
      5907.34       1.0716859    0.0042014936
      5913.24       1.0695467    0.0042010769
      5919.16       1.0653136    0.0042008686
      5925.08       1.0621195    0.0042008039
      5931.00       1.0587154    0.0042010678
      5936.93       1.0629868    0.0042014887
      5942.87       1.0625796    0.0042018934
      5948.81       1.0614543    0.0042023165
      5954.76       1.0614825    0.0042027929
      5960.72       1.0617460    0.0042033419
      5966.68       1.0627076    0.0042040517
      5972.64       1.0625670    0.0042047393
      5978.62       1.0616351    0.0042054378
      5984.60       1.0597981    0.0041728335
      5990.58       1.0577499    0.0041736466
      5996.57       1.0578820    0.0041744879
      6002.57       1.0581938    0.0041753506
      6008.57       1.0577474    0.0041762943
      6014.58       1.0566037    0.0041772976
      6020.60       1.0565312    0.0041783391
      6026.62       1.0586357    0.0041794300
      6032.65       1.0618951    0.0041805714
      6038.68       1.0670402    0.0041817663
      6044.72       1.0709870    0.0041830422
      6050.76       1.0754164    0.0041511425
      6056.81       1.0820048    0.0041521110
      6062.87       1.0878795    0.0041531419
      6068.93       1.0975113    0.0041542229
      6075.00       1.1081609    0.0041553887
      6081.08       1.1195947    0.0041566728
      6087.16       1.1309133    0.0041580906
      6093.25       1.1440105    0.0041599362
      6099.34       1.1569473    0.0041322425
      6105.44       1.1718432    0.0041354537
      6111.54       1.1871389    0.0041705094
      6117.66       1.1957574    0.0041723845
      6123.78       1.2036224    0.0041768325
      6129.90       1.2130600    0.0041836431
      6136.03       1.2170304    0.0041926405
      6142.17       1.2199321    0.0041725198
      6148.31       1.2175708    0.0041839130
      6154.46       1.2108667    0.0041951835
      6160.61       1.1994742    0.0042053785
      6166.77       1.1884839    0.0042137618
      6172.94       1.1764829    0.0042538973
      6179.11       1.1663900    0.0042220076
      6185.29       1.1593272    0.0042202848
      6191.48       1.1533838    0.0042161962
      6197.67       1.1475951    0.0042106886
      6203.87       1.1428229    0.0042050484
      6210.07       1.1396462    0.0041664559
      6216.28       1.1360648    0.0041643288
      6222.50       1.1397545    0.0041970520
      6228.72       1.1388784    0.0041943304
      6234.95       1.1371631    0.0041929151
      6241.19       1.1334850    0.0041603747
      6247.42       1.1417545    0.0041596777
      6253.67       1.1463373    0.0041594740
      6259.93       1.1542577    0.0041598467
      6266.19       1.1600169    0.0041947991
      6272.46       1.1700943    0.0041644267
      6278.73       1.1821269    0.0041655371
      6285.01       1.1987835    0.0041672165
      6291.29       1.2161339    0.0041694983
      6297.58       1.2401360    0.0041415848
      6303.88       1.2633555    0.0041779250
      6310.19       1.2864807    0.0041805422
      6316.50       1.3078670    0.0041841007
      6322.81       1.3277133    0.0041583222
      6329.14       1.3465746    0.0041646401
      6335.47       1.3618819    0.0042055388
      6341.80       1.3777375    0.0042110010
      6348.14       1.3898502    0.0041854021
      6354.49       1.3988660    0.0041908353
      6360.85       1.4058453    0.0041962885
      6367.21       1.4213157    0.0042342011
      6373.57       1.4301662    0.0042058984
      6379.95       1.4346539    0.0042082662
      6386.33       1.4379687    0.0042104138
      6392.72       1.4401882    0.0041802381
      6399.11       1.4356200    0.0042153790
      6405.51       1.4287381    0.0042178478
      6411.92       1.4195138    0.0042211569
      6418.32       1.4088890    0.0041925564
      6424.74       1.3934263    0.0042283983
      6431.17       1.3754767    0.0042306630
      6437.60       1.3589093    0.0042011487
      6444.04       1.3380990    0.0042024408
      6450.48       1.3160396    0.0042385856
      6456.94       1.2940364    0.0042103425
      6463.39       1.2755717    0.0042113153
      6469.85       1.2551575    0.0042126872
      6476.33       1.2333674    0.0042187098
      6482.80       1.2154632    0.0042208943
      6489.28       1.1989600    0.0042239378
      6495.77       1.1840152    0.0041975278
      6502.27       1.1673904    0.0042346670
      6508.77       1.1526436    0.0042380607
      6515.28       1.1390623    0.0042119385
      6521.80       1.1233041    0.0042163849
      6528.32       1.1103421    0.0042530137
      6534.85       1.1005544    0.0042268865
      6541.38       1.0885059    0.0042316426
      6547.92       1.0763585    0.0042688344
      6554.47       1.0648980    0.0042428205
      6561.03       1.0574629    0.0042477245
      6567.59       1.0474881    0.0042851843
      6574.16       1.0369384    0.0042593100
      6580.73       1.0268787    0.0042644180
      6587.31       1.0156173    0.0042715507
      6593.90       1.0012446    0.0042762460
      6600.50      0.98729321    0.0042816679
      6607.10      0.97287534    0.0042553557
      6613.70      0.95811850    0.0042938120
      6620.32      0.94402709    0.0042684023
      6626.94      0.92670215    0.0042730217
      6633.57      0.90841334    0.0043120536
      6640.20      0.89649924    0.0042862736
      6646.84      0.88104795    0.0043251032
      6653.49      0.87009826    0.0043001382
      6660.14      0.85955724    0.0043049514
      6666.80      0.84709405    0.0043176798
      6673.47      0.83916257    0.0043321733
      6680.14      0.83285835    0.0043504722
      6686.82      0.82715671    0.0043601666
      6693.51      0.81957901    0.0043626204
      6700.20      0.81134346    0.0043550413
      6706.90      0.80299012    0.0044247403
      6713.61      0.79598716    0.0044476941
      6720.32      0.78877688    0.0045505910
      6727.05      0.77732828    0.0045927039
      6733.77      0.76727210    0.0046614743
      6740.51      0.75795358    0.0047773620
      6747.25      0.74941887    0.0048010222
      6754.00      0.73660256    0.0048840880
      6760.75      0.72460743    0.0048605303
      6767.51      0.71588397    0.0048545866
      6774.28      0.70697625    0.0048194402
      6781.05      0.70350427    0.0047801194
      6787.84      0.70360412    0.0047220514
      6794.62      0.70044779    0.0046835827
      6801.42      0.70116360    0.0046193029
      6808.22      0.69932752    0.0046405478
      6815.03      0.70267002    0.0045831889
      6821.85      0.71272691    0.0045905457
      6828.67      0.72575806    0.0045484409
      6835.50      0.73916447    0.0045734928
      6842.33      0.75308687    0.0045366592
      6849.17      0.76872601    0.0045661948
      6856.02      0.78449315    0.0045362481
      6862.88      0.80434132    0.0045395934
      6869.74      0.82577719    0.0045485830
      6876.61      0.84085682    0.0045550250
      6883.49      0.85299223    0.0045646147
      6890.37      0.86138046    0.0045383661
      6897.27      0.86644388    0.0045751150
      6904.16      0.86995328    0.0045463493
      6911.07      0.87267255    0.0045816577
      6917.98      0.87075543    0.0045544720
      6924.89      0.86193806    0.0045921072
      6931.82      0.85269286    0.0045655226
      6938.75      0.84178232    0.0046028980
      6945.69      0.83120954    0.0045773434
      6952.64      0.82147643    0.0045858292
      6959.59      0.81110033    0.0045930377
      6966.55      0.79867756    0.0046062928
      6973.52      0.79279103    0.0046184088
      6980.49      0.79131167    0.0046349371
      6987.47      0.79330882    0.0046488138
      6994.46      0.79743564    0.0046687088
      7001.46      0.79882596    0.0046602921
      7008.46      0.80444517    0.0047243112
      7015.46      0.80895379    0.0047365632
      7022.48      0.81548345    0.0048025505
      7029.51      0.82359736    0.0048976953
      7036.53      0.83691238    0.0049281271
      7043.57      0.85560318    0.0050174651
      7050.62      0.87474642    0.0050220847
      7057.66      0.89398215    0.0050576728
      7064.72      0.90448156    0.0050735715
      7071.79      0.91782199    0.0050880494
      7078.86      0.94051354    0.0050570085
      7085.94      0.96485236    0.0050893851
      7093.03      0.99090680    0.0050926932
      7100.12       1.0117694    0.0050987487
      7107.22       1.0423336    0.0051182620
      7114.33       1.0653916    0.0050992431
      7121.44       1.0865098    0.0051533676
      7128.56       1.1033335    0.0051287395
      7135.69       1.1174726    0.0051341770
      7142.83       1.1336853    0.0051639439
      7149.97       1.1444309    0.0051199249
      7157.12       1.1582792    0.0051105448
      7164.28       1.1730837    0.0051054907
      7171.44       1.1914833    0.0050952672
      7178.62       1.2050956    0.0050799564
      7185.80       1.2128150    0.0050306341
      7192.98       1.2161240    0.0050519818
      7200.17       1.2159258    0.0050407205
      7207.38       1.2193982    0.0050005391
      7214.58       1.2257191    0.0050298636
      7221.80       1.2230601    0.0049943961
      7229.02       1.2153051    0.0049983153
      7236.25       1.2064483    0.0050369782
      7243.49       1.1994314    0.0050082614
      7250.73       1.1823006    0.0050145914
      7257.98       1.1653315    0.0050210570
      7265.24       1.1542824    0.0050247185
      7272.51       1.1415996    0.0050334702
      7279.78       1.1346467    0.0050443623
      7287.06       1.1309586    0.0050203734
      7294.35       1.1314721    0.0050642230
      7301.64       1.1344194    0.0050776562
      7308.94       1.1363649    0.0050555596
      7316.25       1.1319445    0.0050698619
      7323.57       1.1270036    0.0051167025
      7330.89       1.1220654    0.0051328902
      7338.22       1.1143609    0.0051121452
      7345.56       1.1019184    0.0051284576
      7352.91       1.0916615    0.0051455025
      7360.26       1.0762948    0.0051579067
      7367.62       1.0576483    0.0051755474
      7374.99       1.0351240    0.0052036636
      7382.37       1.0121047    0.0052225051
      7389.75      0.98675842    0.0053272642
      7397.14      0.96681837    0.0053881818
      7404.53      0.94813884    0.0053866675
      7411.94      0.92906540    0.0053785857
      7419.35      0.91044665    0.0055116130
      7426.77      0.89370377    0.0057293316
      7434.20      0.87715781    0.0060054774
      7441.63      0.86113066    0.0063102841
      7449.07      0.84502128    0.0067419141
      7456.52      0.82667488    0.0072149655
      7463.98      0.81211240    0.0076830634
      7471.45      0.80607932    0.0079358379
      7478.92      0.80012673    0.0082575740
      7486.40      0.80300824    0.0083146249
      7493.88      0.80974875    0.0081459092
      7501.38      0.81157673    0.0078037279
      7508.88      0.82172992    0.0074056964
      7516.39      0.83481544    0.0069895988
      7523.91      0.84927355    0.0066867453
      7531.43      0.86499196    0.0064112327
      7538.96      0.88140241    0.0061797553
      7546.50      0.89281862    0.0059876126
      7554.05      0.90237115    0.0058630381
      7561.60      0.91657564    0.0058043115
      7569.16      0.93795289    0.0057610603
      7576.73      0.96076468    0.0057007485
      7584.31      0.98147160    0.0056745803
      7591.89       1.0012585    0.0056942576
      7599.49       1.0224983    0.0056929863
      7607.09       1.0503026    0.0057004107
      7614.70       1.0874389    0.0057137817
      7622.31       1.1214991    0.0056913837
      7629.93       1.1583530    0.0057096677
      7637.56       1.1902030    0.0057295759
      7645.20       1.2184129    0.0057509378
      7652.85       1.2470506    0.0057729857
      7660.50       1.2607831    0.0057952624
      7668.16       1.2659135    0.0058180010
      7675.83       1.2612683    0.0058000256
      7683.50       1.2544087    0.0058226108
      7691.19       1.2311377    0.0058458621
      7698.88       1.2094759    0.0058705411
      7706.58       1.1863726    0.0059298932
      7714.29       1.1579233    0.0059568324
      7722.00       1.1277924    0.0059849479
      7729.73       1.0968692    0.0060144115
      7737.45       1.0698404    0.0060443111
      7745.19       1.0487577    0.0060306450
      7752.94       1.0333249    0.0060560413
      7760.69       1.0295142    0.0060805749
      7768.45       1.0202258    0.0061047322
      7776.22       1.0173040    0.0061286608
      7784.00       1.0208204    0.0061523410
      7791.78       1.0249551    0.0061758839
      7799.57       1.0235365    0.0061997114
      7807.37       1.0225187    0.0062244815
      7815.18       1.0267835    0.0062506932
      7822.99       1.0296111    0.0062776651
      7830.82       1.0336570    0.0063043452
      7838.65       1.0265910    0.0063314045
      7846.49       1.0216203    0.0063584196
      7854.34       1.0081232    0.0063402759
      7862.19      0.99547376    0.0063295267
      7870.05      0.98416142    0.0063535597
      7877.93      0.97203257    0.0063785774
      7885.80      0.95752750    0.0064043560
      7893.69      0.93131390    0.0064294324
      7901.58      0.90987185    0.0064551560
      7909.49      0.88838858    0.0064836909
      7917.40      0.86334056    0.0065149447
      7925.31      0.84422051    0.0065509504
      7933.24      0.82934185    0.0065929932
      7941.17      0.80883176    0.0066397497
      7949.11      0.78674245    0.0066942446
      7957.06      0.77119946    0.0067606927
      7965.02      0.75778264    0.0068392851
      7972.98      0.74199979    0.0068975492
      7980.96      0.72742540    0.0069909700
      7988.94      0.71062953    0.0070922696
      7996.93      0.69225470    0.0071941846
      8004.93      0.67173912    0.0072739582
      8012.93      0.65153122    0.0073250597
      8020.95      0.63534050    0.0073653196
      8028.97      0.61509186    0.0074529179
      8036.99      0.59158976    0.0074789455
      8045.03      0.56559034    0.0074564935
      8053.08      0.54552698    0.0074700463
      8061.13      0.51961915    0.0074786985
      8069.20      0.49791851    0.0074869659
      8077.26      0.47293272    0.0075005957
      8085.34      0.45082526    0.0075197891
      8093.43      0.43054861    0.0074926556
      8101.52      0.40938790    0.0075039898
      8109.62      0.39224499    0.0075136538
      8117.73      0.38001140    0.0075208933
      8125.85      0.36785293    0.0075264365
      8133.98      0.36211639    0.0075339412
      8142.11      0.35865803    0.0075623722
      8150.25      0.35756193    0.0075939240
      8158.41      0.35852311    0.0076042264
      8166.56      0.36565441    0.0075082008
      8174.73      0.37273969    0.0074576959
      8182.91      0.38457387    0.0073716404
      8191.09      0.39048462    0.0072921445
      8199.28      0.40254954    0.0072605395
      8207.48      0.41390590    0.0072293908
      8215.69      0.42387974    0.0072053126
      8223.91      0.43482089    0.0071416111
      8232.13      0.44487063    0.0071194860
      8240.36      0.45622580    0.0070631550
      8248.60      0.46553610    0.0070499832
      8256.85      0.48147342    0.0070020071
      8265.11      0.49196535    0.0069934853
      8273.37      0.50071886    0.0069480375
      8281.65      0.50592976    0.0069421261
      8289.93      0.52009066    0.0069020997
      8298.22      0.53782970    0.0069004750
      8306.52      0.55621304    0.0068645134
      8314.83      0.57820009    0.0068648634
      8323.14      0.60237926    0.0068316900
      8331.46      0.62984312    0.0068343730
      8339.80      0.66625901    0.0068030509
      8348.13      0.70392427    0.0067731562
      8356.48      0.74311152    0.0067770317
      8364.84      0.79148316    0.0067490844
      8373.21      0.83892760    0.0067532861
      8381.58      0.89184690    0.0067574792
      8389.96      0.94564890    0.0067307109
      8398.35       1.0088976    0.0067353549
      8406.75       1.0741709    0.0067092711
      8415.16       1.1491101    0.0067140381
      8423.57       1.2229519    0.0066899902
      8432.00       1.3081142    0.0066962632
      8440.43       1.3968425    0.0066738481
      8448.87       1.4924198    0.0066812549
      8457.32       1.5846356    0.0066608477
      8465.78       1.6737898    0.0066690225
      8474.25       1.7600765    0.0066496074
      8482.72       1.8393411    0.0066584188
      8491.20       1.9078029    0.0066206367
      8499.69       1.9696265    0.0066300197
      8508.19       2.0235364    0.0066132191
      8516.70       2.0667925    0.0066232197
      8525.22       2.1023764    0.0066450680
      8533.75       2.1427342    0.0067594848
      8542.28       2.1752870    0.0068901253
      8550.82       2.1963339    0.0070290672
      8559.37       2.2120659    0.0072128534
      8567.93       2.2166181    0.0073976463
      8576.50       2.2135892    0.0076638565
      8585.08       2.2018434    0.0080239642
      8593.66       2.1811646    0.0084643958
      8602.26       2.1482790    0.0089629970
      8610.86       2.1072095    0.0096828657
      8619.47       2.0507923     0.010619912
      8628.09       1.9872261     0.011995169
      8636.72       1.9162527     0.013615964
      8645.36       1.8390520     0.015435113
      8654.00       1.7642208     0.018020756
      8662.66       1.6941448     0.021574124
