# starting wavelength =        3674.9100
# ending wavelength =        9669.9700
# O2 telluric scale =        0
# O2 telluric shift =        0
# H2O telluric scale =        0
# H2O telluric shift =        0
      3678.15      0.47707539     0.064694173
      3681.83      0.49825686     0.055085134
      3685.51      0.50237433     0.049528389
      3689.20      0.50527815     0.043221791
      3692.88      0.51209289     0.038324960
      3696.58      0.51297018     0.034501753
      3700.27      0.51930730     0.030819199
      3703.98      0.52134625     0.028679081
      3707.68      0.52393680     0.026994481
      3711.39      0.53361020     0.025653977
      3715.10      0.54418070     0.024575929
      3718.81      0.55052237     0.023946620
      3722.53      0.55091161     0.023180738
      3726.26      0.56261496     0.022532977
      3729.98      0.57669586     0.021975724
      3733.71      0.58640233     0.021591993
      3737.45      0.58320531     0.021181189
      3741.18      0.58269661     0.020811875
      3744.93      0.58181462     0.020477184
      3748.67      0.59417373     0.020416848
      3752.42      0.60077735     0.020512756
      3756.17      0.60435863     0.020452592
      3759.93      0.61876529     0.020392917
      3763.69      0.61434673     0.020333562
      3767.45      0.62170743     0.020274892
      3771.22      0.62414716     0.020375111
      3774.99      0.63936483     0.020313954
      3778.77      0.64430334     0.020253273
      3782.54      0.64598214     0.020193276
      3786.33      0.65229102     0.020133315
      3790.11      0.65813292     0.020232013
      3793.90      0.67316141     0.020343420
      3797.70      0.67350789     0.020647060
      3801.50      0.69748572     0.020992133
      3805.30      0.69793265     0.021388183
      3809.10      0.70058997     0.020874463
      3812.91      0.70165315     0.020237615
      3816.73      0.70618441     0.020020083
      3820.54      0.69833518     0.020001025
      3824.36      0.71251661     0.020094155
      3828.19      0.72070405     0.020258110
      3832.02      0.72506213     0.020557961
      3835.85      0.74081575     0.020785379
      3839.68      0.74610120     0.021031791
      3843.52      0.75331056     0.021279055
      3847.37      0.75473493     0.021513086
      3851.22      0.76221309     0.021717353
      3855.07      0.76506256     0.022121143
      3858.92      0.77656664     0.022247757
      3862.78      0.78287462     0.022306283
      3866.64      0.78463204     0.022240642
      3870.51      0.78037710     0.022076219
      3874.38      0.78311744     0.021845518
      3878.26      0.78175985     0.021814988
      3882.13      0.78108943     0.021480569
      3886.02      0.77717926     0.021114967
      3889.90      0.77731813     0.020734080
      3893.79      0.78620352     0.020353787
      3897.69      0.79473627     0.020123584
      3901.59      0.79670528     0.020094583
      3905.49      0.79983492     0.020091614
      3909.39      0.79405236     0.019744912
      3913.30      0.80043885     0.019287155
      3917.22      0.80249451     0.019231098
      3921.13      0.80829623     0.020395695
      3925.06      0.80675592     0.020118111
      3928.98      0.80228321     0.019912407
      3932.91      0.80218570     0.019823266
      3936.84      0.80554779     0.019888833
      3940.78      0.80107352     0.020081757
      3944.72      0.80162600     0.020267695
      3948.67      0.81983563     0.020432538
      3952.61      0.83040862     0.020563949
      3956.57      0.84091632     0.020649238
      3960.52      0.84229638     0.020681310
      3964.48      0.84605643     0.020890748
      3968.45      0.85971145     0.020723705
      3972.42      0.88111075     0.020544712
      3976.39      0.89205898     0.020447458
      3980.37      0.89948179     0.020159961
      3984.35      0.90220215     0.019850920
      3988.33      0.90523520     0.019534333
      3992.32      0.90871896     0.019226873
      3996.31      0.91081133     0.018942506
      4000.31      0.91771571     0.018864299
      4004.31      0.92389469     0.018660413
      4008.31      0.92970153     0.018549819
      4012.32      0.93749383     0.018592778
      4016.33      0.94614793     0.019604259
      4020.35      0.94800073     0.019090831
      4024.37      0.95065824     0.018655935
      4028.40      0.95582341     0.018432857
      4032.42      0.95728804     0.018376017
      4036.46      0.95774634     0.018490842
      4040.50      0.94955509     0.018814516
      4044.54      0.94460419     0.019199865
      4048.58      0.94719902     0.019866497
      4052.63      0.94323885     0.020468430
      4056.68      0.94465586     0.018782675
      4060.74      0.94560136     0.018507148
      4064.80      0.94497411     0.018606974
      4068.86      0.93910944     0.018877740
      4072.93      0.93980489     0.019244722
      4077.01      0.94138169     0.019876135
      4081.08      0.93756005     0.020348648
      4085.17      0.93115453     0.020795795
      4089.25      0.93339408     0.021178847
      4093.34      0.93034300     0.021728143
      4097.43      0.93315966     0.021932906
      4101.53      0.92719858     0.021743019
      4105.63      0.92487663     0.021661271
      4109.74      0.92767548     0.021155484
      4113.85      0.92552898     0.020571342
      4117.96      0.93224864     0.019954596
      4122.08      0.94202952     0.019348833
      4126.20      0.94663372     0.018937567
      4130.33      0.94736754     0.018478271
      4134.46      0.95117963     0.018195949
      4138.59      0.96157281     0.018288359
      4142.73      0.97162328     0.019801913
      4146.88      0.98395922     0.019066489
      4151.02      0.99302080     0.018486582
      4155.18      0.99395507     0.018013595
      4159.33      0.99898930     0.017780566
      4163.49      0.99649444     0.017722580
      4167.65       1.0012557     0.017665536
      4171.82       1.0040833     0.017781566
      4175.99       1.0114672     0.017914979
      4180.17       1.0253485     0.017857851
      4184.35       1.0363946     0.017801875
      4188.54       1.0270125     0.017745906
      4192.72       1.0159439     0.017871759
      4196.92       1.0096387     0.017815820
      4201.11       1.0064635     0.017761024
      4205.31       1.0076199     0.017706839
      4209.52       1.0070318     0.017825331
      4213.73       1.0101527     0.017766920
      4217.94       1.0080256     0.017709035
      4222.16       1.0021304     0.017652120
      4226.38       1.0010257     0.017785106
      4230.61       1.0106511     0.017728731
      4234.84       1.0090640     0.017673222
      4239.08       1.0116615     0.017618645
      4243.32       1.0095367     0.017748385
      4247.56       1.0044859     0.017689223
      4251.81       1.0162289     0.017630624
      4256.06       1.0256321     0.017573205
      4260.32       1.0349272     0.017714929
      4264.58       1.0497120     0.017658902
      4268.84       1.0511504     0.017603469
      4273.11       1.0372517     0.017549626
      4277.38       1.0290438     0.017495823
      4281.66       1.0329498     0.017626745
      4285.94       1.0377139     0.017358083
      4290.23       1.0449539     0.017301330
      4294.52       1.0348120     0.017246809
      4298.81       1.0355199     0.017192595
      4303.11       1.0282954     0.017139654
      4307.42       1.0362884     0.017088094
      4311.72       1.0335647     0.016817397
      4316.04       1.0226928     0.016951456
      4320.35       1.0231995     0.016896471
      4324.67       1.0378979     0.016842896
      4329.00       1.0560388     0.016790491
      4333.33       1.0837036     0.016532818
      4337.66       1.1053046     0.016475895
      4342.00       1.1143546     0.016420986
      4346.34       1.1257327     0.016552788
      4350.69       1.1260456     0.016500029
      4355.04       1.1202934     0.016251877
      4359.39       1.1283001     0.016195612
      4363.75       1.1393722     0.016139808
      4368.12       1.1390082     0.016086858
      4372.48       1.1331212     0.016216152
      4376.86       1.1272704     0.015974859
      4381.23       1.1345694     0.015918151
      4385.61       1.1396525     0.015862981
      4390.00       1.1433079     0.015809948
      4394.39       1.1418019     0.015758411
      4398.79       1.1410988     0.015700522
      4403.18       1.1511909     0.015643710
      4407.59       1.1686679     0.015589641
      4412.00       1.1850665     0.015536732
      4416.41       1.1919754     0.015308465
      4420.82       1.1937846     0.015428389
      4425.25       1.1909497     0.015372784
      4429.67       1.1884348     0.015319728
      4434.10       1.1981265     0.015268408
      4438.54       1.2117421     0.015044290
      4442.97       1.2230674     0.014997953
      4447.42       1.2361229     0.015105797
      4451.86       1.2381219     0.015053295
      4456.32       1.2513266     0.014831719
      4460.77       1.2613119     0.014785124
      4465.24       1.2708237     0.014894296
      4469.70       1.2847542     0.014841979
      4474.17       1.2889774     0.014622447
      4478.65       1.2978668     0.014575975
      4483.12       1.3085085     0.014531882
      4487.61       1.3153842     0.014633236
      4492.09       1.3259152     0.014416223
      4496.59       1.3379013     0.014369754
      4501.08       1.3435357     0.014325968
      4505.58       1.3456353     0.014260717
      4510.09       1.3535446     0.014212246
      4514.60       1.3624769     0.014166991
      4519.12       1.3827641     0.014124095
      4523.63       1.3914651     0.013909312
      4528.16       1.3990290     0.014011404
      4532.69       1.4123159     0.013966813
      4537.22       1.4185811     0.013759914
      4541.76       1.4270302     0.013711601
      4546.30       1.4338774     0.013813253
      4550.85       1.4375833     0.013770352
      4555.40       1.4474097     0.013564107
      4559.95       1.4531887     0.013517773
      4564.51       1.4527344     0.013618940
      4569.08       1.4529770     0.013418569
      4573.65       1.4503134     0.013371297
      4578.22       1.4496101     0.013326751
      4582.80       1.4500661     0.013275225
      4587.38       1.4428294     0.013226693
      4591.97       1.4411488     0.013181078
      4596.56       1.4398103     0.013132960
      4601.16       1.4327299     0.013083282
      4605.76       1.4278788     0.013037430
      4610.37       1.4224939     0.012851321
      4614.98       1.4195077     0.012942495
      4619.59       1.4153182     0.012895976
      4624.21       1.4106924     0.012710946
      4628.84       1.4089838     0.012802808
      4633.47       1.4092372     0.012756285
      4638.10       1.4021589     0.012572816
      4642.74       1.4018828     0.012533371
      4647.38       1.4022125     0.012617886
      4652.03       1.4005894     0.012436431
      4656.68       1.4043090     0.012396858
      4661.34       1.3964276     0.012480991
      4666.00       1.3957293     0.012300994
      4670.67       1.3937154     0.012261943
      4675.33       1.3918865     0.012344829
      4680.01       1.3904294     0.012167013
      4684.69       1.3872604     0.012128644
      4689.38       1.3785784     0.012210402
      4694.07       1.3710654     0.012034287
      4698.76       1.3652996     0.011997016
      4703.46       1.3573645     0.011822807
      4708.16       1.3502519     0.011904324
      4712.87       1.3454156     0.011868004
      4717.58       1.3427348     0.011694424
      4722.30       1.3332896     0.011775598
      4727.03       1.3282690     0.011740876
      4731.75       1.3260108     0.011686373
      4736.48       1.3229243     0.011648797
      4741.22       1.3237655     0.011481523
      4745.96       1.3234653     0.011559725
      4750.71       1.3161686     0.011523506
      4755.46       1.3192694     0.011356209
      4760.22       1.3225019     0.011434957
      4764.97       1.3207859     0.011272630
      4769.74       1.3236042     0.011232868
      4774.51       1.3259369     0.011312291
      4779.29       1.3255513     0.011149772
      4784.07       1.3166461    0.0078536666
      4788.85       1.3181958    0.0078189146
      4793.64       1.3171792    0.0077940030
      4798.43       1.3101157    0.0077601659
      4803.23       1.3089514    0.0077351499
      4808.03       1.3072665    0.0077109576
      4812.84       1.3056386    0.0076769820
      4817.66       1.3044919    0.0076526881
      4822.48       1.3024064    0.0075847073
      4827.30       1.2986384    0.0075951566
      4832.12       1.2973268    0.0075274728
      4836.96       1.2964386    0.0075048457
      4841.79       1.2967118    0.0074707998
      4846.63       1.2961516    0.0074481142
      4851.48       1.2932035    0.0075043294
      4856.33       1.2918356    0.0075821103
      4861.19       1.2883150    0.0076738039
      4866.05       1.2871437    0.0077960335
      4870.92       1.2842768    0.0079167807
      4875.79       1.2828736    0.0075230603
      4880.66       1.2831816    0.0072753699
      4885.55       1.2819277    0.0072386547
      4890.43       1.2814446    0.0072641566
      4895.32       1.2832736    0.0072539728
      4900.22       1.2925174    0.0073091673
      4905.12       1.2918825    0.0074832612
      4910.02       1.2927264    0.0076659750
      4914.94       1.2937487    0.0078791153
      4919.85       1.2901081    0.0078060537
      4924.77       1.2877835    0.0077472613
      4929.70       1.2861221    0.0077591662
      4934.62       1.2879480    0.0078552230
      4939.56       1.2868039    0.0079197143
      4944.50       1.2895539    0.0080313541
      4949.44       1.2844227    0.0081039934
      4954.39       1.2870878    0.0082080625
      4959.35       1.2842368    0.0082191980
      4964.31       1.2910932    0.0083370176
      4969.27       1.2914422    0.0084084565
      4974.24       1.2885164    0.0084419033
      4979.22       1.2867376    0.0083228596
      4984.20       1.2818453    0.0083009338
      4989.18       1.2746510    0.0081298420
      4994.17       1.2743809    0.0078635038
      4999.16       1.2706643    0.0077256997
      5004.16       1.2684059    0.0075274787
      5009.17       1.2656188    0.0074278315
      5014.18       1.2612425    0.0072356748
      5019.19       1.2570858    0.0071485761
      5024.21       1.2572895    0.0069788981
      5029.23       1.2559125    0.0069326803
      5034.26       1.2525920    0.0068097244
      5039.30       1.2487599    0.0068751241
      5044.34       1.2465999    0.0068931820
      5049.39       1.2418685    0.0068557164
      5054.43       1.2371718    0.0066785398
      5059.49       1.2336214    0.0065072302
      5064.55       1.2349990    0.0063747447
      5069.61       1.2366693    0.0062364850
      5074.68       1.2365886    0.0061603118
      5079.76       1.2367391    0.0061250367
      5084.84       1.2409352    0.0061185468
      5089.92       1.2433766    0.0061215150
      5095.01       1.2444823    0.0062010409
      5100.11       1.2303331    0.0062965923
      5105.21       1.2306451    0.0061660751
      5110.31       1.2313421    0.0060549599
      5115.42       1.2329540    0.0059812331
      5120.54       1.2360413    0.0059322785
      5125.66       1.2405357    0.0059083180
      5130.79       1.2439099    0.0058924192
      5135.92       1.2461874    0.0058686086
      5141.05       1.2495395    0.0058531409
      5146.20       1.2514160    0.0058294737
      5151.34       1.2551358    0.0058065103
      5156.49       1.2601406    0.0057908608
      5161.65       1.2681627    0.0057679971
      5166.81       1.2734422    0.0057213169
      5171.98       1.2763763    0.0057300682
      5177.15       1.2761163    0.0080410469
      5182.33       1.2769774    0.0080143628
      5187.51       1.2823235    0.0079874756
      5192.70       1.2843442    0.0079600464
      5197.89       1.2846703    0.0079352049
      5203.09       1.2911933    0.0079066846
      5208.29       1.3081915    0.0078806749
      5213.50       1.3233822    0.0078545693
      5218.72       1.3275971    0.0078276351
      5223.93       1.3326357    0.0077278116
      5229.16       1.3355656    0.0077762117
      5234.39       1.3338529    0.0076792648
      5239.62       1.3332691    0.0077261519
      5244.86       1.3323854    0.0076997250
      5250.11       1.3346708    0.0076028690
      5255.36       1.3405273    0.0076501939
      5260.61       1.3421242    0.0075562523
      5265.87       1.3471424    0.0075281485
      5271.14       1.3526817    0.0075759875
      5276.41       1.3534892    0.0074823004
      5281.69       1.3505067    0.0074551360
      5286.97       1.3487295    0.0074381658
      5292.26       1.3487924    0.0074100230
      5297.55       1.3502846    0.0073840255
      5302.85       1.3553781    0.0073667409
      5308.15       1.3624005    0.0073397753
      5313.46       1.3654043    0.0073146561
      5318.77       1.3606445    0.0072975383
      5324.09       1.3570738    0.0072712762
      5329.42       1.3541635    0.0073987145
      5334.75       1.3532229    0.0075832278
      5340.08       1.3566744    0.0078544233
      5345.42       1.3585816    0.0082015544
      5350.77       1.3651060    0.0072387084
      5356.12       1.3732104    0.0074177334
      5361.48       1.3750738    0.0075618273
      5366.83       1.3791006    0.0078596380
      5372.20       1.3855415    0.0082664082
      5377.58       1.3815930    0.0084893506
      5382.95       1.3737330    0.0087274230
      5388.34       1.3681699    0.0088820194
      5393.72       1.3615497    0.0086705497
      5399.12       1.3540106    0.0084054212
      5404.52       1.3511172    0.0080673304
      5409.92       1.3417103    0.0077103233
      5415.33       1.3298554    0.0073856740
      5420.75       1.3230734    0.0071448996
      5426.17       1.3160919    0.0068933834
      5431.60       1.3044533    0.0072158971
      5437.03       1.2932041    0.0075135033
      5442.47       1.2907775    0.0071305110
      5447.91       1.2868406    0.0068760858
      5453.36       1.2781093    0.0067126210
      5458.81       1.2784175    0.0066939628
      5464.27       1.2681969    0.0066162182
      5469.73       1.2635051    0.0065966007
      5475.20       1.2597228    0.0066396520
      5480.68       1.2500837    0.0065646526
      5486.16       1.2401665    0.0065449707
      5491.65       1.2333199    0.0065262765
      5497.14       1.2267268    0.0065084958
      5502.64       1.2251663    0.0064956158
      5508.14       1.2271955    0.0064768583
      5513.65       1.2227466    0.0064589976
      5519.16       1.2198426    0.0063849118
      5524.68       1.2161882    0.0064297607
      5530.20       1.2099684    0.0064116653
      5535.73       1.2045083    0.0063943203
      5541.27       1.2005517    0.0063213720
      5546.81       1.1946239    0.0063057117
      5552.36       1.1871703    0.0063492069
      5557.91       1.1787855    0.0063323060
      5563.47       1.1744147    0.0062602998
      5569.04       1.1678469    0.0062451526
      5574.60       1.1608821    0.0062305559
      5580.18       1.1535657    0.0062168778
      5585.76       1.1444615    0.0062024062
      5591.35       1.1372458    0.0061875517
      5596.94       1.1344065    0.0061734173
      5602.53       1.1346279    0.0061597986
      5608.14       1.1356661    0.0061468062
      5613.75       1.1354757    0.0061327011
      5619.36       1.1328574    0.0061188663
      5624.98       1.1256394    0.0061055765
      5630.60       1.1228387    0.0060930284
      5636.23       1.1223441    0.0060284841
      5641.87       1.1294080    0.0060158013
      5647.51       1.1258530    0.0060031729
      5653.16       1.1256618    0.0060445414
      5658.82       1.1249623    0.0060336767
      5664.47       1.1255435    0.0059730002
      5670.14       1.1247992    0.0059647063
      5675.81       1.1170403    0.0059579434
      5681.48       1.1126481    0.0059515081
      5687.17       1.1083782    0.0059461436
      5692.85       1.1052963    0.0059434453
      5698.55       1.0995472    0.0059374160
      5704.25       1.0991130    0.0059292790
      5709.95       1.0993960    0.0059199343
      5715.66       1.0960274    0.0059101254
      5721.38       1.0963036    0.0058996386
      5727.10       1.0919355    0.0058374245
      5732.83       1.0910518    0.0058260507
      5738.56       1.0973779    0.0058151502
      5744.30       1.1017858    0.0058566977
      5750.04       1.1071191    0.0058455337
      5755.79       1.1033988    0.0058338431
      5761.55       1.1099693    0.0058217192
      5767.31       1.1091585    0.0057593179
      5773.08       1.1104220    0.0057470586
      5778.85       1.1132394    0.0057353809
      5784.63       1.1135725    0.0057232601
      5790.41       1.1174571    0.0057107348
      5796.21       1.1173627    0.0056992977
      5802.00       1.1186230    0.0056895167
      5807.81       1.1166188    0.0057873619
      5813.61       1.1183812    0.0059883593
      5819.43       1.1185335    0.0062073733
      5825.25       1.1148685    0.0065895486
      5831.07       1.1122099    0.0070044785
      5836.90       1.1063015    0.0079072790
      5842.74       1.1043266    0.0064935804
      5848.58       1.1035620    0.0067291220
      5854.43       1.0992246    0.0071132502
      5860.29       1.0967133    0.0074294635
      5866.15       1.0949565    0.0078964943
      5872.01       1.1038845    0.0082896374
      5877.89       1.1081928    0.0085954294
      5883.76       1.1095553    0.0083605301
      5889.65       1.1133376    0.0079573613
      5895.54       1.1117672    0.0074903395
      5901.43       1.1057082    0.0070480057
      5907.34       1.1034509    0.0066850719
      5913.24       1.1017828    0.0064686133
      5919.16       1.0953897    0.0078577327
      5925.08       1.0932064    0.0068835034
      5931.00       1.0945862    0.0064345107
      5936.93       1.0958462    0.0060278636
      5942.87       1.0926456    0.0057930589
      5948.81       1.0935362    0.0055839238
      5954.76       1.0903588    0.0054301556
      5960.72       1.0877738    0.0054265549
      5966.68       1.0846319    0.0054231319
      5972.64       1.0817699    0.0054199090
      5978.62       1.0750995    0.0054167978
      5984.60       1.0725144    0.0054138431
      5990.58       1.0659003    0.0054110255
      5996.57       1.0590809    0.0054083760
      6002.57       1.0574761    0.0054060808
      6008.57       1.0547156    0.0054050284
      6014.58       1.0535151    0.0054058547
      6020.60       1.0522243    0.0054050031
      6026.62       1.0535952    0.0054024631
      6032.65       1.0510071    0.0054026739
      6038.68       1.0504591    0.0054064368
      6044.72       1.0576173    0.0054133619
      6050.76       1.0619995    0.0054230698
      6056.81       1.0685351    0.0054346833
      6062.87       1.0777129    0.0054468190
      6068.93       1.0835700    0.0054582513
      6075.00       1.0914378    0.0054241250
      6081.08       1.0983021    0.0054296494
      6087.16       1.1068165    0.0054312080
      6093.25       1.1138233    0.0054287888
      6099.34       1.1258337    0.0054226723
      6105.44       1.1377536    0.0054136666
      6111.54       1.1514485    0.0054033907
      6117.66       1.1639431    0.0053936187
      6123.78       1.1785608    0.0053866873
      6129.90       1.1961917    0.0053830608
      6136.03       1.2098839    0.0053789035
      6142.17       1.2214133    0.0053736395
      6148.31       1.2353097    0.0053268521
      6154.46       1.2546494    0.0053243404
      6160.61       1.2814666    0.0053222102
      6166.77       1.3040824    0.0053208082
      6172.94       1.3295103    0.0053199108
      6179.11       1.3588408    0.0053196767
      6185.29       1.3912177    0.0053200992
      6191.48       1.4274449    0.0053212101
      6197.67       1.4630486    0.0052825121
      6203.87       1.4984713    0.0053292966
      6210.07       1.5359810    0.0053312414
      6216.28       1.5716407    0.0053337235
      6222.50       1.6081935    0.0053371362
      6228.72       1.6479479    0.0053416357
      6234.95       1.6853344    0.0053478259
      6241.19       1.7316275    0.0053556594
      6247.42       1.7801657    0.0053236371
      6253.67       1.8252679    0.0053306662
      6259.93       1.8675534    0.0053378485
      6266.19       1.9103339    0.0053450648
      6272.46       1.9480255    0.0053954614
      6278.73       1.9771888    0.0054002574
      6285.01       1.9989604    0.0053626978
      6291.29       2.0144339    0.0053656192
      6297.58       2.0243332    0.0053681158
      6303.88       2.0273553    0.0053708103
      6310.19       2.0259399    0.0053742670
      6316.50       2.0165987    0.0053361932
      6322.81       2.0026037    0.0053403467
      6329.14       1.9784491    0.0053889242
      6335.47       1.9478821    0.0053926836
      6341.80       1.9198032    0.0053961472
      6348.14       1.8913156    0.0053580334
      6354.49       1.8585027    0.0053609701
      6360.85       1.8335130    0.0053649298
      6367.21       1.8049646    0.0053689707
      6373.57       1.7750740    0.0054165071
      6379.95       1.7415002    0.0053797629
      6386.33       1.7044418    0.0053838672
      6392.72       1.6668109    0.0053888778
      6399.11       1.6263832    0.0053946647
      6405.51       1.5826830    0.0053616503
      6411.92       1.5386474    0.0054124734
      6418.32       1.4943387    0.0054185218
      6424.74       1.4598885    0.0054248762
      6431.17       1.4269807    0.0054316616
      6437.60       1.3910854    0.0053994768
      6444.04       1.3530960    0.0054511507
      6450.48       1.3164534    0.0054580252
      6456.94       1.2832400    0.0054653197
      6463.39       1.2552734    0.0054335457
      6469.85       1.2269322    0.0054417666
      6476.33       1.2010375    0.0054504238
      6482.80       1.1825731    0.0054615614
      6489.28       1.1730400    0.0054696574
      6495.77       1.1486515    0.0054783279
      6502.27       1.1223523    0.0054874931
      6508.77       1.1049492    0.0054992438
      6515.28       1.0910947    0.0055078794
      6521.80       1.0761645    0.0055169813
      6528.32       1.0644547    0.0054855675
      6534.85       1.0554585    0.0054941349
      6541.38       1.0493384    0.0055482342
      6547.92       1.0457379    0.0055579976
      6554.47       1.0402785    0.0055265167
      6561.03       1.0338780    0.0055356110
      6567.59       1.0297374    0.0055911735
      6574.16       1.0244992    0.0055676163
      6580.73       1.0199771    0.0055932534
      6587.31       1.0158182    0.0056160660
      6593.90       1.0119182    0.0056263696
      6600.50       1.0107095    0.0056401324
      6607.10       1.0099872    0.0056744177
      6613.70       1.0128361    0.0057504800
      6620.32      0.99703864    0.0058217117
      6626.94      0.99929215    0.0059068341
      6633.57       1.0077702    0.0059684924
      6640.20       1.0111636    0.0061304029
      6646.84       1.0082318    0.0062165165
      6653.49       1.0169527    0.0062427378
      6660.14       1.0147624    0.0063449335
      6666.80       1.0195588    0.0063035761
      6673.47       1.0187335    0.0062855462
      6680.14       1.0153071    0.0062472295
      6686.82       1.0119165    0.0061769994
      6693.51       1.0084666    0.0061219610
      6700.20       1.0016248    0.0060783052
      6706.90      0.99428980    0.0060500664
      6713.61      0.98674714    0.0060320930
      6720.32      0.97899753    0.0059563063
      6727.05      0.96995042    0.0059770344
      6733.77      0.96180850    0.0059708571
      6740.51      0.95945808    0.0059225892
      6747.25      0.96382668    0.0059625218
      6754.00      0.96383256    0.0059232367
      6760.75      0.96482728    0.0059279051
      6767.51      0.96191124    0.0059833772
      6774.28      0.96165307    0.0059535000
      6781.05      0.96692048    0.0059650890
      6787.84      0.96060871    0.0059818302
      6794.62      0.96730332    0.0059896502
      6801.42      0.96332139    0.0059557537
      6808.22      0.96298795    0.0060061907
      6815.03      0.96616057    0.0060126011
      6821.85      0.97155314    0.0060265737
      6828.67      0.97277983    0.0060343248
      6835.50      0.97425253    0.0060019390
      6842.33      0.97305727    0.0060564491
      6849.17      0.97516874    0.0060252728
      6856.02      0.97921992    0.0060829868
      6862.88      0.98167128    0.0060554470
      6869.74      0.98563384    0.0060728197
      6876.61      0.99149849    0.0060989232
      6883.49      0.99439642    0.0061186136
      6890.37      0.99686920    0.0061862391
      6897.27      0.99519656    0.0061739025
      6904.16      0.99494878    0.0062077761
      6911.07      0.99277485    0.0062656212
      6917.98      0.99044810    0.0063249075
      6924.89      0.98549379    0.0064220402
      6931.82      0.98249052    0.0065023152
      6938.75      0.97738101    0.0066022413
      6945.69      0.97951020    0.0066639253
      6952.64      0.98280101    0.0066675061
      6959.59      0.98165296    0.0067615770
      6966.55      0.97602724    0.0067359308
      6973.52      0.97174755    0.0068038573
      6980.49      0.97513648    0.0067557951
      6987.47      0.97859328    0.0067613327
      6994.46      0.97814297    0.0067658535
      7001.46      0.98539054    0.0067910258
      7008.46      0.99095466    0.0068119041
      7015.46      0.99804720    0.0068462566
      7022.48       1.0017218    0.0068643266
      7029.51       1.0024634    0.0068297828
      7036.53       1.0068805    0.0068832990
      7043.57       1.0108756    0.0068282389
      7050.62       1.0124791    0.0068635284
      7057.66       1.0139070    0.0069669089
      7064.72       1.0139193    0.0072157025
      7071.79       1.0166821    0.0071248404
      7078.86       1.0250420    0.0068017222
      7085.94       1.0265314    0.0068519257
      7093.03       1.0227503    0.0069810702
      7100.12       1.0193591    0.0071604542
      7107.22       1.0184894    0.0073754982
      7114.33       1.0195722    0.0075058528
      7121.44       1.0160438    0.0077466358
      7128.56       1.0068432    0.0078545312
      7135.69       1.0030668    0.0078377273
      7142.83       1.0041408    0.0077322114
      7149.97       1.0132042    0.0075082490
      7157.12       1.0130778    0.0073552707
      7164.28       1.0123819    0.0071169996
      7171.44       1.0155500    0.0069792008
      7178.62       1.0164974    0.0068198028
      7185.80       1.0182736    0.0068426768
      7192.98       1.0196958    0.0071028070
      7200.17       1.0206080    0.0071809296
      7207.38       1.0165937    0.0069433857
      7214.58       1.0155558    0.0068439296
      7221.80       1.0123494    0.0068675678
      7229.02       1.0107249    0.0068394365
      7236.25       1.0129495    0.0069062892
      7243.49       1.0051233    0.0068800485
      7250.73      0.99886966    0.0069040005
      7257.98      0.99626355    0.0069727616
      7265.24       1.0018994    0.0069496997
      7272.51       1.0096300    0.0070044439
      7279.78       1.0234994    0.0070794396
      7287.06       1.0428249    0.0071904459
      7294.35       1.0560339    0.0072296710
      7301.64       1.0656488    0.0072235676
      7308.94       1.0843436    0.0073154747
      7316.25       1.0991893    0.0074692488
      7323.57       1.1148705    0.0077850284
      7330.89       1.1273009    0.0082286583
      7338.22       1.1343518    0.0086805197
      7345.56       1.1388225    0.0092668853
      7352.91       1.1424132    0.0099430577
      7360.26       1.1395305     0.010416626
      7367.62       1.1330565     0.010901250
      7374.99       1.1249573     0.011242376
      7382.37       1.1278665     0.011073529
      7389.75       1.1439153     0.010751582
      7397.14       1.1607916     0.010233525
      7404.53       1.1761730    0.0097872150
      7411.94       1.1894992    0.0092155525
      7419.35       1.1907875    0.0087570984
      7426.77       1.1812973    0.0084106951
      7434.20       1.1801370    0.0081972196
      7441.63       1.1789373    0.0079685836
      7449.07       1.1789623    0.0078045431
      7456.52       1.1735393    0.0077355051
      7463.98       1.1613947    0.0077366569
      7471.45       1.1488271    0.0076417787
      7478.92       1.1367294    0.0076110969
      7486.40       1.1195374    0.0075991834
      7493.88       1.1030127    0.0075998192
      7501.38       1.0878742    0.0076090887
      7508.88       1.0674274    0.0076260913
      7516.39       1.0500292    0.0076474862
      7523.91       1.0341681    0.0076167923
      7531.43       1.0280566    0.0076889897
      7538.96       1.0160311    0.0077148803
      7546.50       1.0110564    0.0076858550
      7554.05       1.0015196    0.0077127060
      7561.60      0.97947480    0.0077406440
      7569.16      0.96446948    0.0078156271
      7576.73      0.95577073    0.0077863119
      7584.31      0.94955868    0.0078147959
      7591.89      0.94383781    0.0078455364
      7599.49      0.93524905    0.0078779847
      7607.09      0.92553862    0.0078538828
      7614.70      0.92068752    0.0079341561
      7622.31      0.91934885    0.0079698270
      7629.93      0.90567665    0.0080050361
      7637.56      0.89674473    0.0080370572
      7645.20      0.89089122    0.0080086532
      7652.85      0.87727557    0.0080363109
      7660.50      0.86705099    0.0080635772
      7668.16      0.86527137    0.0081386623
      7675.83      0.87176664    0.0081656159
      7683.50      0.87518215    0.0081358141
      7691.19      0.88175878    0.0081619348
      7698.88      0.88534425    0.0081895516
      7706.58      0.88540023    0.0082190079
      7714.29      0.89079476    0.0082488343
      7722.00      0.89015214    0.0082204344
      7729.73      0.89403598    0.0082501656
      7737.45      0.90154770    0.0083289772
      7745.19      0.90038992    0.0083557683
      7752.94      0.90126242    0.0083810909
      7760.69      0.90052083    0.0084068882
      7768.45      0.90064081    0.0083743055
      7776.22      0.89865507    0.0084012326
      7784.00      0.89967194    0.0084265658
      7791.78      0.90102310    0.0084544128
      7799.57      0.89770417    0.0084860914
      7807.37      0.89064089    0.0085225868
      7815.18      0.88870572    0.0085667999
      7822.99      0.88326311    0.0085574729
      7830.82      0.88488779    0.0086140996
      7838.65      0.87619575    0.0086846228
      7846.49      0.86978328    0.0087716975
      7854.34      0.86271691    0.0088732137
      7862.19      0.85443667    0.0090283286
      7870.05      0.84635120    0.0091480451
      7877.93      0.83732957    0.0092765705
      7885.80      0.82709661    0.0093984683
      7893.69      0.81870401    0.0094079768
      7901.58      0.81062967    0.0094558282
      7909.49      0.79975206    0.0094940324
      7917.40      0.80282774    0.0095243527
      7925.31      0.80571668    0.0095449846
      7933.24      0.80306738    0.0095587210
      7941.17      0.80561264    0.0095630881
      7949.11      0.80400743    0.0095611961
      7957.06      0.80316062    0.0095603318
      7965.02      0.79614370    0.0095676146
      7972.98      0.78725199    0.0095796283
      7980.96      0.77674416    0.0095270804
      7988.94      0.76083285    0.0095276071
      7996.93      0.75965762    0.0095246232
      8004.93      0.76736788    0.0095189007
      8012.93      0.76771958    0.0094539690
      8020.95      0.76416487    0.0094545304
      8028.97      0.75652384    0.0094747278
      8036.99      0.74980290    0.0094980213
      8045.03      0.74746061    0.0094890857
      8053.08      0.75768758    0.0094635506
      8061.13      0.76457723    0.0094455171
      8069.20      0.77754219    0.0094322583
      8077.26      0.78444585    0.0094230062
      8085.34      0.79300169    0.0094208833
      8093.43      0.79438561    0.0094175086
      8101.52      0.79648454    0.0094137568
      8109.62      0.79075269    0.0093572171
      8117.73      0.78722505    0.0093639302
      8125.85      0.78206840    0.0093758872
      8133.98      0.77680164    0.0093880410
      8142.11      0.77122216    0.0094008464
      8150.25      0.77185275    0.0094155853
      8158.41      0.77829375    0.0094944571
      8166.56      0.77200479    0.0095142589
      8174.73      0.76398100    0.0095348949
      8182.91      0.75590938    0.0095036757
      8191.09      0.75259820    0.0095258511
      8199.28      0.75270551    0.0095492507
      8207.48      0.75846954    0.0095741378
      8215.69      0.75201275    0.0095996675
      8223.91      0.74888866    0.0096249029
      8232.13      0.74807491    0.0096501939
      8240.36      0.74408142    0.0096211846
      8248.60      0.73050061    0.0096449431
      8256.85      0.72339681    0.0096677946
      8265.11      0.71443417    0.0096901610
      8273.37      0.71977676    0.0097123159
      8281.65      0.72131813    0.0097947818
      8289.93      0.72186487    0.0097614651
      8298.22      0.73272810    0.0097838689
      8306.52      0.73865374    0.0098057157
      8314.83      0.74521116    0.0098273613
      8323.14      0.74661166    0.0098499410
      8331.46      0.74348522    0.0098171831
      8339.80      0.74240235    0.0098413924
      8348.13      0.74348981    0.0098659893
      8356.48      0.73820147    0.0099540545
      8364.84      0.73100893    0.0099791903
      8373.21      0.72839327    0.0099477722
      8381.58      0.72507685    0.0099709190
      8389.96      0.71556069    0.0099939092
      8398.35      0.69929541     0.010016584
      8406.75      0.70370019     0.010047961
      8415.16      0.71332376     0.010068740
      8423.57      0.72002659     0.010089527
      8432.00      0.73110279     0.010110729
      8440.43      0.72966332     0.010077248
      8448.87      0.73326298     0.010099953
      8457.32      0.74420371     0.010186545
      8465.78      0.74728953     0.010209042
      8474.25      0.75391670     0.010175789
      8482.72      0.74876635     0.010199907
      8491.20      0.74762591     0.010224607
      8499.69      0.74728701     0.010254868
      8508.19      0.73159131     0.010278359
      8516.70      0.72910637     0.010302079
      8525.22      0.73680351     0.010326352
      8533.75      0.73802913     0.010291853
      8542.28      0.74039955     0.010380583
      8550.82      0.74124264     0.010405804
      8559.37      0.74662286     0.010373925
      8567.93      0.76914117     0.010399516
      8576.50      0.77755398     0.010496034
      8585.08      0.77433127     0.010474751
      8593.66      0.77231170     0.010510411
      8602.26      0.77269859     0.010549971
      8610.86      0.77345290     0.010623445
      8619.47      0.77173775     0.010691077
      8628.09      0.77722028     0.010771425
      8636.72      0.77717252     0.010829572
      8645.36      0.76794587     0.011041217
      8654.00      0.76256431     0.011141527
      8662.66      0.75160487     0.011301960
      8671.32      0.74378707     0.011566289
      8679.99      0.75787832     0.011673657
      8688.67      0.76516224     0.011811853
      8697.36      0.76008401     0.011911877
      8706.06      0.76629461     0.011964362
      8714.76      0.76420056     0.011959239
      8723.48      0.77160478     0.011847165
      8732.21      0.77270367     0.011876184
      8740.93      0.77165426     0.011849194
      8749.68      0.76417412     0.011782474
      8758.43      0.76598906     0.011865883
      8767.19      0.76311315     0.011842222
      8775.96      0.75569147     0.011910642
      8784.73      0.75429877     0.012010544
      8793.52      0.74773282     0.012084015
      8802.31      0.74642568     0.012151723
      8811.11      0.73839844     0.012215519
      8819.92      0.72662649     0.012242168
      8828.75      0.71418855     0.012266380
      8837.57      0.72033697     0.012275713
      8846.41      0.72230351     0.012209726
      8855.26      0.72285465     0.012277117
      8864.12      0.72608848     0.012173669
      8872.98      0.72744841     0.012119208
      8881.85      0.72900125     0.012040356
      8890.73      0.72699576     0.011986155
      8899.63      0.72806553     0.011925553
      8908.52      0.72851756     0.011894425
      8917.43      0.72241838     0.011827077
      8926.35      0.72762032     0.011924997
      8935.28      0.72704439     0.011925185
      8944.22      0.72625038     0.012116531
      8953.16      0.72844403     0.012231734
      8962.11      0.72242990     0.012554517
      8971.08      0.71681183     0.012868730
      8980.05      0.70726412     0.013305646
      8989.03      0.70098423     0.014005227
      8998.02      0.69798271     0.014667706
      9007.02      0.70645518     0.015598530
      9016.02      0.70807629     0.016371751
      9025.04      0.70433431     0.017290001
      9034.07      0.70054264     0.017812563
      9043.10      0.69113765     0.018363256
      9052.14      0.69213797     0.018349881
      9061.20      0.69461303     0.018319993
      9070.26      0.70168610     0.017901623
      9079.33      0.69275034     0.017390303
      9088.41      0.69219094     0.016992505
      9097.50      0.69639474     0.016594879
      9106.60      0.69497047     0.016310830
      9115.70      0.69464039     0.016225847
      9124.82      0.67861898     0.016144394
      9133.94      0.67483796     0.016132814
      9143.08      0.66935380     0.016138842
      9152.22      0.67002992     0.015918204
      9161.37      0.66680479     0.015827001
      9170.54      0.66893258     0.015704639
      9179.71      0.67130071     0.015435862
      9188.89      0.66290921     0.015177181
      9198.08      0.65744242     0.014957134
      9207.28      0.64573029     0.014629478
      9216.48      0.63985001     0.014459758
      9225.70      0.63577287     0.014284868
      9234.92      0.63202560     0.014040293
      9244.16      0.62141528     0.013838603
      9253.40      0.61946053     0.013541286
      9262.66      0.61190088     0.013331962
      9271.92      0.61697242     0.013085875
      9281.20      0.61602111     0.012802648
      9290.48      0.60800319     0.012588913
      9299.77      0.60489363     0.012299988
      9309.07      0.60151066     0.012066192
      9318.38      0.59983786     0.011754129
      9327.69      0.60564304     0.011511119
      9337.02      0.60932937     0.011275411
      9346.36      0.60249289     0.011029431
      9355.71      0.59720248     0.010842531
      9365.07      0.59758587     0.010635607
      9374.43      0.59768738     0.010507471
      9383.80      0.59653739     0.010527104
      9393.19      0.59481601     0.010663197
      9402.58      0.55734109     0.010472749
      9411.98      0.57789967     0.010102602
      9421.40      0.59313797    0.0099016065
      9430.82      0.60366398    0.0098705683
      9440.25      0.60719993    0.0098534656
      9449.69      0.61366346    0.0098933846
      9459.14      0.60664352    0.0099227613
      9468.60      0.60854306    0.0099498557
      9478.07      0.61606947     0.010004459
      9487.55      0.62122688     0.010004008
      9497.04      0.61809594     0.010008425
      9506.53      0.61637473    0.0099596169
      9516.04      0.61498732     0.010144256
      9525.56      0.61229985     0.010329421
      9535.08      0.61387786     0.010582085
      9544.62      0.61468188     0.010891541
      9554.16      0.61776889     0.011275036
      9563.72      0.61814600     0.011756295
      9573.29      0.61095524     0.011178687
      9582.85      0.60782817     0.011532276
      9592.44      0.60384709     0.011977555
      9602.03      0.60154008     0.012548889
      9611.63      0.59726222     0.013293220
      9621.25      0.59036954     0.014275720
      9630.87      0.57991800     0.015573434
      9640.50      0.56605221     0.017286740
      9650.14      0.55088168     0.019535538
      9659.79      0.54458670     0.022414989
      9669.45      0.52826210     0.026056935
