# starting wavelength =        3461.7998
# ending wavelength =        7168.1200
# O2 telluric scale =        0
# O2 telluric shift =        0
# H2O telluric scale =        0
# H2O telluric shift =        0
      3464.04      0.32871327     0.059505346
      3467.51      0.32827587     0.059303179
      3470.98      0.32428118     0.059427584
      3474.45      0.32902973     0.059243206
      3477.92      0.29191163     0.058960746
      3481.40      0.27262699     0.059090017
      3484.88      0.25564544     0.058891599
      3488.37      0.28809230     0.059027993
      3491.86      0.26877961     0.058750420
      3495.35      0.29759559     0.058561788
      3498.84      0.30051580     0.058690163
      3502.34      0.28097451     0.058428822
      3505.84      0.29370959     0.058225733
      3509.35      0.29493544     0.058364232
      3512.86      0.32647934     0.058183547
      3516.37      0.36547714     0.057901906
      3519.89      0.41731093     0.058040296
      3523.41      0.40880391     0.057845089
      3526.93      0.37652061     0.057580100
      3530.46      0.34853836     0.057721650
      3533.99      0.34849397     0.057538471
      3537.53      0.31344903     0.057674204
      3541.06      0.32890430     0.057410056
      3544.60      0.27023582     0.057558948
      3548.15      0.27097933     0.057374437
      3551.70      0.25182427     0.057098852
      3555.25      0.25527250     0.057257357
      3558.80      0.27146440     0.057059289
      3562.36      0.28016379     0.056797905
      3565.92      0.29591394     0.056953371
      3569.49      0.29628851     0.056771032
      3573.06      0.30785180     0.056924043
      3576.64      0.32768490     0.056660826
      3580.21      0.34561245     0.056826472
      3583.79      0.32313277     0.056645474
      3587.38      0.33505593     0.056369196
      3590.96      0.32915617     0.056541764
      3594.55      0.34260738     0.056346367
      3598.15      0.39435225     0.056081774
      3601.75      0.41958730     0.056261534
      3605.35      0.48084971     0.056442389
      3608.96      0.51761731     0.055807776
      3612.56      0.57470960     0.055981976
      3616.18      0.59816103     0.056177651
      3619.79      0.59644136     0.055908273
      3623.41      0.58334497     0.055724776
      3627.04      0.56965541     0.055905294
      3630.66      0.58355039     0.055644833
      3634.29      0.54610950     0.055842302
      3637.93      0.50259035     0.055667024
      3641.57      0.45126491     0.055387902
      3645.21      0.44280300     0.055584815
      3648.86      0.42315360     0.055803602
      3652.50      0.39222735     0.055533345
      3656.16      0.36166689     0.055350905
      3659.81      0.34985082     0.055077953
      3663.47      0.34075446     0.055291690
      3667.14      0.33237041     0.055517728
      3670.80      0.32534348     0.055251031
      3674.48      0.32280700     0.055063851
      3678.15      0.37811089     0.055281055
      3681.83      0.39274003     0.055025593
      3685.51      0.46527172     0.055258860
      3689.20      0.48137003     0.055497613
      3692.88      0.55047362     0.054805299
      3696.58      0.56061327     0.055037318
      3700.27      0.61569842     0.054782028
      3703.98      0.63105306     0.055028531
      3707.68      0.65745904     0.055281767
      3711.39      0.67723911     0.055034253
      3715.10      0.69727261     0.054821708
      3718.81      0.68872904     0.055110710
      3722.53      0.70525215     0.054829686
      3726.26      0.70551384     0.055097583
      3729.98      0.64085583     0.054847495
      3733.71      0.63616932     0.055124522
      3737.45      0.64406311     0.055415344
      3741.18      0.63003533     0.054667014
      3744.93      0.62599120     0.054399314
      3748.67      0.62776783     0.054222833
      3752.42      0.62247673     0.053945968
      3756.17      0.63810133     0.053681377
      3759.93      0.63500749     0.053502080
      3763.69      0.64656076     0.053231435
      3767.45      0.67316003     0.052973987
      3771.22      0.71198134     0.052790922
      3774.99      0.78493980     0.052524570
      3778.77      0.83918119     0.051810916
      3782.54      0.89727356     0.052091784
      3786.33      0.94224847     0.051829129
      3790.11      0.93780776     0.051122165
      3793.90      0.94993162     0.051400070
      3797.70      0.97131382     0.051141030
      3801.50      0.96237096     0.050444153
      3805.30      0.96635212     0.050207466
      3809.10      0.98697839     0.050459377
      3812.91      0.95918841     0.049770720
      3816.73      0.94508124     0.049537171
      3820.54      0.92854342     0.049786498
      3824.36      0.89652832     0.049103247
      3828.19      0.90471728     0.048872203
      3832.02      0.88023868     0.048648654
      3835.85      0.85691839     0.048447882
      3839.68      0.88327048     0.048213549
      3843.52      0.90461511     0.047991108
      3847.37      0.90997610     0.047798191
      3851.22      0.93146945     0.047565431
      3855.07      0.92743849     0.047339147
      3858.92      0.92414552     0.046701896
      3862.78      0.92522369     0.046924558
      3866.64      0.94133764     0.046699105
      3870.51      0.96171203     0.046077802
      3874.38      0.96287514     0.045845179
      3878.26      0.96027967     0.046066384
      3882.13      0.95976928     0.045465120
      3886.02      0.93839889     0.045230985
      3889.90      0.95386335     0.045003222
      3893.79      0.98683225     0.045220540
      3897.69      0.98885005     0.044627232
      3901.59       1.0247715     0.044399142
      3905.49       1.0295380     0.044175097
      3909.39       1.0507279     0.043586531
      3913.30       1.0360971     0.043804959
      3917.22       1.0164746     0.043581150
      3921.13       1.0302586     0.043361003
      3925.06       1.0649448     0.042782637
      3928.98       1.0601303     0.042998551
      3932.91       1.0540669     0.042778209
      3936.84       1.0521834     0.042561513
      3940.78       1.0464085     0.041991864
      3944.72       1.0326911     0.041788939
      3948.67       1.0112898     0.041990016
      3952.61      0.99036645     0.041776150
      3956.57      0.96807146     0.041214309
      3960.52      0.96742944     0.041012217
      3964.48      0.98972917     0.040814845
      3968.45      0.97237587     0.041005600
      3972.42      0.96788915     0.040451337
      3976.39      0.97547870     0.040249545
      3980.37      0.96222871     0.040053423
      3984.35      0.96531529     0.039858513
      3988.33      0.94180338     0.039332376
      3992.32      0.96110676     0.039503146
      3996.31      0.95611541     0.039307715
      4000.31      0.95265636     0.039113952
      4004.31      0.92398508     0.038921609
      4008.31      0.88789226     0.038411484
      4012.32      0.86703674     0.038217730
      4016.33      0.86856971     0.038026498
      4020.35      0.88809107     0.038193275
      4024.37      0.90615395     0.038004580
      4028.40      0.92446024     0.037513724
      4032.42      0.93972921     0.037323191
      4036.46      0.95496922     0.037132304
      4040.50      0.96263872     0.036945460
      4044.54      0.95770667     0.036762231
      4048.58      0.97512682     0.036641092
      4052.63      0.97620689     0.036451752
      4056.68      0.94756408     0.036264290
      4060.74      0.94211184     0.036080514
      4064.80      0.93603486     0.035899591
      4068.86      0.92208053     0.035718395
      4072.93      0.87259300     0.035250554
      4077.01      0.84979216     0.035076374
      4081.08      0.78571089     0.034905139
      4085.17      0.75470688     0.035060984
      4089.25      0.74039266     0.034881942
      4093.34      0.75047506     0.034706090
      4097.43      0.77205638     0.034533291
      4101.53      0.78496784     0.034080060
      4105.63      0.79045992     0.033909770
      4109.74      0.80055558     0.033741978
      4113.85      0.79342723     0.033576845
      4117.96      0.80206527     0.033410397
      4122.08      0.82213347     0.033245651
      4126.20      0.83183864     0.033083303
      4130.33      0.83004789     0.032652667
      4134.46      0.83473894     0.032786465
      4138.59      0.87212452     0.032621562
      4142.73      0.88800276     0.032458831
      4146.88      0.87966799     0.032298533
      4151.02      0.87399383     0.032137833
      4155.18      0.87346754     0.031978117
      4159.33      0.84219719     0.031820477
      4163.49      0.83668015     0.031664882
      4167.65      0.82198860     0.031264128
      4171.82      0.83275491     0.031106381
      4175.99      0.83534607     0.030950711
      4180.17      0.83578313     0.030797097
      4184.35      0.83029226     0.030643056
      4188.54      0.82351152     0.030489901
      4192.72      0.82385127     0.030338692
      4196.92      0.84740565     0.030189288
      4201.11      0.87060119     0.030039357
      4205.31      0.86354524     0.029890208
      4209.52      0.87755920     0.029742935
      4213.73      0.89085085     0.029597305
      4217.94      0.89425741     0.029220212
      4222.16      0.89160427     0.029075846
      4226.38      0.86032655     0.028932998
      4230.61      0.83249707     0.028791827
      4234.84      0.81254485     0.028649733
      4239.08      0.78325926     0.028508833
      4243.32      0.77426641     0.028369289
      4247.56      0.75667597     0.028231247
      4251.81      0.76664896     0.028092914
      4256.06      0.76497805     0.027955294
      4260.32      0.77093005     0.027819061
      4264.58      0.78220370     0.027684322
      4268.84      0.78386385     0.027548650
      4273.11      0.80874438     0.027414062
      4277.38      0.83739945     0.027280931
      4281.66      0.85269551     0.027149224
      4285.94      0.85974530     0.027016673
      4290.23      0.89187984     0.026885154
      4294.52      0.91365660     0.026755169
      4298.81      0.91453340     0.026626675
      4303.11      0.90536350     0.026497375
      4307.42      0.88702640     0.026369180
      4311.72      0.87389533     0.026012701
      4316.04      0.88544518     0.025887857
      4320.35      0.88729685     0.025763102
      4324.67      0.88309017     0.025639840
      4329.00      0.88192673     0.025517896
      4333.33      0.88161739     0.025396514
      4337.66      0.88059099     0.025275209
      4342.00      0.90143241     0.025155372
      4346.34      0.91243490     0.025036918
      4350.69      0.93048221     0.024919063
      4355.04      0.94318138     0.024801354
      4359.39      0.96598300     0.024685107
      4363.75      0.97832136     0.024570362
      4368.12      0.97734135     0.024237363
      4372.48       1.0046736     0.024122396
      4376.86       1.0274205     0.024008704
      4381.23       1.0247480     0.023896001
      4385.61       1.0471832     0.023784354
      4390.00       1.0535343     0.023673346
      4394.39       1.0769391     0.023563544
      4398.79       1.0959868     0.023454932
      4403.18       1.0973143     0.023326433
      4407.59       1.0936744     0.023216570
      4412.00       1.0895691     0.023108086
      4416.41       1.0866521     0.023000164
      4420.82       1.0895368     0.022893497
      4425.25       1.1091689     0.022787936
      4429.67       1.1264448     0.022683923
      4434.10       1.1488939     0.022580516
      4438.54       1.1587836     0.022288198
      4442.97       1.1585507     0.022188402
      4447.42       1.1719379     0.022089738
      4451.86       1.1686960     0.021992332
      4456.32       1.1698259     0.022052219
      4460.77       1.1864497     0.021952661
      4465.24       1.2053807     0.021669474
      4469.70       1.2280946     0.021573306
      4474.17       1.2310539     0.021478294
      4478.65       1.2532155     0.021384950
      4483.12       1.2390973     0.021292437
      4487.61       1.2403033     0.021016518
      4492.09       1.2297116     0.020923681
      4496.59       1.2202914     0.020987318
      4501.08       1.2140342     0.020896739
      4505.58       1.2038490     0.020807319
      4510.09       1.2091103     0.020543593
      4514.60       1.2087123     0.020453270
      4519.12       1.1925720     0.020364935
      4523.63       1.1589884     0.020277630
      4528.16       1.1300925     0.020342861
      4532.69       1.1150845     0.020088477
      4537.22       1.0833972     0.020001693
      4541.76       1.0515418     0.019916176
      4546.30       1.0515489     0.019832250
      4550.85       1.0559329     0.019750013
      4555.40       1.0650884     0.019651896
      4559.95       1.0562912     0.019568286
      4564.51       1.0631655     0.019486067
      4569.08       1.0591720     0.019406102
      4573.65       1.0689110     0.019170025
      4578.22       1.0569374     0.019094245
      4582.80       1.0721964     0.019152174
      4587.38       1.0796584     0.019074191
      4591.97       1.0779619     0.018843340
      4596.56       1.0765148     0.018769610
      4601.16       1.0809081     0.018697814
      4605.76       1.0760197     0.018601926
      4610.37       1.0734709     0.018528978
      4614.98       1.0694719     0.018457506
      4619.59       1.0603351     0.018388837
      4624.21       1.0576857     0.018296797
      4628.84       1.0600537     0.018226247
      4633.47       1.0730029     0.018157810
      4638.10       1.0784807     0.017942021
      4642.74       1.0845972     0.017872800
      4647.38       1.0728575     0.017935209
      4652.03       1.0726642     0.017870014
      4656.68       1.0469863     0.017658127
      4661.34       1.0460931     0.017592018
      4666.00       1.0432903     0.017655702
      4670.67       1.0468976     0.017450453
      4675.33       1.0505907     0.017385221
      4680.01       1.0489105     0.017322266
      4684.69       1.0459178     0.017249048
      4689.38       1.0530127     0.017185323
      4694.07       1.0588707     0.017123769
      4698.76       1.0565942     0.016930658
      4703.46       1.0522141     0.016991914
      4708.16       1.0509497     0.016931672
      4712.87       1.0474396     0.016741959
      4717.58       1.0410914     0.016804454
      4722.30       1.0343567     0.016745979
      4727.03       1.0289172     0.016559928
      4731.75       1.0202000     0.016506704
      4736.48       1.0159882     0.016566380
      4741.22      0.99996744     0.016383702
      4745.96      0.98711778     0.016332392
      4750.71       1.0105947     0.016264960
      4755.46       1.0197034     0.016213680
      4760.22       1.0272846     0.016164828
      4764.97       1.0450382     0.016099015
      4769.74       1.0706289     0.016049571
      4774.51       1.0808699     0.016003329
      4779.29       1.0905856     0.015939334
      4784.07       1.0945606     0.015891963
      4788.85       1.0985687     0.015720865
      4793.64       1.0903474     0.015785501
      4798.43       1.0828858     0.015740409
      4803.23       1.0775186     0.015570910
      4808.03       1.0675396     0.015637872
      4812.84       1.0579679     0.015472594
      4817.66       1.0597560     0.015427195
      4822.48       1.0579588     0.015378454
      4827.30       1.0597311     0.015332565
      4832.12       1.0456813     0.015289862
      4836.96       1.0680300     0.015241044
      4841.79       1.0824084     0.015198528
      4846.63       1.0903696     0.015152402
      4851.48       1.0981534     0.015109599
      4856.33       1.1024427     0.014958165
      4861.19       1.1130055     0.015024545
      4866.05       1.0919958     0.014873056
      4870.92       1.0753534     0.014837744
      4875.79       1.0578483     0.014902928
      4880.66       1.0327840     0.014756060
      4885.55       1.0125829     0.014823162
      4890.43       1.0048627     0.014677996
      4895.32      0.99924112     0.014646102
      4900.22      0.97661741     0.014601838
      4905.12      0.97044151     0.014570933
      4910.02      0.96579339     0.014529212
      4914.94      0.95669610     0.014498082
      4919.85      0.94561124     0.014458765
      4924.77      0.93535232     0.014428771
      4929.70      0.94157699     0.014289576
      4934.62      0.93054966     0.014361193
      4939.56      0.92941610     0.014225143
      4944.50      0.92234256     0.014296657
      4949.44      0.91777910     0.014161970
      4954.39      0.90740198     0.014234533
      4959.35      0.90855555     0.014102161
      4964.31      0.91273243     0.014174757
      4969.27      0.92861842     0.014044007
      4974.24      0.93933384     0.014017875
      4979.22      0.96386191     0.013988296
      4984.20      0.98801525     0.013863115
      4989.18       1.0113144     0.013935102
      4994.17       1.0251507     0.013811507
      4999.16       1.0411432     0.013883497
      5004.16       1.0477580     0.013761885
      5009.17       1.0587600     0.013834825
      5014.18       1.0671659     0.013714588
      5019.19       1.0619100     0.013787889
      5024.21       1.0541801     0.013670317
      5029.23       1.0472096     0.013645995
      5034.26       1.0446114     0.013627269
      5039.30       1.0359760     0.013604507
      5044.34       1.0320739     0.013587301
      5049.39       1.0124656     0.013564560
      5054.43       1.0179156     0.013549359
      5059.49       1.0205710     0.013527621
      5064.55       1.0203669     0.013414523
      5069.61       1.0285393     0.013492267
      5074.68       1.0351029     0.013380178
      5079.76       1.0431206     0.013459605
      5084.84       1.0419750     0.013347730
      5089.92       1.0523217     0.013333410
      5095.01       1.0569532     0.013412000
      5100.11       1.0655348     0.013303499
      5105.21       1.0750428     0.013292272
      5110.31       1.0777156     0.013276317
      5115.42       1.0750967     0.013264697
      5120.54       1.0770496     0.013251367
      5125.66       1.0963657     0.013240073
      5130.79       1.1166521     0.013231061
      5135.92       1.1276797     0.013217368
      5141.05       1.1362857     0.013208678
      5146.20       1.1452242     0.013108043
      5151.34       1.1681580     0.013188322
      5156.49       1.1737313     0.013091026
      5161.65       1.1973141     0.013081863
      5166.81       1.2232890     0.013163998
      5171.98       1.2283605     0.013067552
      5177.15       1.2280092     0.013060394
      5182.33       1.2445081     0.013055685
      5187.51       1.2402524     0.013048453
      5192.70       1.2399460     0.013043377
      5197.89       1.2499237     0.013039391
      5203.09       1.2409465     0.013033902
      5208.29       1.2403569     0.013030586
      5213.50       1.2444597     0.012938530
      5218.72       1.2557383     0.013023495
      5223.93       1.2701284     0.012931264
      5229.16       1.2704446     0.012930957
      5234.39       1.2781013     0.013017284
      5239.62       1.2905484     0.012926201
      5244.86       1.2950217     0.012927208
      5250.11       1.3029857     0.012929925
      5255.36       1.3004194     0.012925424
      5260.61       1.3158765     0.012927423
      5265.87       1.3123770     0.012931046
      5271.14       1.3158322     0.012844529
      5276.41       1.3102641     0.012931431
      5281.69       1.2992237     0.012935785
      5286.97       1.2746127     0.012851513
      5292.26       1.2764187     0.012855346
      5297.55       1.2700092     0.012944212
      5302.85       1.2626639     0.012862484
      5308.15       1.2659905     0.012866923
      5313.46       1.2725207     0.012872834
      5318.77       1.2833800     0.012877585
      5324.09       1.2847283     0.012882726
      5329.42       1.2906728     0.012889264
      5334.75       1.3098271     0.012896920
      5340.08       1.3283940     0.012817362
      5345.42       1.3479475     0.012909833
      5350.77       1.3673654     0.012917819
      5356.12       1.3788037     0.012926914
      5361.48       1.3923858     0.012848517
      5366.83       1.4039214     0.012859590
      5372.20       1.4132350     0.012952606
      5377.58       1.4097178     0.012873893
      5382.95       1.4061453     0.012885192
      5388.34       1.3996895     0.012897357
      5393.72       1.3971296     0.012910498
      5399.12       1.3875328     0.012915230
      5404.52       1.3714407     0.012927663
      5409.92       1.3662766     0.012940770
      5415.33       1.3470341     0.012954763
      5420.75       1.3311147     0.012969628
      5426.17       1.3182113     0.012895128
      5431.60       1.3057933     0.012909184
      5437.03       1.2976593     0.013004593
      5442.47       1.2897563     0.013019906
      5447.91       1.2863273     0.012949364
      5453.36       1.2596377     0.012964117
      5458.81       1.2580027     0.012979328
      5464.27       1.2448164     0.012995395
      5469.73       1.2383917     0.013012004
      5475.20       1.2303670     0.012940957
      5480.68       1.2252355     0.013041242
      5486.16       1.2116039     0.013057767
      5491.65       1.1886222     0.013074636
      5497.14       1.1746661     0.013092466
      5502.64       1.1675015     0.013110626
      5508.14       1.1524649     0.013040155
      5513.65       1.1535913     0.013059394
      5519.16       1.1374942     0.013078752
      5524.68       1.1179884     0.013098303
      5530.20       1.1174698     0.013118807
      5535.73       1.1088825     0.013139268
      5541.27       1.1047154     0.013160110
      5546.81       1.0903947     0.013169827
      5552.36       1.0942439     0.013190254
      5557.91       1.0819632     0.013210866
      5563.47       1.0968328     0.013232216
      5569.04       1.0923635     0.013253653
      5574.60       1.1007782     0.013275174
      5580.18       1.0988214     0.013297539
      5585.76       1.0922870     0.013319894
      5591.35       1.0828938     0.013254153
      5596.94       1.0697967     0.013276365
      5602.53       1.0746758     0.013298570
      5608.14       1.0702205     0.013320780
      5613.75       1.0696714     0.013343782
      5619.36       1.0660949     0.013366793
      5624.98       1.0614465     0.013390580
      5630.60       1.0543597     0.013415974
      5636.23       1.0668993     0.013441369
      5641.87       1.0578552     0.013466193
      5647.51       1.0787678     0.013491720
      5653.16       1.0928011     0.013428127
      5658.82       1.1112788     0.013457862
      5664.47       1.1162151     0.013492401
      5670.14       1.1354465     0.013528926
      5675.81       1.1488372     0.013565532
      5681.48       1.1530176     0.013604190
      5687.17       1.1541595     0.013644239
      5692.85       1.1534807     0.013682426
      5698.55       1.1527367     0.013716452
      5704.25       1.1466156     0.013746588
      5709.95       1.1601239     0.013775108
      5715.66       1.1635474     0.013802112
      5721.38       1.1771572     0.013745778
      5727.10       1.1809393     0.013768487
      5732.83       1.1929418     0.013791945
      5738.56       1.2026184     0.013815869
      5744.30       1.2102302     0.013839975
      5750.04       1.2070966     0.013862681
      5755.79       1.2280484     0.013883172
      5761.55       1.2272735     0.013902544
      5767.31       1.2232331     0.013922019
      5773.08       1.2141715     0.013941251
      5778.85       1.2192635     0.013959428
      5784.63       1.2105709     0.013892824
      5790.41       1.2003412     0.013910150
      5796.21       1.1911157     0.013931126
      5802.00       1.1817880     0.013952292
      5807.81       1.1778859     0.013971115
      5813.61       1.1698077     0.013991498
      5819.43       1.1663639     0.014014079
      5825.25       1.1568661     0.014037962
      5831.07       1.1563900     0.013983214
      5836.90       1.1536861     0.014099439
      5842.74       1.1524550     0.014124646
      5848.58       1.1456668     0.014150610
      5854.43       1.1320844     0.014176072
      5860.29       1.1091497     0.014201714
      5866.15       1.0966083     0.014228558
      5872.01       1.0811919     0.014174214
      5877.89       1.0671536     0.014201000
      5883.76       1.0594362     0.014228214
      5889.65       1.0532321     0.014255055
      5895.54       1.0442254     0.014282434
      5901.43       1.0454709     0.014226008
      5907.34       1.0470861     0.014342794
      5913.24       1.0517849     0.014369253
      5919.16       1.0461350     0.014395959
      5925.08       1.0427891     0.014422618
      5931.00       1.0410105     0.014366965
      5936.93       1.0417647     0.014392172
      5942.87       1.0475949     0.014417687
      5948.81       1.0492304     0.014443865
      5954.76       1.0481258     0.014562295
      5960.72       1.0401845     0.014506118
      5966.68       1.0261617     0.014531156
      5972.64       1.0055854     0.014555930
      5978.62      0.99337716     0.014581358
      5984.60      0.99533212     0.014526398
      5990.58      0.98605822     0.014642697
      5996.57      0.98402465     0.014667617
      6002.57      0.97541281     0.014695219
      6008.57      0.97452172     0.014648213
      6014.58      0.96766043     0.014676298
      6020.60      0.95344295     0.014700187
      6026.62      0.95105813     0.014737756
      6032.65      0.94380360     0.014775782
      6038.68      0.93444021     0.014821453
      6044.72      0.92597627     0.014874460
      6050.76      0.92294175     0.014946530
      6056.81      0.91098388     0.015004218
      6062.87      0.89661887     0.015060748
      6068.93      0.88458516     0.015029032
      6075.00      0.87201646     0.015068405
      6081.08      0.85914463     0.015194478
      6087.16      0.84818309     0.015125368
      6093.25      0.85319531     0.015130803
      6099.34      0.85384758     0.015129361
      6105.44      0.85489121     0.015127264
      6111.54      0.85037805     0.015120930
      6117.66      0.84359517     0.015122475
      6123.78      0.83521774     0.015048488
      6129.90      0.82714298     0.015146478
      6136.03      0.81932184     0.015149105
      6142.17      0.82019057     0.015073801
      6148.31      0.82304903     0.015085946
      6154.46      0.80198735     0.015185714
      6160.61      0.80294556     0.015114236
      6166.77      0.80703845     0.015128715
      6172.94      0.79411214     0.015147851
      6179.11      0.80172011     0.015162980
      6185.29      0.80932600     0.015180309
      6191.48      0.81715747     0.015203344
      6197.67      0.82024746     0.015221575
      6203.87      0.82948861     0.015156034
      6210.07      0.84524869     0.015264616
      6216.28      0.85368803     0.015284810
      6222.50      0.86354896     0.015223264
      6228.72      0.86562180     0.015340572
      6234.95      0.87409467     0.015289030
      6241.19      0.87711125     0.015316244
      6247.42      0.88908396     0.015435265
      6253.67      0.89950181     0.015375449
      6259.93      0.90545385     0.015397900
      6266.19      0.90326334     0.015428268
      6272.46      0.90413709     0.015443946
      6278.73      0.91227231     0.015373723
      6285.01      0.92337057     0.015472353
      6291.29      0.92067248     0.015395773
      6297.58      0.92994955     0.015404281
      6303.88      0.92573860     0.015415329
      6310.19      0.92544340     0.015425437
      6316.50      0.93211566     0.015440087
      6322.81      0.94189773     0.015449850
      6329.14      0.95162852     0.015371902
      6335.47      0.96351939     0.015465281
      6341.80      0.97516436     0.015383752
      6348.14      0.98243856     0.015476116
      6354.49       1.0049980     0.015396854
      6360.85       1.0200998     0.015488352
      6367.21       1.0360295     0.015404070
      6373.57       1.0516626     0.015404486
      6379.95       1.0615764     0.015412307
      6386.33       1.0801079     0.015415757
      6392.72       1.1037579     0.015426229
      6399.11       1.1209555     0.015429870
      6405.51       1.1381270     0.015440542
      6411.92       1.1470661     0.015444237
      6418.32       1.1575558     0.015453387
      6424.74       1.1706198     0.015373577
      6431.17       1.1835694     0.015464144
      6437.60       1.1931298     0.015383594
      6444.04       1.2015703     0.015473542
      6450.48       1.2048955     0.015392047
      6456.94       1.2103166     0.015480673
      6463.39       1.2134472     0.015398426
      6469.85       1.2110355     0.015401899
      6476.33       1.2132779     0.015402667
      6482.80       1.2083229     0.015404116
      6489.28       1.2058690     0.015404443
      6495.77       1.2108984     0.015404269
      6502.27       1.2092760     0.015319204
      6508.77       1.2122624     0.015402121
      6515.28       1.2136144     0.015315158
      6521.80       1.2156419     0.015315101
      6528.32       1.2232766     0.015308846
      6534.85       1.2293212     0.015306321
      6541.38       1.2298715     0.015300339
      6547.92       1.2404087     0.015295515
      6554.47       1.2345109     0.015207951
      6561.03       1.2204130     0.015284204
      6567.59       1.2180732     0.015295971
      6574.16       1.1992849     0.015267041
      6580.73       1.1794189     0.015369487
      6587.31       1.1557495     0.015266774
      6593.90       1.1340704     0.015266095
      6600.50       1.1156666     0.015407707
      6607.10       1.0939937     0.015443621
      6613.70       1.0849725     0.015624162
      6620.32       1.0660054     0.015752574
      6626.94       1.0424837     0.016050614
      6633.57       1.0336872     0.016296987
      6640.20       1.0326180     0.016397570
      6646.84       1.0287334     0.016624535
      6653.49       1.0310787     0.016581486
      6660.14       1.0279356     0.016550300
      6666.80       1.0238133     0.016424291
      6673.47       1.0148502     0.016266921
      6680.14      0.98625904     0.016039773
      6686.82      0.96456945     0.015812695
      6693.51      0.93039430     0.015565481
      6700.20      0.89615806     0.015530896
      6706.90      0.86047156     0.015412713
      6713.61      0.83713654     0.015196050
      6720.32      0.83035520     0.015076466
      6727.05      0.83008986     0.015079537
      6733.77      0.82993056     0.014927910
      6740.51      0.84208542     0.014854231
      6747.25      0.85059074     0.014792413
      6754.00      0.87047347     0.014742943
      6760.75      0.88692030     0.014708414
      6767.51      0.90957122     0.014669414
      6774.28      0.92794765     0.014631297
      6781.05      0.94554401     0.014514472
      6787.84      0.96121840     0.014466063
      6794.62      0.97355536     0.014341267
      6801.42      0.97275061     0.014136693
      6808.22      0.96856186     0.013938251
      6815.03      0.96189627     0.013819218
      6821.85      0.96277606     0.013573423
      6828.67      0.95182606     0.013393660
      6835.50      0.94513564     0.013218360
      6842.33      0.93867067     0.013112080
      6849.17      0.93430944     0.012956023
      6856.02      0.93852708     0.012812351
      6862.88      0.93718210     0.012669456
      6869.74      0.93508090     0.012582593
      6876.61      0.93072421     0.012439513
      6883.49      0.93072481     0.012258005
      6890.37      0.93065209     0.012151161
      6897.27      0.93001078     0.012121741
      6904.16      0.92540810     0.012074590
      6911.07      0.92273514     0.012028045
      6917.98      0.91140840     0.011968284
      6924.89      0.91474901     0.011898409
      6931.82      0.90407263     0.011868474
      6938.75      0.89141161     0.011786670
      6945.69      0.88955792     0.011691451
      6952.64      0.89223210     0.011588687
      6959.59      0.89223253     0.011476931
      6966.55      0.89270561     0.011355431
      6973.52      0.88596597     0.011187252
      6980.49      0.89185414     0.011048558
      6987.47      0.89070349     0.010950284
      6994.46      0.89339529     0.010804933
      7001.46      0.88554565     0.010657333
      7008.46      0.86975456     0.010506574
      7015.46      0.86295924     0.010352415
      7022.48      0.85511644     0.010196552
      7029.51      0.85029191     0.010042094
      7036.53      0.84691776    0.0098895342
      7043.57      0.84085488    0.0097376338
      7050.62      0.83672440    0.0096243239
      7057.66      0.83045836    0.0097208381
      7064.72      0.82619051    0.0098379907
      7071.79      0.82456340    0.0099801561
      7078.86      0.82376884     0.010155850
      7085.94      0.81983232     0.010377899
      7093.03      0.82128714     0.010665297
      7100.12      0.81968401     0.011050546
      7107.22      0.81821053     0.011574809
      7114.33      0.81659348     0.012282332
      7121.44      0.81601923     0.013225451
      7128.56      0.81738284     0.014454940
      7135.69      0.81860904     0.016044078
      7142.83      0.82549959     0.017861701
      7149.97      0.83419305     0.020410576
      7157.12      0.84738769     0.023640565
      7164.28      0.86916800     0.027714245
