# starting wavelength =        3461.3280
# ending wavelength =        10078.800
# O2 telluric scale =        0
# O2 telluric shift =        0
# H2O telluric scale =        0
# H2O telluric shift =        0
      3464.04      0.16579116    0.0037616402
      3467.51      0.17372384    0.0037541746
      3470.98      0.17381337    0.0037770409
      3474.45      0.17187023    0.0037689958
      3477.92      0.17236356    0.0037337222
      3481.40      0.17155008    0.0037572057
      3484.88      0.17005982    0.0037489033
      3488.37      0.16566477    0.0037409148
      3491.86      0.16690526    0.0037332374
      3495.35      0.17325993    0.0037560273
      3498.84      0.17804905    0.0037209800
      3502.34      0.18221591    0.0037130184
      3505.84      0.18201561    0.0037353324
      3509.35      0.19088220    0.0037279590
      3512.86      0.19410023    0.0037208692
      3516.37      0.19819513    0.0037150570
      3519.89      0.20979124    0.0037073770
      3523.41      0.21684811    0.0037000014
      3526.93      0.21981184    0.0037234862
      3530.46      0.22352837    0.0037154359
      3533.99      0.22850353    0.0037076939
      3537.53      0.23193753    0.0036722096
      3541.06      0.23571566    0.0036957537
      3544.60      0.23907722    0.0036876613
      3548.15      0.24084345    0.0036798614
      3551.70      0.24393151    0.0037028355
      3555.25      0.24768483    0.0036954695
      3558.80      0.25157838    0.0036601049
      3562.36      0.25510809    0.0036522399
      3565.92      0.25532425    0.0036748973
      3569.49      0.25837424    0.0036674274
      3573.06      0.26040085    0.0036602252
      3576.64      0.26179576    0.0036532319
      3580.21      0.26034832    0.0036759994
      3583.79      0.26394350    0.0036395901
      3587.38      0.26240737    0.0036322320
      3590.96      0.26391137    0.0036564109
      3594.55      0.26674556    0.0036483642
      3598.15      0.26959506    0.0036405769
      3601.75      0.27159131    0.0036329993
      3605.35      0.27579173    0.0036567048
      3608.96      0.27912107    0.0036212029
      3612.56      0.28259484    0.0036132162
      3616.18      0.28650906    0.0036054601
      3619.79      0.28634345    0.0036287245
      3623.41      0.28909362    0.0036213230
      3627.04      0.29380849    0.0036140910
      3630.66      0.29781130    0.0036070317
      3634.29      0.30052989    0.0036307046
      3637.93      0.30423540    0.0036229896
      3641.57      0.30966988    0.0035861202
      3645.21      0.31289027    0.0035788213
      3648.86      0.31690485    0.0036035884
      3652.50      0.32230882    0.0035956431
      3656.16      0.32807544    0.0035878997
      3659.81      0.33558983    0.0035803122
      3663.47      0.34251072    0.0036044669
      3667.14      0.35276262    0.0035971670
      3670.80      0.36196496    0.0035899629
      3674.48      0.36811959    0.0035829428
      3678.15      0.37258935    0.0035768206
      3681.83      0.37581628    0.0035692446
      3685.51      0.37924057    0.0035617514
      3689.20      0.38337301    0.0035544310
      3692.88      0.38408222    0.0035472809
      3696.58      0.38538371    0.0035724412
      3700.27      0.38663973    0.0035646032
      3703.98      0.38816234    0.0035569413
      3707.68      0.38914876    0.0035493402
      3711.39      0.38938381    0.0035742779
      3715.10      0.38845619    0.0035669380
      3718.81      0.38823248    0.0035597709
      3722.53      0.38627539    0.0035526427
      3726.26      0.38494435    0.0035456631
      3729.98      0.38351514    0.0035391446
      3733.71      0.38058940    0.0035316504
      3737.45      0.37797134    0.0035241845
      3741.18      0.37315126    0.0035168659
      3744.93      0.37141556    0.0035096303
      3748.67      0.36915280    0.0035359768
      3752.42      0.36738070    0.0035281363
      3756.17      0.36485215    0.0035204475
      3759.93      0.36373702    0.0035128308
      3763.69      0.36208146    0.0035052951
      3767.45      0.36119363    0.0035308720
      3771.22      0.36084468    0.0035234790
      3774.99      0.36180116    0.0035161563
      3778.77      0.36130856    0.0035089653
      3782.54      0.36156842    0.0035018277
      3786.33      0.36181854    0.0035285136
      3790.11      0.36356224    0.0035207854
      3793.90      0.36458048    0.0035131288
      3797.70      0.36682639    0.0035055768
      3801.50      0.36980074    0.0034980743
      3805.30      0.37573548    0.0034906946
      3809.10      0.38236767    0.0035173881
      3812.91      0.38772406    0.0035100838
      3816.73      0.39561995    0.0035027477
      3820.54      0.40377868    0.0034955067
      3824.36      0.41287714    0.0034883631
      3828.19      0.42238065    0.0034812602
      3832.02      0.43287327    0.0035081703
      3835.85      0.44335557    0.0035005416
      3839.68      0.45596576    0.0034930155
      3843.52      0.46878876    0.0034854677
      3847.37      0.48319421    0.0034780149
      3851.22      0.49701612    0.0034705898
      3855.07      0.50968908    0.0034982718
      3858.92      0.52302985    0.0034908923
      3862.78      0.53721981    0.0034836006
      3866.64      0.55114523    0.0034762528
      3870.51      0.56600226    0.0034689928
      3874.38      0.57979650    0.0034618092
      3878.26      0.59188945    0.0034909272
      3882.13      0.60318376    0.0034832059
      3886.02      0.61331754    0.0034755791
      3889.90      0.62272596    0.0034679668
      3893.79      0.63159517    0.0034603586
      3897.69      0.63929444    0.0034528334
      3901.59      0.64824249    0.0034453914
      3905.49      0.65606795    0.0034739648
      3909.39      0.66387909    0.0034664323
      3913.30      0.67194939    0.0034589815
      3917.22      0.67888068    0.0034515304
      3921.13      0.68524038    0.0034440607
      3925.06      0.69133876    0.0034366755
      3928.98      0.69638778    0.0034652446
      3932.91      0.70164369    0.0034577703
      3936.84      0.70556258    0.0034880179
      3940.78      0.71006986    0.0034805378
      3944.72      0.71363019    0.0034731074
      3948.67      0.71760894    0.0034655885
      3952.61      0.72203815    0.0034581167
      3956.57      0.72540147    0.0034506971
      3960.52      0.72818546    0.0034432552
      3964.48      0.73027682    0.0034357937
      3968.45      0.73130904    0.0034283798
      3972.42      0.73107514    0.0034614583
      3976.39      0.73093477    0.0034538554
      3980.37      0.73103915    0.0034828820
      3984.35      0.73104822    0.0034753257
      3988.33      0.73168749    0.0034677245
      3992.32      0.73205587    0.0034601837
      3996.31      0.73202860    0.0034527023
      4000.31      0.73070929    0.0034450836
      4004.31      0.72856331    0.0034375305
      4008.31      0.72481203    0.0034300386
      4012.32      0.72071974    0.0034647648
      4016.33      0.71583842    0.0034572250
      4020.35      0.71087783    0.0034877725
      4024.37      0.70531922    0.0034800901
      4028.40      0.70024679    0.0034723745
      4032.42      0.69611777    0.0034647515
      4036.46      0.69154429    0.0034569954
      4040.50      0.68745300    0.0034493256
      4044.54      0.68360302    0.0034417386
      4048.58      0.68068918    0.0034341332
      4052.63      0.67842467    0.0034682939
      4056.68      0.67667101    0.0034605705
      4060.74      0.67565344    0.0034528989
      4064.80      0.67510612    0.0034451805
      4068.86      0.67488347    0.0034375762
      4072.93      0.67466188    0.0034299482
      4077.01      0.67467638    0.0034223288
      4081.08      0.67516002    0.0034148154
      4085.17      0.67529091    0.0034073106
      4089.25      0.67565238    0.0033997854
      4093.34      0.67665828    0.0033923946
      4097.43      0.67780108    0.0033849986
      4101.53      0.67948030    0.0033776838
      4105.63      0.68144851    0.0033703870
      4109.74      0.68396864    0.0033631371
      4113.85      0.68615187    0.0033558920
      4117.96      0.68844973    0.0033488077
      4122.08      0.69109296    0.0032991150
      4126.20      0.69425159    0.0032914908
      4130.33      0.69758191    0.0032839871
      4134.46      0.70027803    0.0032765072
      4138.59      0.70272021    0.0032691731
      4142.73      0.70499932    0.0032617387
      4146.88      0.70721361    0.0032941291
      4151.02      0.70918948    0.0032867701
      4155.18      0.71173445    0.0032795872
      4159.33      0.71491311    0.0032724451
      4163.49      0.71811272    0.0032654249
      4167.65      0.72246749    0.0032185013
      4171.82      0.72683807    0.0032108488
      4175.99      0.73171899    0.0032032966
      4180.17      0.73717277    0.0031957989
      4184.35      0.74374955    0.0031884802
      4188.54      0.75102734    0.0031812139
      4192.72      0.75896148    0.0031740116
      4196.92      0.76681702    0.0031669021
      4201.11      0.77566666    0.0031229208
      4205.31      0.78479046    0.0031536049
      4209.52      0.79300174    0.0031458432
      4213.73      0.80043192    0.0031382295
      4217.94      0.80767532    0.0031307221
      4222.16      0.81427769    0.0031234176
      4226.38      0.82019417    0.0031161281
      4230.61      0.82510008    0.0031090589
      4234.84      0.82926410    0.0030658499
      4239.08      0.83343230    0.0030590832
      4243.32      0.83656870    0.0030525187
      4247.56      0.83993879    0.0030461662
      4251.81      0.84246733    0.0030736480
      4256.06      0.84579683    0.0030662726
      4260.32      0.84996946    0.0030591428
      4264.58      0.85507179    0.0030163748
      4268.84      0.85925124    0.0030096489
      4273.11      0.86345863    0.0030031582
      4277.38      0.86779667    0.0029967486
      4281.66      0.87258410    0.0029905812
      4285.94      0.87812513    0.0030168670
      4290.23      0.88369392    0.0029744326
      4294.52      0.88886283    0.0029676651
      4298.81      0.89431807    0.0029611369
      4303.11      0.89970271    0.0029547250
      4307.42      0.90441488    0.0029485889
      4311.72      0.90841893    0.0029065854
      4316.04      0.91146953    0.0028995955
      4320.35      0.91452229    0.0029263592
      4324.67      0.91729287    0.0029197594
      4329.00      0.92039724    0.0029133491
      4333.33      0.92363006    0.0029072496
      4337.66      0.92711106    0.0028659381
      4342.00      0.93138166    0.0028590153
      4346.34      0.93589647    0.0028524049
      4350.69      0.94031914    0.0028789474
      4355.04      0.94650919    0.0028727422
      4359.39      0.95466206    0.0028326840
      4363.75      0.96382315    0.0028256970
      4368.12      0.97415548    0.0028189725
      4372.48      0.98504183    0.0028125887
      4376.86      0.99702601    0.0028388073
      4381.23       1.0100701    0.0027995936
      4385.61       1.0226217    0.0027926115
      4390.00       1.0350699    0.0027858313
      4394.39       1.0470394    0.0027793923
      4398.79       1.0579038    0.0027422094
      4403.18       1.0698052    0.0027666142
      4407.59       1.0816557    0.0027596312
      4412.00       1.0940825    0.0027530308
      4416.41       1.1072876    0.0027467039
      4420.82       1.1215507    0.0027100250
      4425.25       1.1365365    0.0027338868
      4429.67       1.1531319    0.0027269909
      4434.10       1.1705799    0.0027205144
      4438.54       1.1891024    0.0026839652
      4442.97       1.2085168    0.0026782893
      4447.42       1.2290209    0.0027012346
      4451.86       1.2494974    0.0026946323
      4456.32       1.2711929    0.0026582848
      4460.77       1.2940518    0.0026525903
      4465.24       1.3175904    0.0026472055
      4469.70       1.3414934    0.0026689892
      4474.17       1.3655331    0.0026328753
      4478.65       1.3880992    0.0026271070
      4483.12       1.4099138    0.0026218040
      4487.61       1.4312861    0.0026138986
      4492.09       1.4521610    0.0026077250
      4496.59       1.4729234    0.0026020330
      4501.08       1.4931437    0.0025968272
      4505.58       1.5128839    0.0025607086
      4510.09       1.5317881    0.0025828501
      4514.60       1.5489876    0.0025772554
      4519.12       1.5648126    0.0025721172
      4523.63       1.5787301    0.0025362517
      4528.16       1.5909817    0.0025582279
      4532.69       1.6017311    0.0025527838
      4537.22       1.6108231    0.0025181186
      4541.76       1.6205090    0.0025119316
      4546.30       1.6301179    0.0025338831
      4550.85       1.6401831    0.0025002429
      4555.40       1.6489762    0.0024938104
      4559.95       1.6568760    0.0024879276
      4564.51       1.6635745    0.0025098700
      4569.08       1.6698326    0.0024759678
      4573.65       1.6745435    0.0024698623
      4578.22       1.6783442    0.0024642757
      4582.80       1.6816274    0.0024583175
      4587.38       1.6816601    0.0024519685
      4591.97       1.6795709    0.0024462426
      4596.56       1.6751674    0.0024408382
      4601.16       1.6689817    0.0024343539
      4605.76       1.6609793    0.0024284413
      4610.37       1.6504984    0.0023970362
      4614.98       1.6378125    0.0024168052
      4619.59       1.6236957    0.0024108064
      4624.21       1.6081794    0.0023795294
      4628.84       1.5916931    0.0023994185
      4633.47       1.5751375    0.0023933630
      4638.10       1.5579060    0.0023622400
      4642.74       1.5400216    0.0023820902
      4647.38       1.5225319    0.0023760022
      4652.03       1.5045120    0.0023450522
      4656.68       1.4866334    0.0023402938
      4661.34       1.4685146    0.0023587400
      4666.00       1.4501495    0.0023279935
      4670.67       1.4321567    0.0023233243
      4675.33       1.4129726    0.0023163999
      4680.01       1.3953321    0.0023111383
      4684.69       1.3786915    0.0023065714
      4689.38       1.3628998    0.0022996077
      4694.07       1.3496873    0.0022944750
      4698.76       1.3381668    0.0022900582
      4703.46       1.3284271    0.0022829194
      4708.16       1.3200856    0.0022779577
      4712.87       1.3139190    0.0022482210
      4717.58       1.3079047    0.0022664086
      4722.30       1.3021742    0.0022616493
      4727.03       1.2967980    0.0022318338
      4731.75       1.2920798    0.0022500715
      4736.48       1.2872836    0.0022455613
      4741.22       1.2819441    0.0022155924
      4745.96       1.2777031    0.0022339529
      4750.71       1.2732876    0.0022049706
      4755.46       1.2707418    0.0021996233
      4760.22       1.2687909    0.0022180876
      4764.97       1.2687471    0.0021888385
      4769.74       1.2702933    0.0021838433
      4774.51       1.2735145    0.0021784198
      4779.29       1.2782578    0.0021729829
      4784.07       1.2862361    0.0021683292
      4788.85       1.2939644    0.0021624663
      4793.64       1.3025696    0.0021574575
      4798.43       1.3133475    0.0021521513
      4803.23       1.3216856    0.0021467473
      4808.03       1.3284650    0.0021200658
      4812.84       1.3334423    0.0021363235
      4817.66       1.3350905    0.0021093905
      4822.48       1.3357894    0.0021261619
      4827.30       1.3354230    0.0021209108
      4832.12       1.3332419    0.0020946945
      4836.96       1.3313461    0.0021105557
      4841.79       1.3303017    0.0020841433
      4846.63       1.3300122    0.0021004462
      4851.48       1.3325234    0.0020738338
      4856.33       1.3358631    0.0020698725
      4861.19       1.3411126    0.0020636822
      4866.05       1.3463625    0.0020594515
      4870.92       1.3525970    0.0020751191
      4875.79       1.3587946    0.0020491883
      4880.66       1.3648526    0.0020651309
      4885.55       1.3699337    0.0020391256
      4890.43       1.3749754    0.0020353982
      4895.32       1.3796921    0.0020291535
      4900.22       1.3831622    0.0020252683
      4905.12       1.3856286    0.0020192999
      4910.02       1.3878391    0.0020152500
      4914.94       1.3893601    0.0020095121
      4919.85       1.3912145    0.0020053570
      4924.77       1.3930091    0.0019798809
      4929.70       1.3942621    0.0019955809
      4934.62       1.3955900    0.0019703736
      4939.56       1.3971154    0.0019858661
      4944.50       1.3983172    0.0019609775
      4949.44       1.3990620    0.0019762801
      4954.39       1.3979177    0.0019515920
      4959.35       1.3961945    0.0019668116
      4964.31       1.3926013    0.0019422948
      4969.27       1.3882272    0.0019378252
      4974.24       1.3818254    0.0019330159
      4979.22       1.3768782    0.0019285129
      4984.20       1.3708779    0.0019238141
      4989.18       1.3672838    0.0019192995
      4994.17       1.3642813    0.0019146253
      4999.16       1.3643012    0.0019101916
      5004.16       1.3661554    0.0019055162
      5009.17       1.3699345    0.0019011193
      5014.18       1.3759183    0.0018964534
      5019.19       1.3829756    0.0018733027
      5024.21       1.3909173    0.0018874371
      5029.23       1.4003293    0.0018644690
      5034.26       1.4109796    0.0018785048
      5039.30       1.4221884    0.0018557079
      5044.34       1.4338695    0.0018696113
      5049.39       1.4453862    0.0018470525
      5054.43       1.4570738    0.0018607752
      5059.49       1.4677100    0.0018384770
      5064.55       1.4777631    0.0018520249
      5069.61       1.4869447    0.0018299867
      5074.68       1.4951432    0.0018250369
      5079.76       1.5032302    0.0018215858
      5084.84       1.5112693    0.0018165483
      5089.92       1.5200792    0.0018133011
      5095.01       1.5290073    0.0018081552
      5100.11       1.5378344    0.0018051593
      5105.21       1.5457685    0.0017998684
      5110.31       1.5532519    0.0017781097
      5115.42       1.5605209    0.0017917134
      5120.54       1.5673388    0.0017870329
      5125.66       1.5760497    0.0017836671
      5130.79       1.5848673    0.0017788026
      5135.92       1.5959673    0.0017575907
      5141.05       1.6085148    0.0017707286
      5146.20       1.6232427    0.0017494247
      5151.34       1.6388067    0.0017628340
      5156.49       1.6564175    0.0017413954
      5161.65       1.6753719    0.0017374913
      5166.81       1.6944366    0.0017335019
      5171.98       1.7149419    0.0017293940
      5177.15       1.7357641    0.0017425389
      5182.33       1.7571864    0.0017214799
      5187.51       1.7791273    0.0017177274
      5192.70       1.7995983    0.0017137293
      5197.89       1.8196283    0.0017097386
      5203.09       1.8376054    0.0016898823
      5208.29       1.8544788    0.0017019632
      5213.50       1.8689929    0.0016982720
      5218.72       1.8826232    0.0016782142
      5223.93       1.8960474    0.0016904643
      5229.16       1.9091844    0.0016709590
      5234.39       1.9228954    0.0016828506
      5239.62       1.9371191    0.0016791033
      5244.86       1.9519202    0.0016595165
      5250.11       1.9662624    0.0016715158
      5255.36       1.9813887    0.0016525461
      5260.61       1.9962493    0.0016483089
      5265.87       2.0101105    0.0016603690
      5271.14       2.0230597    0.0016413576
      5276.41       2.0350921    0.0016372816
      5281.69       2.0455574    0.0016347140
      5286.97       2.0544109    0.0016303604
      5292.26       2.0619107    0.0016264355
      5297.55       2.0684701    0.0016237889
      5302.85       2.0731283    0.0016195668
      5308.15       2.0759525    0.0016157371
      5313.46       2.0790701    0.0016130793
      5318.77       2.0808882    0.0016089403
      5324.09       2.0842910    0.0015903215
      5329.42       2.0885800    0.0015869550
      5334.75       2.0944628    0.0015984803
      5340.08       2.1020763    0.0015800282
      5345.42       2.1110102    0.0015766613
      5350.77       2.1214778    0.0015882195
      5356.12       2.1335803    0.0015698609
      5361.48       2.1465467    0.0015665312
      5366.83       2.1594182    0.0015781159
      5372.20       2.1724355    0.0015598760
      5377.58       2.1858554    0.0015565207
      5382.95       2.1995752    0.0015534462
      5388.34       2.2129435    0.0015500048
      5393.72       2.2270947    0.0015466355
      5399.12       2.2410379    0.0015435487
      5404.52       2.2540334    0.0015262106
      5409.92       2.2654650    0.0015369389
      5415.33       2.2763768    0.0015338018
      5420.75       2.2849868    0.0015168583
      5426.17       2.2914812    0.0015274482
      5431.60       2.2958607    0.0015242434
      5437.03       2.2971074    0.0015212815
      5442.47       2.2954552    0.0015042590
      5447.91       2.2927629    0.0015148823
      5453.36       2.2874631    0.0015118244
      5458.81       2.2806642    0.0014953051
      5464.27       2.2716955    0.0014919402
      5469.73       2.2617358    0.0014888192
      5475.20       2.2524269    0.0014866148
      5480.68       2.2419351    0.0014832049
      5486.16       2.2318615    0.0014799566
      5491.65       2.2223505    0.0014769161
      5497.14       2.2132233    0.0014747613
      5502.64       2.2050299    0.0014714091
      5508.14       2.1973092    0.0014682669
      5513.65       2.1898458    0.0014652953
      5519.16       2.1822833    0.0014493708
      5524.68       2.1742824    0.0014599597
      5530.20       2.1657388    0.0014568571
      5535.73       2.1560907    0.0014408902
      5541.27       2.1460813    0.0014381135
      5546.81       2.1363292    0.0014354873
      5552.36       2.1261930    0.0014457754
      5557.91       2.1157911    0.0014299147
      5563.47       2.1042441    0.0014271242
      5569.04       2.0912877    0.0014244993
      5574.60       2.0772813    0.0014219640
      5580.18       2.0621669    0.0014320807
      5585.76       2.0454125    0.0014164681
      5591.35       2.0274911    0.0014138005
      5596.94       2.0082397    0.0014112355
      5602.53       1.9878255    0.0014087958
      5608.14       1.9664456    0.0013937312
      5613.75       1.9440739    0.0014034268
      5619.36       1.9205167    0.0014008564
      5624.98       1.8966295    0.0013983524
      5630.60       1.8725108    0.0013959840
      5636.23       1.8489518    0.0013812165
      5641.87       1.8251682    0.0013786032
      5647.51       1.8028716    0.0013760830
      5653.16       1.7829142    0.0013858711
      5658.82       1.7635698    0.0013835055
      5664.47       1.7465020    0.0013692114
      5670.14       1.7311838    0.0013666531
      5675.81       1.7188762    0.0013641393
      5681.48       1.7102242    0.0013617467
      5687.17       1.7046222    0.0013593940
      5692.85       1.7012067    0.0013577715
      5698.55       1.7009061    0.0013552265
      5704.25       1.7031421    0.0013527463
      5709.95       1.7078441    0.0013503419
      5715.66       1.7138897    0.0013480098
      5721.38       1.7208156    0.0013457467
      5727.10       1.7279964    0.0013318493
      5732.83       1.7366848    0.0013296971
      5738.56       1.7455511    0.0013275843
      5744.30       1.7536825    0.0013372795
      5750.04       1.7615792    0.0013349841
      5755.79       1.7686249    0.0013327499
      5761.55       1.7745968    0.0013190228
      5767.31       1.7796623    0.0013169007
      5773.08       1.7841920    0.0013148149
      5778.85       1.7880719    0.0013127789
      5784.63       1.7909323    0.0013107909
      5790.41       1.7923707    0.0013088294
      5796.21       1.7918538    0.0013069175
      5802.00       1.7903946    0.0013050571
      5807.81       1.7886251    0.0012919469
      5813.61       1.7868429    0.0012901416
      5819.43       1.7853687    0.0012883581
      5825.25       1.7837103    0.0012974525
      5831.07       1.7817242    0.0012956743
      5836.90       1.7803245    0.0012940832
      5842.74       1.7789198    0.0012928421
      5848.58       1.7771276    0.0012920438
      5854.43       1.7752919    0.0012914632
      5860.29       1.7731692    0.0012799502
      5866.15       1.7712652    0.0012793712
      5872.01       1.7692935    0.0012789946
      5877.89       1.7675184    0.0012783897
      5883.76       1.7659542    0.0012773092
      5889.65       1.7637716    0.0012759668
      5895.54       1.7603587    0.0012744760
      5901.43       1.7553503    0.0012727979
      5907.34       1.7490571    0.0012709364
      5913.24       1.7420930    0.0012689403
      5919.16       1.7345606    0.0012670246
      5925.08       1.7273479    0.0012652007
      5931.00       1.7205592    0.0012633612
      5936.93       1.7143363    0.0012507720
      5942.87       1.7079537    0.0012486699
      5948.81       1.7020757    0.0012464402
      5954.76       1.6965877    0.0012442288
      5960.72       1.6916842    0.0012420615
      5966.68       1.6877482    0.0012397605
      5972.64       1.6844499    0.0012373289
      5978.62       1.6820975    0.0012351161
      5984.60       1.6803820    0.0012331918
      5990.58       1.6790836    0.0012312640
      5996.57       1.6772868    0.0012291880
      6002.57       1.6746779    0.0012272721
      6008.57       1.6711474    0.0012255680
      6014.58       1.6665500    0.0012239848
      6020.60       1.6611590    0.0012224482
      6026.62       1.6551058    0.0012210101
      6032.65       1.6487003    0.0012196449
      6038.68       1.6425993    0.0012183144
      6044.72       1.6366548    0.0012070964
      6050.76       1.6304212    0.0012058187
      6056.81       1.6238093    0.0012045763
      6062.87       1.6174659    0.0012033727
      6068.93       1.6117216    0.0012021812
      6075.00       1.6063808    0.0012010130
      6081.08       1.6016260    0.0011998738
      6087.16       1.5968921    0.0011987421
      6093.25       1.5918610    0.0011976421
      6099.34       1.5857400    0.0011965587
      6105.44       1.5778872    0.0011955060
      6111.54       1.5684993    0.0011944616
      6117.66       1.5578883    0.0011934521
      6123.78       1.5456878    0.0011825910
      6129.90       1.5333706    0.0011815442
      6136.03       1.5208666    0.0011804976
      6142.17       1.5081598    0.0011794933
      6148.31       1.4957375    0.0011784990
      6154.46       1.4838309    0.0011775373
      6160.61       1.4728107    0.0011765844
      6166.77       1.4628198    0.0011756921
      6172.94       1.4537248    0.0011845630
      6179.11       1.4482335    0.0011743887
      6185.29       1.4459591    0.0011734257
      6191.48       1.4466952    0.0011725550
      6197.67       1.4502207    0.0011719605
      6203.87       1.4567794    0.0011717221
      6210.07       1.4658057    0.0011710583
      6216.28       1.4758532    0.0011701242
      6222.50       1.4865929    0.0011697677
      6228.72       1.4989281    0.0011613011
      6234.95       1.5119594    0.0011623636
      6241.19       1.5256714    0.0011639905
      6247.42       1.5400212    0.0011659647
      6253.67       1.5553979    0.0011778151
      6259.93       1.5700403    0.0011795818
      6266.19       1.5845023    0.0011717367
      6272.46       1.5984189    0.0011722896
      6278.73       1.6119438    0.0011720765
      6285.01       1.6248953    0.0011710269
      6291.29       1.6376294    0.0011692655
      6297.58       1.6500907    0.0011669333
      6303.88       1.6620618    0.0011632861
      6310.19       1.6727855    0.0011606505
      6316.50       1.6828363    0.0011586883
      6322.81       1.6930010    0.0011573339
      6329.14       1.7021312    0.0011558067
      6335.47       1.7096748    0.0011447688
      6341.80       1.7158719    0.0011433338
      6348.14       1.7212790    0.0011421246
      6354.49       1.7256245    0.0011501245
      6360.85       1.7291622    0.0011492117
      6367.21       1.7321520    0.0011393490
      6373.57       1.7353016    0.0011384517
      6379.95       1.7379523    0.0011377221
      6386.33       1.7404536    0.0011371631
      6392.72       1.7429969    0.0011372897
      6399.11       1.7456685    0.0011367617
      6405.51       1.7481999    0.0011363491
      6411.92       1.7502435    0.0011360424
      6418.32       1.7514930    0.0011274791
      6424.74       1.7525001    0.0011276928
      6431.17       1.7532777    0.0011371261
      6437.60       1.7541980    0.0011377833
      6444.04       1.7556290    0.0011300736
      6450.48       1.7565342    0.0011306012
      6456.94       1.7575441    0.0011311864
      6463.39       1.7576233    0.0011404995
      6469.85       1.7575885    0.0011321932
      6476.33       1.7571109    0.0011322457
      6482.80       1.7566456    0.0011321363
      6489.28       1.7559561    0.0011319275
      6495.77       1.7551988    0.0011312296
      6502.27       1.7535220    0.0011307444
      6508.77       1.7515860    0.0011304628
      6515.28       1.7491429    0.0011215093
      6521.80       1.7455298    0.0011301825
      6528.32       1.7407834    0.0011300252
      6534.85       1.7348176    0.0011212165
      6541.38       1.7283131    0.0011206559
      6547.92       1.7211400    0.0011289229
      6554.47       1.7134324    0.0011286360
      6561.03       1.7051490    0.0011197831
      6567.59       1.6964912    0.0011193510
      6574.16       1.6870423    0.0011276196
      6580.73       1.6775647    0.0011188091
      6587.31       1.6676804    0.0011184830
      6593.90       1.6575937    0.0011184202
      6600.50       1.6473107    0.0011190164
      6607.10       1.6371955    0.0011189263
      6613.70       1.6271746    0.0011190083
      6620.32       1.6173045    0.0011111525
      6626.94       1.6074803    0.0011197883
      6633.57       1.5985149    0.0011117861
      6640.20       1.5896232    0.0011120574
      6646.84       1.5806515    0.0011207880
      6653.49       1.5723932    0.0011128786
      6660.14       1.5644928    0.0011132124
      6666.80       1.5570999    0.0011220144
      6673.47       1.5502117    0.0011141282
      6680.14       1.5434356    0.0011145040
      6686.82       1.5365695    0.0011150413
      6693.51       1.5299916    0.0011155182
      6700.20       1.5228812    0.0011159561
      6706.90       1.5156469    0.0011081333
      6713.61       1.5078342    0.0011170411
      6720.32       1.4990987    0.0011175587
      6727.05       1.4894634    0.0011097093
      6733.77       1.4790681    0.0011187113
      6740.51       1.4677644    0.0011110972
      6747.25       1.4568069    0.0011114138
      6754.00       1.4456291    0.0011205511
      6760.75       1.4345644    0.0011128545
      6767.51       1.4238944    0.0011132963
      6774.28       1.4131392    0.0011146251
      6781.05       1.4030157    0.0011162580
      6787.84       1.3949339    0.0011221016
      6794.62       1.3885378    0.0011241127
      6801.42       1.3821916    0.0011233956
      6808.22       1.3764647    0.0011260517
      6815.03       1.3720293    0.0011318150
      6821.85       1.3683786    0.0011348253
      6828.67       1.3654314    0.0011578761
      6835.50       1.3624444    0.0011668691
      6842.33       1.3598707    0.0011959064
      6849.17       1.3571095    0.0012052967
      6856.02       1.3546975    0.0012198603
      6862.88       1.3527253    0.0012341422
      6869.74       1.3524509    0.0012395519
      6876.61       1.3540347    0.0012393301
      6883.49       1.3569892    0.0012334144
      6890.37       1.3605103    0.0012241094
      6897.27       1.3652498    0.0012083765
      6904.16       1.3697227    0.0011966549
      6911.07       1.3752551    0.0011843879
      6917.98       1.3813404    0.0011794878
      6924.89       1.3867070    0.0011724386
      6931.82       1.3893900    0.0011653441
      6938.75       1.3915435    0.0011517448
      6945.69       1.3938972    0.0011569656
      6952.64       1.3947392    0.0011461834
      6959.59       1.3947523    0.0011442697
      6966.55       1.3940836    0.0011429262
      6973.52       1.3924201    0.0011431018
      6980.49       1.3902682    0.0011431449
      6987.47       1.3874511    0.0011446140
      6994.46       1.3845429    0.0011450266
      7001.46       1.3812874    0.0011461281
      7008.46       1.3778076    0.0011459357
      7015.46       1.3737213    0.0011378783
      7022.48       1.3689937    0.0011454003
      7029.51       1.3635491    0.0011374539
      7036.53       1.3580065    0.0011455567
      7043.57       1.3521283    0.0011379754
      7050.62       1.3461969    0.0011382482
      7057.66       1.3407275    0.0011385557
      7064.72       1.3347651    0.0011391815
      7071.79       1.3298587    0.0011399087
      7078.86       1.3256399    0.0011413435
      7085.94       1.3226409    0.0011432466
      7093.03       1.3206330    0.0011459533
      7100.12       1.3199125    0.0011403360
      7107.22       1.3201385    0.0011515222
      7114.33       1.3218676    0.0011561004
      7121.44       1.3246077    0.0011609335
      7128.56       1.3294437    0.0011700113
      7135.69       1.3340835    0.0011739774
      7142.83       1.3374627    0.0011953646
      7149.97       1.3390542    0.0012024394
      7157.12       1.3396839    0.0012243550
      7164.28       1.3387717    0.0012259878
      7171.44       1.3371645    0.0012348006
      7178.62       1.3342384    0.0012387291
      7185.80       1.3302380    0.0012420386
      7192.98       1.3239575    0.0012427836
      7200.17       1.3162015    0.0012411962
      7207.38       1.3063070    0.0012399602
      7214.58       1.2958622    0.0012315603
      7221.80       1.2843803    0.0012416232
      7229.02       1.2731367    0.0012358082
      7236.25       1.2619430    0.0012390818
      7243.49       1.2509236    0.0012504707
      7250.73       1.2404911    0.0012420658
      7257.98       1.2302751    0.0012405960
      7265.24       1.2192225    0.0012377599
      7272.51       1.2068928    0.0012335844
      7279.78       1.1926065    0.0012302098
      7287.06       1.1771133    0.0012274943
      7294.35       1.1608830    0.0012228674
      7301.64       1.1441996    0.0012096343
      7308.94       1.1270781    0.0012133275
      7316.25       1.1091434    0.0012085334
      7323.57       1.0905011    0.0011970924
      7330.89       1.0706226    0.0012026987
      7338.22       1.0496433    0.0012003288
      7345.56       1.0276191    0.0011912298
      7352.91       1.0050960    0.0011910215
      7360.26      0.98241562    0.0011988990
      7367.62      0.95945878    0.0011907231
      7374.99      0.93634777    0.0011906970
      7382.37      0.91292931    0.0011902879
      7389.75      0.88855529    0.0011906183
      7397.14      0.86433351    0.0011913745
      7404.53      0.84132183    0.0011842652
      7411.94      0.81879906    0.0011931021
      7419.35      0.79763522    0.0011946229
      7426.77      0.77646750    0.0011963090
      7434.20      0.75530770    0.0011896194
      7441.63      0.73437862    0.0011991333
      7449.07      0.71377454    0.0012012545
      7456.52      0.69324342    0.0011949670
      7463.98      0.67282431    0.0011970783
      7471.45      0.65236173    0.0011993668
      7478.92      0.63348457    0.0012010381
      7486.40      0.61503750    0.0012032925
      7493.88      0.59852458    0.0012064433
      7501.38      0.58430063    0.0012147563
      7508.88      0.57312211    0.0012266685
      7516.39      0.56299582    0.0012438635
      7523.91      0.55598944    0.0012486122
      7531.43      0.55319448    0.0012361424
      7538.96      0.55230864    0.0012549967
      7546.50      0.55409092    0.0012939014
      7554.05      0.55809497    0.0013476561
      7561.60      0.56306089    0.0014083081
      7569.16      0.56896728    0.0014988246
      7576.73      0.57544806    0.0016018848
      7584.31      0.58231963    0.0017090848
      7591.89      0.58782594    0.0017835499
      7599.49      0.59209225    0.0018607977
      7607.09      0.59364350    0.0018950008
      7614.70      0.59497694    0.0018769001
      7622.31      0.59783913    0.0018088161
      7629.93      0.60181689    0.0017238978
      7637.56      0.60643883    0.0016273930
      7645.20      0.61156506    0.0015508633
      7652.85      0.61715236    0.0014746237
      7660.50      0.62289636    0.0014168143
      7668.16      0.62994412    0.0013673004
      7675.83      0.63738241    0.0013291358
      7683.50      0.64484677    0.0013079810
      7691.19      0.65349944    0.0012956084
      7698.88      0.66282994    0.0012797685
      7706.58      0.67240883    0.0012707855
      7714.29      0.68145980    0.0012720721
      7722.00      0.69109903    0.0012687047
      7729.73      0.70164560    0.0012675664
      7737.45      0.71255939    0.0012679983
      7745.19      0.72358668    0.0012610547
      7752.94      0.73462992    0.0012628923
      7760.69      0.74579489    0.0012650981
      7768.45      0.75663211    0.0012676376
      7776.22      0.76650674    0.0012703905
      7784.00      0.77534402    0.0012732078
      7791.78      0.78299863    0.0012760736
      7799.57      0.78879155    0.0012702534
      7807.37      0.79359229    0.0012731014
      7815.18      0.79753222    0.0012835403
      7822.99      0.79975455    0.0012866335
      7830.82      0.80119187    0.0012900473
      7838.65      0.80242119    0.0012936665
      7846.49      0.80281042    0.0012974555
      7854.34      0.80249782    0.0013015255
      7862.19      0.80167230    0.0012970276
      7870.05      0.80046284    0.0013010797
      7877.93      0.79945944    0.0013045663
      7885.80      0.79854424    0.0013076491
      7893.69      0.79725103    0.0013106050
      7901.58      0.79536081    0.0013134997
      7909.49      0.79238528    0.0013163320
      7917.40      0.78831530    0.0013190938
      7925.31      0.78320061    0.0013218330
      7933.24      0.77758113    0.0013246761
      7941.17      0.77133138    0.0013277614
      7949.11      0.76434569    0.0013311028
      7957.06      0.75735129    0.0013344256
      7965.02      0.75048335    0.0013287375
      7972.98      0.74336381    0.0013320456
      7980.96      0.73666655    0.0013352272
      7988.94      0.73010407    0.0013381348
      7996.93      0.72361136    0.0013408008
      8004.93      0.71727157    0.0013357609
      8012.93      0.71046398    0.0013386681
      8020.95      0.70319247    0.0013415586
      8028.97      0.69573331    0.0013443134
      8036.99      0.68818681    0.0013475401
      8045.03      0.68041315    0.0013512936
      8053.08      0.67267751    0.0013557451
      8061.13      0.66514829    0.0013613690
      8069.20      0.65823489    0.0013680947
      8077.26      0.65269691    0.0013758606
      8085.34      0.64839937    0.0013857566
      8093.43      0.64587628    0.0013981155
      8101.52      0.64475804    0.0014126817
      8109.62      0.64493452    0.0014285098
      8117.73      0.64599649    0.0014395460
      8125.85      0.64608561    0.0014579483
      8133.98      0.64599925    0.0014742488
      8142.11      0.64651336    0.0014841426
      8150.25      0.64673247    0.0014898422
      8158.41      0.64595383    0.0014944764
      8166.56      0.64447870    0.0014978190
      8174.73      0.64154278    0.0015095850
      8182.91      0.63710600    0.0015011516
      8191.09      0.63402175    0.0015003189
      8199.28      0.63196011    0.0014988621
      8207.48      0.63176020    0.0014978972
      8215.69      0.63387913    0.0014982105
      8223.91      0.63874604    0.0014989949
      8232.13      0.64710766    0.0014985944
      8240.36      0.65898520    0.0014886638
      8248.60      0.67465119    0.0014873200
      8256.85      0.69408427    0.0014856501
      8265.11      0.71588172    0.0014837537
      8273.37      0.73943597    0.0014833280
      8281.65      0.76566531    0.0014866605
      8289.93      0.79175395    0.0014881367
      8298.22      0.81902202    0.0014846249
      8306.52      0.84537647    0.0014800210
      8314.83      0.87062706    0.0014767056
      8323.14      0.89449760    0.0014646087
      8331.46      0.91644715    0.0014625588
      8339.80      0.93753439    0.0014615001
      8348.13      0.95817261    0.0014688168
      8356.48      0.97855264    0.0014675471
      8364.84      0.99881588    0.0014585177
      8373.21       1.0186420    0.0014588688
      8381.58       1.0384832    0.0014599068
      8389.96       1.0587518    0.0014609273
      8398.35       1.0796349    0.0014539858
      8406.75       1.1006087    0.0014644903
      8415.16       1.1219523    0.0014663825
      8423.57       1.1414745    0.0014685817
      8432.00       1.1598111    0.0014628207
      8440.43       1.1759822    0.0014655202
      8448.87       1.1908839    0.0014773892
      8457.32       1.2041204    0.0014802248
      8465.78       1.2150360    0.0014751731
      8474.25       1.2233087    0.0014784187
      8482.72       1.2294897    0.0014816827
      8491.20       1.2338724    0.0014857811
      8499.69       1.2375647    0.0014888494
      8508.19       1.2402936    0.0014918110
      8516.70       1.2429620    0.0014947289
      8525.22       1.2445362    0.0014889317
      8533.75       1.2437368    0.0015008735
      8542.28       1.2427833    0.0015035968
      8550.82       1.2406654    0.0014979213
      8559.37       1.2367214    0.0015006693
      8567.93       1.2315810    0.0015128062
      8576.50       1.2246033    0.0015071464
      8585.08       1.2153918    0.0015098597
      8593.66       1.2043228    0.0015128577
      8602.26       1.1911150    0.0015172997
      8610.86       1.1787998    0.0015203718
      8619.47       1.1653049    0.0015153430
      8628.09       1.1511394    0.0015186217
      8636.72       1.1359480    0.0015310885
      8645.36       1.1224269    0.0015259265
      8654.00       1.1103444    0.0015290431
      8662.66       1.0977059    0.0015413499
      8671.32       1.0863311    0.0015358906
      8679.99       1.0757143    0.0015388216
      8688.67       1.0653606    0.0015332412
      8697.36       1.0539358    0.0015454477
      8706.06       1.0417075    0.0015484748
      8714.76       1.0279346    0.0015429940
      8723.48       1.0128319    0.0015556085
      8732.21      0.99537225    0.0015504025
      8740.93      0.97658812    0.0015534248
      8749.68      0.95612727    0.0015662630
      8758.43      0.93407945    0.0015611385
      8767.19      0.91312553    0.0015643294
      8775.96      0.89182718    0.0015688511
      8784.73      0.87203800    0.0015719756
      8793.52      0.85337165    0.0015670242
      8802.31      0.83682969    0.0015797435
      8811.11      0.82401538    0.0015830437
      8819.92      0.81427180    0.0015878764
      8828.75      0.80661975    0.0015913537
      8837.57      0.80282990    0.0015870623
      8846.41      0.80157660    0.0016008348
      8855.26      0.80149042    0.0015981087
      8864.12      0.80130624    0.0016036566
      8872.98      0.80167119    0.0016112925
      8881.85      0.80067057    0.0016199764
      8890.73      0.79910835    0.0016327422
      8899.63      0.79548238    0.0016450136
      8908.52      0.79075816    0.0016652764
      8917.43      0.78647095    0.0016851003
      8926.35      0.78226339    0.0017011823
      8935.28      0.77791341    0.0017372771
      8944.22      0.77327962    0.0017563634
      8953.16      0.76881109    0.0017928189
      8962.11      0.76531403    0.0018049408
      8971.08      0.76298463    0.0018311457
      8980.05      0.76363642    0.0018251847
      8989.03      0.76700465    0.0018139204
      8998.02      0.77258237    0.0018184142
      9007.02      0.78091960    0.0018027252
      9016.02      0.79026679    0.0018083728
      9025.04      0.80008165    0.0018004858
      9034.07      0.81108658    0.0018125871
      9043.10      0.82232179    0.0018098091
      9052.14      0.83293008    0.0018324218
      9061.20      0.84300330    0.0018349334
      9070.26      0.85108032    0.0018493537
      9079.33      0.85863393    0.0018594102
      9088.41      0.86535362    0.0018686587
      9097.50      0.86987344    0.0018731311
      9106.60      0.87179594    0.0018769656
      9115.70      0.87256556    0.0018684837
      9124.82      0.87337702    0.0018803025
      9133.94      0.87443425    0.0018688475
      9143.08      0.87512095    0.0018755543
      9152.22      0.87641771    0.0018554488
      9161.37      0.87682386    0.0018445676
      9170.54      0.87519460    0.0018366957
      9179.71      0.87282074    0.0018282159
      9188.89      0.86899828    0.0018241027
      9198.08      0.86416265    0.0018247763
      9207.28      0.85945454    0.0018310707
      9216.48      0.85314939    0.0018349145
      9225.70      0.84557113    0.0018624590
      9234.92      0.83704222    0.0018824214
      9244.16      0.82745868    0.0019271523
      9253.40      0.81835342    0.0019947473
      9262.66      0.80872449    0.0020601017
      9271.92      0.79882617    0.0021671312
      9281.20      0.79006658    0.0022683248
      9290.48      0.78229715    0.0024087419
      9299.77      0.77717860    0.0025550123
      9309.07      0.77303426    0.0026652025
      9318.38      0.76925376    0.0027767563
      9327.69      0.76501692    0.0028158111
      9337.02      0.75968915    0.0028318409
      9346.36      0.75197555    0.0028327194
      9355.71      0.74506277    0.0027619926
      9365.07      0.73775570    0.0026989614
      9374.43      0.73242057    0.0026457327
      9383.80      0.72697420    0.0026185816
      9393.19      0.72263339    0.0026031976
      9402.58      0.71882883    0.0026099692
      9411.98      0.71701080    0.0026155461
      9421.40      0.71570165    0.0026181674
      9430.82      0.71336270    0.0026067173
      9440.25      0.71211417    0.0026040791
      9449.69      0.71318324    0.0025889122
      9459.14      0.71344505    0.0025409628
      9468.60      0.71065899    0.0025087146
      9478.07      0.70587527    0.0024611079
      9487.55      0.70044688    0.0024277123
      9497.04      0.69457343    0.0023872370
      9506.53      0.68849145    0.0023625402
      9516.04      0.68112421    0.0023260104
      9525.56      0.67559244    0.0022985353
      9535.08      0.67036005    0.0022551326
      9544.62      0.66773009    0.0022204145
      9554.16      0.66676466    0.0021735875
      9563.72      0.66371529    0.0021472760
      9573.29      0.65953770    0.0021027821
      9582.85      0.65498595    0.0020694383
      9592.44      0.65056481    0.0020239925
      9602.03      0.64663883    0.0019753779
      9611.63      0.64284115    0.0019379315
      9621.25      0.63888425    0.0018901928
      9630.87      0.63513971    0.0018530942
      9640.50      0.63183906    0.0018114348
      9650.14      0.62983768    0.0017848150
      9659.79      0.62877488    0.0017521850
      9669.45      0.62883185    0.0017236618
      9679.12      0.62746303    0.0017056259
      9688.80      0.62523153    0.0016841397
      9698.49      0.62243215    0.0016664854
      9708.19      0.62022365    0.0016611293
      9717.90      0.61811580    0.0016442390
      9727.62      0.61512457    0.0016343400
      9737.34      0.61134829    0.0016201292
      9747.08      0.60870426    0.0016057269
      9756.83      0.60621883    0.0015969842
      9766.59      0.60379107    0.0015817799
      9776.35      0.60119035    0.0015656057
      9786.13      0.60015096    0.0015547549
      9795.92      0.60210178    0.0015377203
      9805.71      0.60504971    0.0015205150
      9815.52      0.60607309    0.0015081528
      9825.34      0.60587891    0.0014986180
      9835.17      0.60447839    0.0014849768
      9845.00      0.60342376    0.0014724587
      9854.84      0.60278840    0.0014610900
      9864.70      0.60246749    0.0014552709
      9874.56      0.60118887    0.0014459045
      9884.44      0.59990260    0.0014369984
      9894.32      0.59902727    0.0014323820
      9904.22      0.59724738    0.0014280138
      9914.13      0.59522682    0.0014361568
      9924.04      0.59330935    0.0014556476
      9933.96      0.59154558    0.0014795622
      9943.90      0.58998249    0.0015083381
      9953.84      0.58793809    0.0015430139
      9963.79      0.58608046    0.0015918563
      9973.76      0.58344843    0.0016473202
      9983.74      0.57950374    0.0017188230
      9993.72      0.57505380    0.0018111516
