# starting wavelength =        3293.0600
# ending wavelength =        10378.100
# O2 telluric scale =        0
# O2 telluric shift =        0
# H2O telluric scale =        0
# H2O telluric shift =        0
      3295.18      0.15629692     0.010643874
      3298.47      0.15698203    0.0095240593
      3301.77      0.15519992    0.0081750464
      3305.07      0.15689811    0.0068606971
      3308.38      0.15770973    0.0060926731
      3311.69      0.15793841    0.0055011416
      3315.00      0.15723428    0.0051667267
      3318.31      0.15563329    0.0047786037
      3321.63      0.15578756    0.0043948719
      3324.95      0.15604580    0.0041750481
      3328.28      0.15432356    0.0039968076
      3331.61      0.15469065    0.0038958596
      3334.94      0.15309238    0.0037673750
      3338.27      0.15329909    0.0036586733
      3341.61      0.15344345    0.0035719862
      3344.95      0.15500613    0.0034945466
      3348.30      0.15515752    0.0034535790
      3351.65      0.15316893    0.0033895015
      3355.00      0.15424900    0.0033313204
      3358.35      0.15509861    0.0033289498
      3361.71      0.15657971    0.0033285789
      3365.07      0.15558809    0.0033285785
      3368.44      0.15564229    0.0033263317
      3371.81      0.15583343    0.0033258465
      3375.18      0.15909029    0.0033257703
      3378.56      0.15976759    0.0033505733
      3381.94      0.16131924    0.0033230985
      3385.32      0.16056575    0.0033491012
      3388.70      0.16226833    0.0033479160
      3392.09      0.16362711    0.0033471687
      3395.48      0.16381754    0.0033465562
      3398.88      0.16445189    0.0033453010
      3402.28      0.16744140    0.0033443813
      3405.68      0.17038236    0.0033701837
      3409.09      0.17346126    0.0033426615
      3412.49      0.17660782    0.0033416054
      3415.91      0.17992458    0.0033671943
      3419.32      0.18261702    0.0033669235
      3422.74      0.18587785    0.0033388909
      3426.17      0.19083912    0.0033642414
      3429.59      0.19123248    0.0033637328
      3433.02      0.19552566    0.0033636221
      3436.45      0.19823223    0.0033613378
      3439.89      0.20161235    0.0033606238
      3443.33      0.20566859    0.0033602455
      3446.78      0.20947557    0.0033865839
      3450.22      0.21359778    0.0033856229
      3453.67      0.21759009    0.0033569532
      3457.13      0.22223389    0.0033838817
      3460.58      0.22733800    0.0033826484
      3464.04      0.23101167    0.0033817797
      3467.51      0.23766632    0.0033813519
      3470.98      0.24312587    0.0033798723
      3474.45      0.25241704    0.0033787077
      3477.92      0.25959779    0.0034052942
      3481.40      0.26606224    0.0034047857
      3484.88      0.27422348    0.0033758699
      3488.37      0.28281025    0.0034021146
      3491.86      0.29178785    0.0034012725
      3495.35      0.30163162    0.0034007814
      3498.84      0.31147034    0.0034005767
      3502.34      0.32091306    0.0033980247
      3505.84      0.33300344    0.0033971604
      3509.35      0.34306043    0.0033966277
      3512.86      0.35333307    0.0034244318
      3516.37      0.36533133    0.0034231982
      3519.89      0.37940172    0.0034222999
      3523.41      0.38954881    0.0034218759
      3526.93      0.39836337    0.0034203124
      3530.46      0.40786387    0.0034190231
      3533.99      0.41690208    0.0034179979
      3537.53      0.42646616    0.0034459399
      3541.06      0.43482146    0.0034161971
      3544.60      0.44383053    0.0034147987
      3548.15      0.45315936    0.0034422790
      3551.70      0.46063299    0.0034414090
      3555.25      0.46766189    0.0034407834
      3558.80      0.47415369    0.0034404565
      3562.36      0.48236497    0.0034686699
      3565.92      0.48885935    0.0034368610
      3569.49      0.49531025    0.0034360669
      3573.06      0.50065208    0.0034354884
      3576.64      0.50757550    0.0034642779
      3580.21      0.51491149    0.0034630612
      3583.79      0.52223875    0.0034620077
      3587.38      0.52918801    0.0034617140
      3590.96      0.53297630    0.0034600220
      3594.55      0.53407988    0.0034585414
      3598.15      0.53615267    0.0034572810
      3601.75      0.53965775    0.0034862551
      3605.35      0.54161399    0.0034855046
      3608.96      0.54454194    0.0034848853
      3612.56      0.54748278    0.0034845183
      3616.18      0.55035446    0.0034814295
      3619.79      0.55308954    0.0034803981
      3623.41      0.55529347    0.0034794880
      3627.04      0.55817786    0.0034788103
      3630.66      0.56240756    0.0035092256
      3634.29      0.56298261    0.0035077732
      3637.93      0.56774742    0.0035065606
      3641.57      0.57384794    0.0035055792
      3645.21      0.58033565    0.0035050867
      3648.86      0.58890226    0.0035033272
      3652.50      0.59866221    0.0035017925
      3656.16      0.60928349    0.0035004793
      3659.81      0.61739318    0.0035307445
      3663.47      0.62852709    0.0035297050
      3667.14      0.63946260    0.0035288315
      3670.80      0.65170836    0.0035281455
      3674.48      0.66289543    0.0035276022
      3678.15      0.67172315    0.0035583714
      3681.83      0.68149691    0.0035571117
      3685.51      0.68593488    0.0035220187
      3689.20      0.69117984    0.0035210673
      3692.88      0.69434698    0.0035538760
      3696.58      0.69094086    0.0035522271
      3700.27      0.68587640    0.0035507551
      3703.98      0.68434208    0.0035493429
      3707.68      0.68214754    0.0035480965
      3711.39      0.67618823    0.0035800373
      3715.10      0.67090800    0.0035790732
      3718.81      0.66256177    0.0035782217
      3722.53      0.65667021    0.0035775310
      3726.26      0.64962416    0.0036104034
      3729.98      0.64191439    0.0036089338
      3733.71      0.63469282    0.0036076303
      3737.45      0.62703773    0.0035706145
      3741.18      0.62147755    0.0035694737
      3744.93      0.61415678    0.0036044200
      3748.67      0.60929438    0.0036026469
      3752.42      0.60206753    0.0036009638
      3756.17      0.59613374    0.0035993695
      3759.93      0.59155600    0.0035979149
      3763.69      0.58736340    0.0035966041
      3767.45      0.58331284    0.0036300378
      3771.22      0.58057704    0.0036288603
      3774.99      0.57753616    0.0036278171
      3778.77      0.57588094    0.0036267585
      3782.54      0.57602104    0.0036258266
      3786.33      0.57529428    0.0036609574
      3790.11      0.57588353    0.0036593499
      3793.90      0.57765103    0.0036577894
      3797.70      0.58326740    0.0036563552
      3801.50      0.59037293    0.0036550540
      3805.30      0.59767082    0.0036537008
      3809.10      0.60545344    0.0036892099
      3812.91      0.61603479    0.0036880003
      3816.73      0.62795155    0.0036868729
      3820.54      0.64218857    0.0036857571
      3824.36      0.65712862    0.0036847674
      3828.19      0.67430956    0.0036837734
      3832.02      0.69023863    0.0037198945
      3835.85      0.70824288    0.0037183045
      3839.68      0.72529098    0.0037167560
      3843.52      0.74586980    0.0037152909
      3847.37      0.76262278    0.0037138590
      3851.22      0.78092790    0.0037124268
      3855.07      0.79783064    0.0037498974
      3858.92      0.81310620    0.0037485680
      3862.78      0.83130087    0.0037472574
      3866.64      0.85219669    0.0037460150
      3870.51      0.86881730    0.0037447730
      3874.38      0.88526946    0.0037435118
      3878.26      0.89862211    0.0037423129
      3882.13      0.91330382    0.0037815010
      3886.02      0.92494414    0.0037796856
      3889.90      0.93410299    0.0037779466
      3893.79      0.94203402    0.0037762783
      3897.69      0.94921558    0.0037746217
      3901.59      0.95638475    0.0037729546
      3905.49      0.96413417    0.0037713429
      3909.39      0.97328817    0.0038108778
      3913.30      0.98084242    0.0038092249
      3917.22      0.99120770    0.0038076381
      3921.13      0.99791702    0.0038061215
      3925.06       1.0038047    0.0038044527
      3928.98       1.0113384    0.0038028316
      3932.91       1.0176567    0.0038012972
      3936.84       1.0243197    0.0038452820
      3940.78       1.0327132    0.0038875573
      3944.72       1.0435482    0.0038858714
      3948.67       1.0561034    0.0038842950
      3952.61       1.0666043    0.0038826289
      3956.57       1.0753893    0.0038810472
      3960.52       1.0833653    0.0038793827
      3964.48       1.0901015    0.0038776451
      3968.45       1.0946346    0.0038759864
      3972.42       1.0997495    0.0038742870
      3976.39       1.1029233    0.0038725327
      3980.37       1.1058348    0.0039191017
      3984.35       1.1074846    0.0039172499
      3988.33       1.1090933    0.0039630131
      3992.32       1.1098316    0.0039612176
      3996.31       1.1085041    0.0039593416
      4000.31       1.1012275    0.0039574947
      4004.31       1.0971496    0.0039555882
      4008.31       1.0921391    0.0039536468
      4012.32       1.0853587    0.0039517484
      4016.33       1.0804221    0.0039498387
      4020.35       1.0746559    0.0039478477
      4024.37       1.0686471    0.0039458945
      4028.40       1.0630416    0.0039438635
      4032.42       1.0565799    0.0039418099
      4036.46       1.0490387    0.0039397927
      4040.50       1.0439769    0.0039377484
      4044.54       1.0408854    0.0039358141
      4048.58       1.0387679    0.0039338152
      4052.63       1.0384450    0.0039317313
      4056.68       1.0359511    0.0039296419
      4060.74       1.0331875    0.0039275987
      4064.80       1.0313190    0.0038792013
      4068.86       1.0297467    0.0038772308
      4072.93       1.0271298    0.0038752075
      4077.01       1.0262049    0.0038731744
      4081.08       1.0289382    0.0038712391
      4085.17       1.0304610    0.0038692890
      4089.25       1.0324818    0.0038672992
      4093.34       1.0363624    0.0038654405
      4097.43       1.0409111    0.0038635503
      4101.53       1.0459311    0.0038617316
      4105.63       1.0513663    0.0038599176
      4109.74       1.0567804    0.0038581304
      4113.85       1.0623421    0.0038563341
      4117.96       1.0697290    0.0038547009
      4122.08       1.0746462    0.0038055379
      4126.20       1.0799301    0.0038031511
      4130.33       1.0856582    0.0038008834
      4134.46       1.0896649    0.0037986183
      4138.59       1.0939517    0.0037964340
      4142.73       1.0961783    0.0037942447
      4146.88       1.0991020    0.0038399685
      4151.02       1.1021263    0.0038378361
      4155.18       1.1067800    0.0038358861
      4159.33       1.1118737    0.0038339583
      4163.49       1.1164006    0.0038321521
      4167.65       1.1223054    0.0037850284
      4171.82       1.1294503    0.0037823524
      4175.99       1.1374181    0.0037797714
      4180.17       1.1448949    0.0037772356
      4184.35       1.1545057    0.0037748890
      4188.54       1.1637475    0.0037725759
      4192.72       1.1721095    0.0037703260
      4196.92       1.1806927    0.0037681580
      4201.11       1.1890863    0.0037235924
      4205.31       1.1984353    0.0037680075
      4209.52       1.2096457    0.0037649870
      4213.73       1.2178108    0.0037621197
      4217.94       1.2229457    0.0037593591
      4222.16       1.2268884    0.0037568188
      4226.38       1.2323988    0.0037542748
      4230.61       1.2383596    0.0037519883
      4234.84       1.2436228    0.0037075017
      4239.08       1.2489183    0.0037054460
      4243.32       1.2542649    0.0037036155
      4247.56       1.2614139    0.0037020218
      4251.81       1.2689272    0.0037431325
      4256.06       1.2783909    0.0037403139
      4260.32       1.2878955    0.0037377745
      4264.58       1.3001787    0.0036931236
      4268.84       1.3087301    0.0036909475
      4273.11       1.3190479    0.0036890559
      4277.38       1.3287114    0.0036872381
      4281.66       1.3397690    0.0036856943
      4285.94       1.3509246    0.0037257108
      4290.23       1.3586536    0.0036808542
      4294.52       1.3632411    0.0036784907
      4298.81       1.3679099    0.0036764137
      4303.11       1.3726381    0.0036744536
      4307.42       1.3789975    0.0036728174
      4311.72       1.3808638    0.0036279033
      4316.04       1.3865896    0.0036250813
      4320.35       1.3891980    0.0036659847
      4324.67       1.3924343    0.0036636731
      4329.00       1.3949451    0.0036615497
      4333.33       1.3982251    0.0036598533
      4337.66       1.3995472    0.0036151907
      4342.00       1.4018294    0.0036123083
      4346.34       1.4053868    0.0036097973
      4350.69       1.4082981    0.0036507503
      4355.04       1.4148358    0.0036487765
      4359.39       1.4242318    0.0036051860
      4363.75       1.4351295    0.0036020958
      4368.12       1.4462889    0.0035993200
      4372.48       1.4611519    0.0035969585
      4376.86       1.4757971    0.0036377857
      4381.23       1.4888151    0.0035947664
      4385.61       1.5047513    0.0035915604
      4390.00       1.5204073    0.0035885874
      4394.39       1.5345131    0.0035860334
      4398.79       1.5540741    0.0035451562
      4403.18       1.5687485    0.0035838593
      4407.59       1.5844455    0.0035805218
      4412.00       1.6007442    0.0035776594
      4416.41       1.6186051    0.0035751301
      4420.82       1.6358960    0.0035344246
      4425.25       1.6564908    0.0035726353
      4429.67       1.6792333    0.0035692863
      4434.10       1.7035853    0.0035664618
      4438.54       1.7288554    0.0035255358
      4442.97       1.7552382    0.0035236536
      4447.42       1.7823108    0.0035608675
      4451.86       1.8102145    0.0035577786
      4456.32       1.8388818    0.0035167211
      4460.77       1.8630203    0.0035147222
      4465.24       1.8866592    0.0035131129
      4469.70       1.9115976    0.0035489836
      4474.17       1.9323553    0.0035078489
      4478.65       1.9536626    0.0035056570
      4483.12       1.9731298    0.0035040645
      4487.61       1.9911340    0.0035017063
      4492.09       2.0082701    0.0034988971
      4496.59       2.0267776    0.0034967112
      4501.08       2.0447200    0.0034951595
      4505.58       2.0624970    0.0034532725
      4510.09       2.0802177    0.0034898931
      4514.60       2.0961003    0.0034877475
      4519.12       2.1113269    0.0034861946
      4523.63       2.1249106    0.0034442564
      4528.16       2.1364153    0.0034808111
      4532.69       2.1491889    0.0034787704
      4537.22       2.1618231    0.0034381668
      4541.76       2.1701405    0.0034350043
      4546.30       2.1781904    0.0034716790
      4550.85       2.1852651    0.0034321883
      4555.40       2.1907593    0.0034286089
      4559.95       2.1964785    0.0034257618
      4564.51       2.1994892    0.0034625815
      4569.08       2.2006041    0.0034223500
      4573.65       2.2016035    0.0034191172
      4578.22       2.2010606    0.0034165864
      4582.80       2.2012231    0.0034161118
      4587.38       2.1992465    0.0034124647
      4591.97       2.1947401    0.0034096625
      4596.56       2.1884206    0.0034098676
      4601.16       2.1808516    0.0034059523
      4605.76       2.1711088    0.0034028086
      4610.37       2.1588516    0.0033651436
      4614.98       2.1444507    0.0033992812
      4619.59       2.1291919    0.0033959366
      4624.21       2.1111206    0.0033581758
      4628.84       2.0914079    0.0033925867
      4633.47       2.0705931    0.0033890837
      4638.10       2.0471450    0.0033512670
      4642.74       2.0228260    0.0033857256
      4647.38       1.9987007    0.0033820957
      4652.03       1.9725600    0.0033442513
      4656.68       1.9449482    0.0033424227
      4661.34       1.9171047    0.0033749942
      4666.00       1.8889912    0.0033371691
      4670.67       1.8621240    0.0033353880
      4675.33       1.8339023    0.0033328017
      4680.01       1.8066279    0.0033301216
      4684.69       1.7825045    0.0033284205
      4689.38       1.7603364    0.0033256721
      4694.07       1.7412225    0.0033231036
      4698.76       1.7248307    0.0033215505
      4703.46       1.7128388    0.0033184416
      4708.16       1.7015844    0.0033160464
      4712.87       1.6934610    0.0032787124
      4717.58       1.6865863    0.0033112149
      4722.30       1.6775686    0.0033090411
      4727.03       1.6665874    0.0032713250
      4731.75       1.6580488    0.0033039891
      4736.48       1.6501690    0.0033021078
      4741.22       1.6396749    0.0032638993
      4745.96       1.6279358    0.0032968338
      4750.71       1.6182000    0.0032598905
      4755.46       1.6122610    0.0032566250
      4760.22       1.6058276    0.0032897993
      4764.97       1.6036437    0.0032521974
      4769.74       1.6027528    0.0032493777
      4774.51       1.6064363    0.0032481940
      4779.29       1.6112375    0.0032446610
      4784.07       1.6224071    0.0032445623
      4788.85       1.6312443    0.0032403371
      4793.64       1.6408986    0.0032373676
      4798.43       1.6525545    0.0032361940
      4803.23       1.6616414    0.0032325754
      4808.03       1.6678521    0.0031979672
      4812.84       1.6707850    0.0032280899
      4817.66       1.6696131    0.0031929250
      4822.48       1.6702861    0.0032238790
      4827.30       1.6700229    0.0032203619
      4832.12       1.6685487    0.0031860374
      4836.96       1.6685865    0.0032156767
      4841.79       1.6716317    0.0031808839
      4846.63       1.6761126    0.0032112463
      4851.48       1.6829631    0.0031759742
      4856.33       1.6908252    0.0031742252
      4861.19       1.7007718    0.0031711796
      4866.05       1.7096027    0.0031689807
      4870.92       1.7191735    0.0031984664
      4875.79       1.7280322    0.0031638301
      4880.66       1.7351237    0.0031938010
      4885.55       1.7419769    0.0031588728
      4890.43       1.7482831    0.0031573178
      4895.32       1.7533036    0.0031539328
      4900.22       1.7549137    0.0031520818
      4905.12       1.7537581    0.0031490546
      4910.02       1.7544996    0.0031468948
      4914.94       1.7542748    0.0031441517
      4919.85       1.7549548    0.0031417811
      4924.77       1.7565340    0.0031069653
      4929.70       1.7574633    0.0031367225
      4934.62       1.7603246    0.0031021621
      4939.56       1.7646128    0.0031316342
      4944.50       1.7680499    0.0030974099
      4949.44       1.7707385    0.0031266226
      4954.39       1.7725375    0.0030925517
      4959.35       1.7734764    0.0031216752
      4964.31       1.7736701    0.0030877120
      4969.27       1.7729126    0.0030845472
      4974.24       1.7719873    0.0030827815
      4979.22       1.7729510    0.0030795042
      4984.20       1.7716610    0.0030778463
      4989.18       1.7724781    0.0030744999
      4994.17       1.7724170    0.0030728087
      4999.16       1.7754062    0.0030695395
      5004.16       1.7800406    0.0030677774
      5009.17       1.7864473    0.0030645144
      5014.18       1.7933799    0.0030626960
      5019.19       1.8023995    0.0030299941
      5024.21       1.8111342    0.0030575674
      5029.23       1.8214718    0.0030250073
      5034.26       1.8341334    0.0030524495
      5039.30       1.8461429    0.0030200144
      5044.34       1.8581542    0.0030472715
      5049.39       1.8716583    0.0030150708
      5054.43       1.8847409    0.0030420625
      5059.49       1.8958016    0.0030101396
      5064.55       1.9048269    0.0030368713
      5069.61       1.9134211    0.0030052214
      5074.68       1.9231444    0.0030024553
      5079.76       1.9321715    0.0030003336
      5084.84       1.9444660    0.0029973437
      5089.92       1.9572755    0.0029955106
      5095.01       1.9699099    0.0029922755
      5100.11       1.9824613    0.0029908089
      5105.21       1.9939088    0.0029872536
      5110.31       2.0051300    0.0029554303
      5115.42       2.0169200    0.0029823402
      5120.54       2.0289960    0.0029796858
      5125.66       2.0435550    0.0029774828
      5130.79       2.0601544    0.0029744484
      5135.92       2.0777396    0.0029431593
      5141.05       2.0961827    0.0029693504
      5146.20       2.1158732    0.0029377623
      5151.34       2.1332828    0.0029644321
      5156.49       2.1510457    0.0029324747
      5161.65       2.1713620    0.0029307876
      5166.81       2.1908560    0.0029272945
      5171.98       2.2118540    0.0029251924
      5177.15       2.2348814    0.0029514700
      5182.33       2.2599821    0.0029197916
      5187.51       2.2852665    0.0029181788
      5192.70       2.3077632    0.0029145370
      5197.89       2.3295220    0.0029124554
      5203.09       2.3463374    0.0028824905
      5208.29       2.3642303    0.0029069711
      5213.50       2.3816954    0.0029052916
      5218.72       2.3994177    0.0028747709
      5223.93       2.4147530    0.0028995622
      5229.16       2.4282562    0.0028698570
      5234.39       2.4408648    0.0028940397
      5239.62       2.4521583    0.0028920895
      5244.86       2.4609070    0.0028620343
      5250.11       2.4674950    0.0028864245
      5255.36       2.4747711    0.0028573065
      5260.61       2.4815605    0.0028543197
      5265.87       2.4845161    0.0028788299
      5271.14       2.4895852    0.0028494383
      5276.41       2.4965284    0.0028466192
      5281.69       2.5006035    0.0028449750
      5286.97       2.5037058    0.0028416025
      5292.26       2.5034981    0.0028389349
      5297.55       2.5008905    0.0028370823
      5302.85       2.4973954    0.0028338249
      5308.15       2.4989487    0.0028312121
      5313.46       2.5018752    0.0028292652
      5318.77       2.5039008    0.0028260404
      5324.09       2.5022865    0.0027966464
      5329.42       2.5016125    0.0027946684
      5334.75       2.5046304    0.0028182555
      5340.08       2.5098320    0.0027889616
      5345.42       2.5153736    0.0027868747
      5350.77       2.5223478    0.0028105245
      5356.12       2.5311015    0.0027812036
      5361.48       2.5397446    0.0027790813
      5366.83       2.5475112    0.0028027788
      5372.20       2.5549119    0.0027734790
      5377.58       2.5610850    0.0027712054
      5382.95       2.5656427    0.0027693812
      5388.34       2.5705400    0.0027656649
      5393.72       2.5739227    0.0027632555
      5399.12       2.5738379    0.0027613108
      5404.52       2.5726938    0.0027332131
      5409.92       2.5703799    0.0027553545
      5415.33       2.5658803    0.0027532133
      5420.75       2.5601274    0.0027256478
      5426.17       2.5491560    0.0027475332
      5431.60       2.5377627    0.0027451639
      5437.03       2.5248033    0.0027431945
      5442.47       2.5102351    0.0027152488
      5447.91       2.4962890    0.0027371815
      5453.36       2.4802222    0.0027349331
      5458.81       2.4624461    0.0027077169
      5464.27       2.4454832    0.0027048195
      5469.73       2.4300216    0.0027023138
      5475.20       2.4154273    0.0027003979
      5480.68       2.4038008    0.0026973042
      5486.16       2.3952138    0.0026944662
      5491.65       2.3848991    0.0026919591
      5497.14       2.3716401    0.0026900373
      5502.64       2.3574237    0.0026869010
      5508.14       2.3416018    0.0026841234
      5513.65       2.3267525    0.0026815920
      5519.16       2.3124317    0.0026548252
      5524.68       2.2992534    0.0026766026
      5530.20       2.2817008    0.0026737400
      5535.73       2.2649409    0.0026467393
      5541.27       2.2470311    0.0026443775
      5546.81       2.2323219    0.0026422565
      5552.36       2.2184883    0.0026634475
      5557.91       2.2047252    0.0026364314
      5563.47       2.1902340    0.0026339045
      5569.04       2.1780690    0.0026316435
      5574.60       2.1655782    0.0026295125
      5580.18       2.1519166    0.0026503440
      5585.76       2.1374108    0.0026235241
      5591.35       2.1213032    0.0026210470
      5596.94       2.1012082    0.0026187221
      5602.53       2.0812808    0.0026165926
      5608.14       2.0591645    0.0025905634
      5613.75       2.0344844    0.0026105368
      5619.36       2.0087889    0.0026080631
      5624.98       1.9816938    0.0026056808
      5630.60       1.9537877    0.0026035050
      5636.23       1.9263869    0.0025777865
      5641.87       1.8996368    0.0025750698
      5647.51       1.8756111    0.0025724904
      5653.16       1.8544438    0.0025925566
      5658.82       1.8345654    0.0025902173
      5664.47       1.8161755    0.0025651487
      5670.14       1.7995621    0.0025623620
      5675.81       1.7879585    0.0025596220
      5681.48       1.7784751    0.0025570723
      5687.17       1.7714493    0.0025545611
      5692.85       1.7669723    0.0025527654
      5698.55       1.7657577    0.0025498327
      5704.25       1.7666763    0.0025469841
      5709.95       1.7703894    0.0025442419
      5715.66       1.7762945    0.0025415995
      5721.38       1.7808766    0.0025390513
      5727.10       1.7833175    0.0025142206
      5732.83       1.7872930    0.0025118002
      5738.56       1.7923917    0.0025094228
      5744.30       1.7979493    0.0025290792
      5750.04       1.8031538    0.0025262984
      5755.79       1.8097585    0.0025236027
      5761.55       1.8155947    0.0024988426
      5767.31       1.8211113    0.0024962776
      5773.08       1.8284097    0.0024937452
      5778.85       1.8363739    0.0024912764
      5784.63       1.8439413    0.0024888610
      5790.41       1.8496807    0.0024864604
      5796.21       1.8543167    0.0024841207
      5802.00       1.8574112    0.0024818457
      5807.81       1.8595176    0.0024579188
      5813.61       1.8636332    0.0024556694
      5819.43       1.8677507    0.0024534289
      5825.25       1.8691771    0.0024716996
      5831.07       1.8660186    0.0024694253
      5836.90       1.8591390    0.0024674614
      5842.74       1.8527336    0.0024661290
      5848.58       1.8453825    0.0024656077
      5854.43       1.8357192    0.0024654735
      5860.29       1.8251077    0.0024442732
      5866.15       1.8160396    0.0024440778
      5872.01       1.8085937    0.0024442367
      5877.89       1.8014844    0.0024439309
      5883.76       1.7950213    0.0024426879
      5889.65       1.7885539    0.0024409101
      5895.54       1.7814325    0.0024388139
      5901.43       1.7757222    0.0024363228
      5907.34       1.7684123    0.0024334473
      5913.24       1.7625710    0.0024302792
      5919.16       1.7593979    0.0024272308
      5925.08       1.7600406    0.0024243293
      5931.00       1.7594017    0.0024213610
      5936.93       1.7565606    0.0023976609
      5942.87       1.7537175    0.0023941273
      5948.81       1.7498499    0.0023903015
      5954.76       1.7472006    0.0023864996
      5960.72       1.7445805    0.0023827398
      5966.68       1.7398715    0.0023786915
      5972.64       1.7363441    0.0023743577
      5978.62       1.7343763    0.0023704113
      5984.60       1.7313264    0.0023669912
      5990.58       1.7261750    0.0023635287
      5996.57       1.7174593    0.0023597501
      6002.57       1.7073778    0.0023562475
      6008.57       1.6962600    0.0023531204
      6014.58       1.6841413    0.0023501947
      6020.60       1.6704680    0.0023473235
      6026.62       1.6582076    0.0023446187
      6032.65       1.6462645    0.0023420193
      6038.68       1.6344413    0.0023394545
      6044.72       1.6221584    0.0023178584
      6050.76       1.6129668    0.0023153357
      6056.81       1.6053970    0.0023128364
      6062.87       1.5993437    0.0023103912
      6068.93       1.5958007    0.0023079359
      6075.00       1.5942107    0.0023055006
      6081.08       1.5931480    0.0023030910
      6087.16       1.5950998    0.0023006640
      6093.25       1.5972020    0.0022982678
      6099.34       1.5977016    0.0022958746
      6105.44       1.5960687    0.0022935101
      6111.54       1.5929856    0.0022911332
      6117.66       1.5884661    0.0022887939
      6123.78       1.5821483    0.0022674530
      6129.90       1.5756657    0.0022649835
      6136.03       1.5692922    0.0022624841
      6142.17       1.5622409    0.0022600403
      6148.31       1.5546524    0.0022575858
      6154.46       1.5476236    0.0022551658
      6160.61       1.5435867    0.0022527344
      6166.77       1.5418570    0.0022503913
      6172.94       1.5408124    0.0022665957
      6179.11       1.5448716    0.0022463035
      6185.29       1.5516500    0.0022437321
      6191.48       1.5602405    0.0022413112
      6197.67       1.5707275    0.0022393944
      6203.87       1.5842785    0.0022381351
      6210.07       1.5986610    0.0022360283
      6216.28       1.6122863    0.0022333736
      6222.50       1.6256541    0.0022318005
      6228.72       1.6405122    0.0022145778
      6234.95       1.6541876    0.0022156643
      6241.19       1.6674389    0.0022177940
      6247.42       1.6815103    0.0022205529
      6253.67       1.6962318    0.0022419026
      6259.93       1.7089715    0.0022441749
      6266.19       1.7217949    0.0022279373
      6272.46       1.7351137    0.0022278324
      6278.73       1.7481114    0.0022262423
      6285.01       1.7597284    0.0022230405
      6291.29       1.7715422    0.0022184691
      6297.58       1.7827785    0.0022127998
      6303.88       1.7929719    0.0022042004
      6310.19       1.8021182    0.0021979183
      6316.50       1.8106108    0.0021928832
      6322.81       1.8181330    0.0021889691
      6329.14       1.8241450    0.0021847164
      6335.47       1.8272321    0.0021622452
      6341.80       1.8286419    0.0021581346
      6348.14       1.8278260    0.0021544263
      6354.49       1.8258191    0.0021678207
      6360.85       1.8228897    0.0021646103
      6367.21       1.8194500    0.0021442703
      6373.57       1.8157814    0.0021410526
      6379.95       1.8115869    0.0021381281
      6386.33       1.8066132    0.0021355029
      6392.72       1.8018104    0.0021336013
      6399.11       1.7965637    0.0021309835
      6405.51       1.7913825    0.0021285554
      6411.92       1.7851708    0.0021263025
      6418.32       1.7776890    0.0021083002
      6424.74       1.7700708    0.0021069827
      6431.17       1.7647295    0.0021225707
      6437.60       1.7596418    0.0021220236
      6444.04       1.7555301    0.0021055473
      6450.48       1.7517972    0.0021047005
      6456.94       1.7480750    0.0021039362
      6463.39       1.7449613    0.0021190548
      6469.85       1.7436241    0.0021013950
      6476.33       1.7450782    0.0020995632
      6482.80       1.7468314    0.0020974099
      6489.28       1.7497699    0.0020950552
      6495.77       1.7552717    0.0020911112
      6502.27       1.7583324    0.0020882045
      6508.77       1.7603885    0.0020856518
      6515.28       1.7621983    0.0020667468
      6521.80       1.7620754    0.0020803092
      6528.32       1.7586710    0.0020779198
      6534.85       1.7522806    0.0020592576
      6541.38       1.7451603    0.0020561061
      6547.92       1.7365735    0.0020687627
      6554.47       1.7281532    0.0020660516
      6561.03       1.7165011    0.0020472801
      6567.59       1.7049462    0.0020442835
      6574.16       1.6914063    0.0020567869
      6580.73       1.6800312    0.0020380933
      6587.31       1.6693948    0.0020352397
      6593.90       1.6580457    0.0020328437
      6600.50       1.6478897    0.0020308591
      6607.10       1.6382400    0.0020283683
      6613.70       1.6292985    0.0020261776
      6620.32       1.6210168    0.0020092090
      6626.94       1.6119007    0.0020220510
      6633.57       1.6037035    0.0020048157
      6640.20       1.5946236    0.0020028994
      6646.84       1.5847458    0.0020157814
      6653.49       1.5751174    0.0019986988
      6660.14       1.5655689    0.0019968392
      6666.80       1.5555988    0.0020097179
      6673.47       1.5453485    0.0019926692
      6680.14       1.5357862    0.0019908280
      6686.82       1.5257792    0.0019892598
      6693.51       1.5166123    0.0019867075
      6700.20       1.5076899    0.0019849153
      6706.90       1.4994582    0.0019680035
      6713.61       1.4902968    0.0019807911
      6720.32       1.4803220    0.0019790895
      6727.05       1.4702406    0.0019621311
      6733.77       1.4598205    0.0019749583
      6740.51       1.4481714    0.0019584162
      6747.25       1.4380594    0.0019563088
      6754.00       1.4275636    0.0019692457
      6760.75       1.4161625    0.0019525658
      6767.51       1.4048586    0.0019506318
      6774.28       1.3927568    0.0019493300
      6781.05       1.3821923    0.0019495161
      6787.84       1.3729471    0.0019562913
      6794.62       1.3634707    0.0019571162
      6801.42       1.3535043    0.0019529787
      6808.22       1.3455151    0.0019538261
      6815.03       1.3392126    0.0019611259
      6821.85       1.3332939    0.0019632349
      6828.67       1.3283967    0.0019998821
      6835.50       1.3243300    0.0020121321
      6842.33       1.3212219    0.0020586853
      6849.17       1.3191295    0.0020711622
      6856.02       1.3178711    0.0020928243
      6862.88       1.3175561    0.0021125868
      6869.74       1.3180607    0.0021181836
      6876.61       1.3198798    0.0021129398
      6883.49       1.3210705    0.0020993170
      6890.37       1.3222356    0.0020801011
      6897.27       1.3249568    0.0020491390
      6904.16       1.3259557    0.0020262160
      6911.07       1.3267001    0.0020013190
      6917.98       1.3263930    0.0019897698
      6924.89       1.3230705    0.0019736800
      6931.82       1.3188789    0.0019588118
      6938.75       1.3148531    0.0019324645
      6945.69       1.3106296    0.0019376709
      6952.64       1.3059393    0.0019160846
      6959.59       1.3008932    0.0019088928
      6966.55       1.2967988    0.0019036472
      6973.52       1.2938713    0.0018998808
      6980.49       1.2893014    0.0018968679
      6987.47       1.2851774    0.0018951403
      6994.46       1.2789341    0.0018926836
      7001.46       1.2732755    0.0018903073
      7008.46       1.2668074    0.0018868440
      7015.46       1.2594402    0.0018699368
      7022.48       1.2519653    0.0018786485
      7029.51       1.2432356    0.0018619598
      7036.53       1.2338470    0.0018715365
      7043.57       1.2244356    0.0018554721
      7050.62       1.2159965    0.0018517395
      7057.66       1.2082528    0.0018491007
      7064.72       1.2009035    0.0018459264
      7071.79       1.1950483    0.0018439590
      7078.86       1.1895466    0.0018421173
      7085.94       1.1867632    0.0018421011
      7093.03       1.1854158    0.0018423326
      7100.12       1.1839354    0.0018296929
      7107.22       1.1839770    0.0018439631
      7114.33       1.1823609    0.0018470864
      7121.44       1.1810074    0.0018516461
      7128.56       1.1796548    0.0018618765
      7135.69       1.1780895    0.0018645162
      7142.83       1.1749868    0.0018947486
      7149.97       1.1700388    0.0019021739
      7157.12       1.1631762    0.0019327935
      7164.28       1.1556658    0.0019311529
      7171.44       1.1463070    0.0019400821
      7178.62       1.1370526    0.0019425477
      7185.80       1.1276713    0.0019428848
      7192.98       1.1165476    0.0019393237
      7200.17       1.1049105    0.0019333838
      7207.38       1.0930352    0.0019269438
      7214.58       1.0803372    0.0019099737
      7221.80       1.0688311    0.0019215572
      7229.02       1.0565371    0.0019084838
      7236.25       1.0440218    0.0019087898
      7243.49       1.0326996    0.0019221441
      7250.73       1.0214012    0.0019051102
      7257.98       1.0102032    0.0018982481
      7265.24      0.99928751    0.0018905203
      7272.51      0.98903930    0.0018795999
      7279.78      0.97806973    0.0018698228
      7287.06      0.96570446    0.0018621897
      7294.35      0.95234288    0.0018505869
      7301.64      0.93917103    0.0018266681
      7308.94      0.92461274    0.0018284020
      7316.25      0.90867239    0.0018168044
      7323.57      0.89220089    0.0017958103
      7330.89      0.87411069    0.0018004437
      7338.22      0.85486408    0.0017926025
      7345.56      0.83524286    0.0017752477
      7352.91      0.81543160    0.0017706348
      7360.26      0.79512285    0.0017785549
      7367.62      0.77488473    0.0017626619
      7374.99      0.75520626    0.0017583592
      7382.37      0.73504106    0.0017545633
      7389.75      0.71450323    0.0017507901
      7397.14      0.69375529    0.0017476418
      7404.53      0.67588712    0.0017335089
      7411.94      0.65854004    0.0017427178
      7419.35      0.64166544    0.0017406851
      7426.77      0.62524187    0.0017388992
      7434.20      0.60946535    0.0017254924
      7441.63      0.59442085    0.0017355789
      7449.07      0.57916889    0.0017344098
      7456.52      0.56462521    0.0017216554
      7463.98      0.55107514    0.0017204950
      7471.45      0.53826120    0.0017195816
      7478.92      0.52691340    0.0017188294
      7486.40      0.51613517    0.0017178635
      7493.88      0.50767895    0.0017182242
      7501.38      0.49905679    0.0017262506
      7508.88      0.49311789    0.0017407264
      7516.39      0.48831941    0.0017620392
      7523.91      0.48480704    0.0017646772
      7531.43      0.48278378    0.0017426619
      7538.96      0.48258191    0.0017651732
      7546.50      0.48420706    0.0018161803
      7554.05      0.48610231    0.0018884630
      7561.60      0.48879281    0.0019701777
      7569.16      0.49179834    0.0020928921
      7576.73      0.49528064    0.0022321971
      7584.31      0.49908875    0.0023756151
      7591.89      0.50242466    0.0024734343
      7599.49      0.50511595    0.0025711764
      7607.09      0.50751975    0.0026078518
      7614.70      0.51026543    0.0025727577
      7622.31      0.51676953    0.0024719807
      7629.93      0.52307965    0.0023493272
      7637.56      0.53035187    0.0022128310
      7645.20      0.53787885    0.0021050533
      7652.85      0.54629493    0.0019969209
      7660.50      0.55481190    0.0019147087
      7668.16      0.56338207    0.0018442181
      7675.83      0.57242881    0.0017894366
      7683.50      0.58290915    0.0017571513
      7691.19      0.59381955    0.0017367251
      7698.88      0.60432438    0.0017123286
      7706.58      0.61486370    0.0016968598
      7714.29      0.62502973    0.0016955282
      7722.00      0.63528722    0.0016873969
      7729.73      0.64483736    0.0016821619
      7737.45      0.65438939    0.0016789561
      7745.19      0.66462521    0.0016664505
      7752.94      0.67572593    0.0016650822
      7760.69      0.68565689    0.0016641931
      7768.45      0.69565134    0.0016637386
      7776.22      0.70378324    0.0016635622
      7784.00      0.71133612    0.0016634692
      7791.78      0.71855205    0.0016634446
      7799.57      0.72441056    0.0016526054
      7807.37      0.72893113    0.0016525909
      7815.18      0.73253837    0.0016628681
      7822.99      0.73580735    0.0016631571
      7830.82      0.73877693    0.0016638679
      7838.65      0.74090306    0.0016648436
      7846.49      0.74250288    0.0016660319
      7854.34      0.74307444    0.0016675836
      7862.19      0.74435842    0.0016586454
      7870.05      0.74549124    0.0016601878
      7877.93      0.74648706    0.0016609850
      7885.80      0.74797565    0.0016612646
      7893.69      0.74984849    0.0016614008
      7901.58      0.75116741    0.0016614815
      7909.49      0.75084704    0.0016615025
      7917.40      0.74942318    0.0016614428
      7925.31      0.74736378    0.0016613602
      7933.24      0.74558421    0.0016614191
      7941.17      0.74332287    0.0016617851
      7949.11      0.74040311    0.0016624703
      7957.06      0.73882189    0.0016631363
      7965.02      0.73821379    0.0016530390
      7972.98      0.73755771    0.0016537261
      7980.96      0.73618857    0.0016542756
      7988.94      0.73517070    0.0016544778
      7996.93      0.73383896    0.0016543992
      8004.93      0.73154423    0.0016444273
      8012.93      0.72952643    0.0016446735
      8020.95      0.72646907    0.0016449157
      8028.97      0.72212214    0.0016450396
      8036.99      0.71655983    0.0016457795
      8045.03      0.71125700    0.0016471759
      8053.08      0.70559815    0.0016494312
      8061.13      0.69958452    0.0016531284
      8069.20      0.69300857    0.0016581635
      8077.26      0.68650341    0.0016644317
      8085.34      0.68187744    0.0016732662
      8093.43      0.67920853    0.0016850577
      8101.52      0.67990154    0.0016994672
      8109.62      0.68383611    0.0017153082
      8117.73      0.68896441    0.0017249583
      8125.85      0.69268577    0.0017438145
      8133.98      0.69663859    0.0017600248
      8142.11      0.70049592    0.0017683156
      8150.25      0.70321406    0.0017715522
      8158.41      0.70572327    0.0017736578
      8166.56      0.70753984    0.0017743466
      8174.73      0.70840097    0.0017846755
      8182.91      0.70729325    0.0017712199
      8191.09      0.70751081    0.0017671180
      8199.28      0.70889197    0.0017622879
      8207.48      0.71083483    0.0017580595
      8215.69      0.71443517    0.0017553575
      8223.91      0.71875449    0.0017532509
      8232.13      0.72493093    0.0017498087
      8240.36      0.73569617    0.0017349447
      8248.60      0.74954051    0.0017305296
      8256.85      0.76611964    0.0017258036
      8265.11      0.78488868    0.0017208681
      8273.37      0.80532908    0.0017176069
      8281.65      0.82675261    0.0017178557
      8289.93      0.84778669    0.0017166948
      8298.22      0.86716205    0.0017099739
      8306.52      0.88598675    0.0017020758
      8314.83      0.90338709    0.0016956518
      8323.14      0.91877045    0.0016788670
      8331.46      0.93352164    0.0016739709
      8339.80      0.94704114    0.0016702313
      8348.13      0.95989398    0.0016757997
      8356.48      0.97089683    0.0016719180
      8364.84      0.97853169    0.0016589419
      8373.21      0.98710061    0.0016569630
      8381.58      0.99687086    0.0016557801
      8389.96       1.0079250    0.0016546115
      8398.35       1.0181294    0.0016441842
      8406.75       1.0278623    0.0016534967
      8415.16       1.0371436    0.0016533734
      8423.57       1.0456779    0.0016536137
      8432.00       1.0532380    0.0016446611
      8440.43       1.0577560    0.0016455265
      8448.87       1.0613423    0.0016564150
      8457.32       1.0621288    0.0016574524
      8465.78       1.0605515    0.0016494296
      8474.25       1.0585082    0.0016509740
      8482.72       1.0554332    0.0016525570
      8491.20       1.0517859    0.0016545783
      8499.69       1.0491166    0.0016559802
      8508.19       1.0466535    0.0016572844
      8516.70       1.0448425    0.0016585598
      8525.22       1.0432888    0.0016499624
      8533.75       1.0424248    0.0016610361
      8542.28       1.0430890    0.0016621628
      8550.82       1.0423163    0.0016538148
      8559.37       1.0398309    0.0016550264
      8567.93       1.0372517    0.0016663710
      8576.50       1.0331677    0.0016581509
      8585.08       1.0269984    0.0016593940
      8593.66       1.0187781    0.0016609695
      8602.26       1.0083162    0.0016637263
      8610.86      0.99696869    0.0016654290
      8619.47      0.98368942    0.0016580925
      8628.09      0.97006189    0.0016600727
      8636.72      0.95696164    0.0016719027
      8645.36      0.94366698    0.0016645210
      8654.00      0.93164397    0.0016663892
      8662.66      0.92118768    0.0016780907
      8671.32      0.91253863    0.0016704922
      8679.99      0.90434405    0.0016722313
      8688.67      0.89569234    0.0016645833
      8697.36      0.88512669    0.0016762624
      8706.06      0.87305498    0.0016781801
      8714.76      0.86132960    0.0016707476
      8723.48      0.84909612    0.0016829218
      8732.21      0.83490647    0.0016758597
      8740.93      0.82040074    0.0016778775
      8749.68      0.80449413    0.0016903532
      8758.43      0.78751949    0.0016834874
      8767.19      0.77195389    0.0016857585
      8775.96      0.75561743    0.0016892048
      8784.73      0.74138637    0.0016914561
      8793.52      0.73190058    0.0016849208
      8802.31      0.72354705    0.0016974011
      8811.11      0.71694057    0.0016999188
      8819.92      0.71294580    0.0017038614
      8828.75      0.71250676    0.0017066264
      8837.57      0.71524991    0.0017009839
      8846.41      0.71912645    0.0017147211
      8855.26      0.72279411    0.0017108375
      8864.12      0.72501687    0.0017159376
      8872.98      0.72611165    0.0017230899
      8881.85      0.72719039    0.0017316035
      8890.73      0.72523949    0.0017443080
      8899.63      0.72297639    0.0017566842
      8908.52      0.71910497    0.0017774399
      8917.43      0.71543978    0.0017979181
      8926.35      0.71237485    0.0018143258
      8935.28      0.70882056    0.0018520683
      8944.22      0.70657470    0.0018717046
      8953.16      0.70715365    0.0019098361
      8962.11      0.71107476    0.0019220749
      8971.08      0.71348347    0.0019492992
      8980.05      0.71758807    0.0019423220
      8989.03      0.72354215    0.0019297550
      8998.02      0.73129891    0.0019339973
      9007.02      0.74007012    0.0019168545
      9016.02      0.75030924    0.0019224446
      9025.04      0.75957966    0.0019137143
      9034.07      0.76740650    0.0019262530
      9043.10      0.77479119    0.0019230252
      9052.14      0.77989012    0.0019467917
      9061.20      0.78297063    0.0019492434
      9070.26      0.78529217    0.0019643584
      9079.33      0.78683210    0.0019749056
      9088.41      0.78829555    0.0019846047
      9097.50      0.79020442    0.0019892951
      9106.60      0.78925836    0.0019933407
      9115.70      0.78795440    0.0019843617
      9124.82      0.78984205    0.0019969727
      9133.94      0.79331676    0.0019849237
      9143.08      0.79589128    0.0019921921
      9152.22      0.79957258    0.0019710324
      9161.37      0.80248501    0.0019597185
      9170.54      0.80400389    0.0019515744
      9179.71      0.80447601    0.0019428708
      9188.89      0.80499422    0.0019388467
      9198.08      0.80311025    0.0019398636
      9207.28      0.80134389    0.0019469494
      9216.48      0.79758819    0.0019514172
      9225.70      0.79193251    0.0019811335
      9234.92      0.78326302    0.0020028177
      9244.16      0.77425308    0.0020509913
      9253.40      0.76578383    0.0021235000
      9262.66      0.75705351    0.0021936379
      9271.92      0.74631016    0.0023083621
      9281.20      0.73460883    0.0024168670
      9290.48      0.72323936    0.0025675092
      9299.77      0.71886504    0.0027246712
      9309.07      0.71787270    0.0028434121
      9318.38      0.71507235    0.0029642628
      9327.69      0.71252891    0.0030078471
      9337.02      0.70933519    0.0030273055
      9346.36      0.70451781    0.0030303322
      9355.71      0.69800813    0.0029565138
      9365.07      0.69444704    0.0028908401
      9374.43      0.69298119    0.0028354585
      9383.80      0.69228361    0.0028076353
      9393.19      0.69220690    0.0027928686
      9402.58      0.69124647    0.0028020532
      9411.98      0.69058167    0.0028098460
      9421.40      0.69084626    0.0028457876
      9430.82      0.68851557    0.0028685473
      9440.25      0.68379313    0.0028669082
      9449.69      0.68075898    0.0028625503
      9459.14      0.67760849    0.0028510102
      9468.60      0.67480255    0.0028139555
      9478.07      0.67240226    0.0027986751
      9487.55      0.66860889    0.0027795174
      9497.04      0.66400373    0.0027475783
      9506.53      0.65992808    0.0027494988
      9516.04      0.65593330    0.0027307495
      9525.56      0.65142089    0.0027107506
      9535.08      0.64791480    0.0026766437
      9544.62      0.64419256    0.0026510226
      9554.16      0.64142815    0.0026240437
      9563.72      0.64046236    0.0026105451
      9573.29      0.64045439    0.0025657589
      9582.85      0.63797794    0.0025318194
      9592.44      0.63535675    0.0025016437
      9602.03      0.63237001    0.0024638241
      9611.63      0.62654369    0.0024165849
      9621.25      0.62329282    0.0023950996
      9630.87      0.62126512    0.0023545949
      9640.50      0.61984508    0.0023122217
      9650.14      0.61715450    0.0022676612
      9659.79      0.61455656    0.0022387982
      9669.45      0.61326608    0.0022166878
      9679.12      0.61258619    0.0021927325
      9688.80      0.61469577    0.0021651299
      9698.49      0.61491180    0.0021444777
      9708.19      0.61599175    0.0021486111
      9717.90      0.61687399    0.0021343571
      9727.62      0.61847154    0.0021279868
      9737.34      0.61923112    0.0021102279
      9747.08      0.62187257    0.0021002062
      9756.83      0.62414629    0.0020759164
      9766.59      0.62664849    0.0020501509
      9776.35      0.62790885    0.0020427162
      9786.13      0.62810203    0.0020171921
      9795.92      0.62890380    0.0019926174
      9805.71      0.62942187    0.0019786939
      9815.52      0.62841988    0.0019573448
      9825.34      0.62811582    0.0019381747
      9835.17      0.62891890    0.0019362438
      9845.00      0.62959163    0.0019192809
      9854.84      0.62898623    0.0019034518
      9864.70      0.62747245    0.0018956989
      9874.56      0.62949081    0.0018820156
      9884.44      0.62947903    0.0018778061
      9894.32      0.62866582    0.0018736887
      9904.22      0.62842949    0.0018629277
      9914.13      0.62946474    0.0018527242
      9924.04      0.62951385    0.0018435333
      9933.96      0.63028550    0.0018487739
      9943.90      0.62961423    0.0018406432
      9953.84      0.62842937    0.0018329239
      9963.79      0.62755673    0.0018255426
      9973.76      0.62566551    0.0018241606
      9983.74      0.62358626    0.0018242609
      9993.72      0.62152275    0.0018179772
