# starting wavelength =        4271.0000
# ending wavelength =        7025.1900
# O2 telluric scale =        0
# O2 telluric shift =        0
# H2O telluric scale =        0
# H2O telluric shift =        0
      4273.11      0.88996110     0.065831238
      4277.38      0.86888797     0.055593932
      4281.66      0.85674574     0.047527108
      4285.94      0.85024666     0.041178588
      4290.23      0.84991968     0.036217698
      4294.52      0.85317075     0.031599627
      4298.81      0.86272583     0.028765256
      4303.11      0.88202647     0.026585825
      4307.42      0.88964956     0.024900322
      4311.72      0.88916901     0.023582849
      4316.04      0.89710471     0.022543634
      4320.35      0.88373581     0.021707642
      4324.67      0.88237468     0.021024148
      4329.00      0.88500897     0.020635641
      4333.33      0.88956993     0.020138871
      4337.66      0.89251441     0.019710724
      4342.00      0.89505581     0.019336715
      4346.34      0.90042885     0.019110244
      4350.69      0.90972881     0.019002196
      4355.04      0.91338409     0.019000545
      4359.39      0.91898847     0.019047273
      4363.75      0.91294903     0.019043594
      4368.12      0.91465793     0.018935197
      4372.48      0.92162860     0.018938132
      4376.86      0.92335114     0.018831813
      4381.23      0.92921971     0.018836332
      4385.61      0.94009833     0.018728555
      4390.00      0.94575989     0.018734949
      4394.39      0.95862348     0.018629423
      4398.79      0.95908033     0.018801220
      4403.18      0.95824519     0.018697282
      4407.59      0.95820143     0.018706975
      4412.00      0.96665660     0.018600891
      4416.41      0.97583831     0.018617253
      4420.82      0.97954532     0.018514019
      4425.25      0.98562763     0.018531375
      4429.67      0.99856751     0.018425970
      4434.10       1.0129431     0.018446873
      4438.54       1.0303504     0.018513056
      4442.97       1.0290662     0.018541824
      4447.42       1.0264594     0.018567680
      4451.86       1.0456572     0.018462789
      4456.32       1.0598036     0.018495408
      4460.77       1.0885608     0.018393920
      4465.24       1.1292110     0.018427172
      4469.70       1.1737473     0.018322965
      4474.17       1.2281800     0.018361595
      4478.65       1.2863177     0.018407621
      4483.12       1.3561439     0.018492055
      4487.61       1.4335336     0.018533194
      4492.09       1.5276048     0.018430455
      4496.59       1.6249506     0.018484497
      4501.08       1.7392776     0.018539277
      4505.58       1.8412904     0.018434232
      4510.09       1.9351092     0.018493950
      4514.60       2.0183766     0.018394617
      4519.12       2.0974136     0.018456631
      4523.63       2.1729548     0.018522593
      4528.16       2.2276202     0.018421576
      4532.69       2.2917159     0.018710865
      4537.22       2.3523931     0.018615482
      4541.76       2.4356332     0.018683935
      4546.30       2.5304812     0.018773615
      4550.85       2.6440102     0.018451778
      4555.40       2.7134140     0.018347098
      4559.95       2.7627958     0.018247132
      4564.51       2.8077374     0.018337361
      4569.08       2.8145958     0.018020080
      4573.65       2.8051491     0.017920759
      4578.22       2.7782826     0.017825821
      4582.80       2.7229982     0.017702121
      4587.38       2.6499011     0.017603281
      4591.97       2.5611693     0.017509574
      4596.56       2.4453736     0.017392951
      4601.16       2.3332218     0.017295395
      4605.76       2.2172729     0.017202590
      4610.37       2.0894898     0.016917822
      4614.98       1.9492890     0.016995497
      4619.59       1.8358250     0.016904297
      4624.21       1.7391812     0.016624883
      4628.84       1.7037215     0.016704167
      4633.47       1.6578565     0.016614742
      4638.10       1.6029635     0.016340759
      4642.74       1.5496861     0.016420584
      4647.38       1.4978200     0.016333096
      4652.03       1.4571343     0.016064593
      4656.68       1.4172100     0.015988085
      4661.34       1.3754479     0.016059389
      4666.00       1.3451789     0.015796442
      4670.67       1.3160574     0.015722527
      4675.33       1.2889518     0.015613244
      4680.01       1.2564698     0.015536749
      4684.69       1.2353782     0.015465521
      4689.38       1.2204523     0.015358935
      4694.07       1.1953807     0.015285305
      4698.76       1.1672657     0.015217032
      4703.46       1.1451720     0.015112218
      4708.16       1.1206938     0.015041713
      4712.87       1.1080306     0.014799368
      4717.58       1.1032823     0.014873518
      4722.30       1.1002041     0.014806294
      4727.03       1.0903279     0.014567186
      4731.75       1.0904809     0.014642701
      4736.48       1.0901445     0.014579013
      4741.22       1.0917665     0.014342569
      4745.96       1.0929239     0.014419938
      4750.71       1.0866117     0.014192439
      4755.46       1.0883808     0.014126232
      4760.22       1.0814366     0.014205362
      4764.97       1.0733164     0.013979644
      4769.74       1.0729211     0.013917559
      4774.51       1.0718756     0.013838592
      4779.29       1.0749992     0.013775001
      4784.07       1.0722057     0.013702785
      4788.85       1.0694882     0.013637803
      4793.64       1.0676442     0.013578737
      4798.43       1.0637796     0.013504986
      4803.23       1.0649971     0.013444711
      4808.03       1.0612206     0.013245647
      4812.84       1.0551473     0.013315588
      4817.66       1.0483551     0.013117133
      4822.48       1.0462021     0.013191152
      4827.30       1.0442318     0.013134866
      4832.12       1.0467570     0.012943826
      4836.96       1.0545465     0.013013477
      4841.79       1.0622037     0.012823302
      4846.63       1.0648837     0.012896592
      4851.48       1.0750458     0.012707210
      4856.33       1.0891143     0.012662588
      4861.19       1.1040962     0.012595008
      4866.05       1.1153798     0.012549888
      4870.92       1.1317998     0.012621542
      4875.79       1.1371604     0.012441038
      4880.66       1.1416379     0.012515310
      4885.55       1.1435590     0.012336227
      4890.43       1.1468252     0.012296893
      4895.32       1.1330483     0.012234767
      4900.22       1.1183447     0.012195606
      4905.12       1.1053390     0.012136795
      4910.02       1.0979074     0.012097720
      4914.94       1.0937444     0.012041949
      4919.85       1.0968773     0.012003323
      4924.77       1.1030879     0.011834533
      4929.70       1.1086490     0.011912321
      4934.62       1.1147744     0.011746790
      4939.56       1.1208943     0.011824337
      4944.50       1.1344896     0.011662323
      4949.44       1.1446467     0.011739739
      4954.39       1.1582152     0.011580484
      4959.35       1.1730795     0.011658424
      4964.31       1.1822555     0.011501708
      4969.27       1.1776774     0.011466453
      4974.24       1.1759150     0.011425548
      4979.22       1.1667341     0.011391089
      4984.20       1.1472456     0.011352307
      4989.18       1.1246707     0.011318771
      4994.17       1.0983494     0.011281587
      4999.16       1.0774415     0.011249497
      5004.16       1.0522591     0.011213736
      5009.17       1.0388930     0.011182820
      5014.18       1.0099669     0.011148529
      5019.19      0.98655987     0.011007530
      5024.21      0.96328816     0.011085926
      5029.23      0.94577446     0.010947242
      5034.26      0.93584660     0.011026117
      5039.30      0.92146501     0.010889639
      5044.34      0.91314245     0.010968801
      5049.39      0.91467747     0.010834880
      5054.43      0.91437120     0.010914051
      5059.49      0.90995136     0.010782782
      5064.55      0.91188221     0.010861995
      5069.61      0.92945910     0.010733334
      5074.68      0.94486592     0.010705540
      5079.76      0.96322564     0.010686535
      5084.84      0.99214151     0.010659461
      5089.92       1.0215772     0.010642488
      5095.01       1.0526823     0.010616044
      5100.11       1.0925543     0.010601354
      5105.21       1.1339222     0.010575239
      5110.31       1.1731848     0.010452241
      5115.42       1.2160012     0.010537245
      5120.54       1.2638851     0.010516635
      5125.66       1.3050266     0.010501837
      5130.79       1.3557108     0.010481298
      5135.92       1.3945332     0.010363713
      5141.05       1.4451409     0.010448782
      5146.20       1.5048527     0.010331427
      5151.34       1.5642266     0.010419195
      5156.49       1.6268374     0.010301782
      5161.65       1.6968921     0.010290286
      5166.81       1.7584291     0.010274734
      5171.98       1.8131408     0.010263088
      5177.15       1.8595313     0.010352118
      5182.33       1.8901670     0.010238719
      5187.51       1.9125581     0.010230858
      5192.70       1.9261281     0.010217012
      5197.89       1.9289199     0.010208748
      5203.09       1.9167196     0.010103610
      5208.29       1.9013145     0.010189541
      5213.50       1.8721398     0.010184658
      5218.72       1.8419724     0.010079161
      5223.93       1.8009842     0.010167820
      5229.16       1.7682945     0.010066138
      5234.39       1.7241296     0.010153677
      5239.62       1.7018358     0.010150923
      5244.86       1.6781500     0.010049448
      5250.11       1.6663168     0.010139360
      5255.36       1.6591683     0.010042036
      5260.61       1.6500442     0.010037951
      5265.87       1.6415913     0.010129920
      5271.14       1.6311181     0.010032926
      5276.41       1.6151561     0.010031163
      5281.69       1.6034612     0.010031171
      5286.97       1.5921076     0.010028506
      5292.26       1.5827363     0.010028939
      5297.55       1.5705854     0.010029326
      5302.85       1.5595325     0.010028701
      5308.15       1.5486677     0.010030973
      5313.46       1.5406196     0.010032093
      5318.77       1.5298657     0.010033182
      5324.09       1.5179281    0.0099397406
      5329.42       1.5080455    0.0099461955
      5334.75       1.4964989     0.010041773
      5340.08       1.4915709    0.0099495911
      5345.42       1.4704548    0.0099571490
      5350.77       1.4589048     0.010054550
      5356.12       1.4407663    0.0099630871
      5361.48       1.4144377    0.0099719538
      5366.83       1.3928129     0.010071120
      5372.20       1.3695926    0.0099804560
      5377.58       1.3445547    0.0099901682
      5382.95       1.3214131     0.010002017
      5388.34       1.2957761     0.010001121
      5393.72       1.2684725     0.010011668
      5399.12       1.2421847     0.010024397
      5404.52       1.2085008    0.0099391496
      5409.92       1.1759150     0.010036753
      5415.33       1.1495726     0.010050021
      5420.75       1.1202577    0.0099672111
      5426.17       1.0932399     0.010065386
      5431.60       1.0710550     0.010079021
      5437.03       1.0534497     0.010094575
      5442.47       1.0332386     0.010010924
      5447.91       1.0157118     0.010111337
      5453.36       1.0085288     0.010126981
      5458.81       1.0043226     0.010046389
      5464.27      0.99564576     0.010060099
      5469.73       1.0016481     0.010075687
      5475.20       1.0051504     0.010085384
      5480.68       1.0090305     0.010099415
      5486.16       1.0126662     0.010114752
      5491.65       1.0151742     0.010131717
      5497.14       1.0154836     0.010142268
      5502.64       1.0089718     0.010157435
      5508.14      0.99740496     0.010174289
      5513.65      0.98324987     0.010192418
      5519.16      0.97161887     0.010113920
      5524.68      0.95685297     0.010220414
      5530.20      0.93321541     0.010238130
      5535.73      0.90701189     0.010158705
      5541.27      0.88686337     0.010178622
      5546.81      0.86747903     0.010199773
      5552.36      0.85436060     0.010306379
      5557.91      0.83949322     0.010226755
      5563.47      0.82058933     0.010247071
      5569.04      0.80074180     0.010268687
      5574.60      0.79522894     0.010291077
      5580.18      0.78261967     0.010398554
      5585.76      0.76189628     0.010319338
      5591.35      0.74645479     0.010341017
      5596.94      0.73277650     0.010363523
      5602.53      0.72076419     0.010387029
      5608.14      0.69625567     0.010310234
      5613.75      0.67630709     0.010416655
      5619.36      0.65665903     0.010439339
      5624.98      0.62991039     0.010462590
      5630.60      0.59671639     0.010486860
      5636.23      0.56404923     0.010410650
      5641.87      0.54005028     0.010432748
      5647.51      0.52264880     0.010455565
      5653.16      0.50919288     0.010565247
      5658.82      0.48584274     0.010589635
      5664.47      0.46661213     0.010515257
      5670.14      0.44128755     0.010537750
      5675.81      0.42981827     0.010560552
      5681.48      0.42368597     0.010584260
      5687.17      0.41479601     0.010608244
      5692.85      0.40811323     0.010623783
      5698.55      0.40752427     0.010646187
      5704.25      0.41853121     0.010669014
      5709.95      0.42048514     0.010692370
      5715.66      0.42308354     0.010716215
      5721.38      0.43448151     0.010740532
      5727.10      0.43507462     0.010664534
      5732.83      0.42376975     0.010689199
      5738.56      0.41834912     0.010714077
      5744.30      0.42411551     0.010827480
      5750.04      0.42774789     0.010851024
      5755.79      0.42127535     0.010874938
      5761.55      0.41724350     0.010797607
      5767.31      0.40434091     0.010821798
      5773.08      0.38908098     0.010846155
      5778.85      0.37985286     0.010870766
      5784.63      0.38743711     0.010895621
      5790.41      0.39459505     0.010920513
      5796.21      0.40697747     0.010945673
      5802.00      0.42975984     0.010971072
      5807.81      0.45542950     0.010894443
      5813.61      0.49011781     0.010919481
      5819.43      0.51816763     0.010944526
      5825.25      0.54806797     0.011055539
      5831.07      0.57830091     0.011080680
      5836.90      0.60021555     0.011107147
      5842.74      0.62291708     0.011136317
      5848.58      0.64893997     0.011169027
      5854.43      0.66786022     0.011203499
      5860.29      0.68759395     0.011136147
      5866.15      0.70453135     0.011170116
      5872.01      0.72078447     0.011205626
      5877.89      0.73301958     0.011239089
      5883.76      0.73852377     0.011268325
      5889.65      0.75141655     0.011294967
      5895.54      0.76637641     0.011319906
      5901.43      0.77985130     0.011342790
      5907.34      0.78982218     0.011363658
      5913.24      0.79723939     0.011382966
      5919.16      0.80113028     0.011402660
      5925.08      0.80624160     0.011422923
      5931.00      0.80254594     0.011442682
      5936.93      0.79106311     0.011358356
      5942.87      0.77916993     0.011374647
      5948.81      0.77333530     0.011389322
      5954.76      0.76393270     0.011403762
      5960.72      0.75383732     0.011418240
      5966.68      0.73861007     0.011430989
      5972.64      0.72685675     0.011441995
      5978.62      0.71377438     0.011454623
      5984.60      0.70047661     0.011469608
      5990.58      0.68754367     0.011484049
      5996.57      0.67007232     0.011496526
      6002.57      0.65553850     0.011510050
      6008.57      0.63447494     0.011525143
      6014.58      0.61473013     0.011540941
      6020.60      0.58817611     0.011556693
      6026.62      0.57189066     0.011572925
      6032.65      0.55907851     0.011589392
      6038.68      0.55294844     0.011605714
      6044.72      0.53798657     0.011531667
      6050.76      0.53447766     0.011547245
      6056.81      0.53606739     0.011562594
      6062.87      0.55233784     0.011577869
      6068.93      0.56878741     0.011592727
      6075.00      0.58867702     0.011607335
      6081.08      0.60560614     0.011621685
      6087.16      0.62746958     0.011635573
      6093.25      0.65180484     0.011649234
      6099.34      0.67524907     0.011662517
      6105.44      0.70250917     0.011675534
      6111.54      0.72411121     0.011688083
      6117.66      0.75116431     0.011700406
      6123.78      0.78525410     0.011618788
      6129.90      0.82605333     0.011629327
      6136.03      0.87516208     0.011639279
      6142.17      0.93411532     0.011649058
      6148.31       1.0001961     0.011658337
      6154.46       1.0801168     0.011667334
      6160.61       1.1704937     0.011675806
      6166.77       1.2805536     0.011684260
      6172.94       1.4104905     0.011792155
      6179.11       1.5627659     0.011709298
      6185.29       1.7278687     0.011714941
      6191.48       1.9243431     0.011720844
      6197.67       2.1328291     0.011728789
      6203.87       2.3542202     0.011739587
      6210.07       2.5828028     0.011745571
      6216.28       2.8053524     0.011748259
      6222.50       3.0221927     0.011755999
      6228.72       3.2258518     0.011682930
      6234.95       3.4232791     0.011703330
      6241.19       3.6145387     0.011728750
      6247.42       3.7798281     0.011757021
      6253.67       3.9502568     0.011885714
      6259.93       4.1489183     0.011910543
      6266.19       4.4163305     0.011838394
      6272.46       4.6623900     0.011849405
      6278.73       4.8834008     0.011851916
      6285.01       5.0754557     0.011845192
      6291.29       5.2400425     0.011830464
      6297.58       5.3565195     0.011809145
      6303.88       5.4386471     0.011774029
      6310.19       5.4777870     0.011747763
      6316.50       5.4665109     0.011727516
      6322.81       5.4220210     0.011712624
      6329.14       5.3642546     0.011695190
      6335.47       5.2676094     0.011580008
      6341.80       5.1364919     0.011561807
      6348.14       4.9671266     0.011545084
      6354.49       4.7465622     0.011619848
      6360.85       4.5186743     0.011604307
      6367.21       4.2779322     0.011496123
      6373.57       4.0696048     0.011478996
      6379.95       3.8824357     0.011462727
      6386.33       3.7022984     0.011447333
      6392.72       3.4974823     0.011434221
      6399.11       3.2764947     0.011417160
      6405.51       3.0508027     0.011400370
      6411.92       2.8200358     0.011383759
      6418.32       2.5798574     0.011280920
      6424.74       2.3497314     0.011267706
      6431.17       2.1242027     0.011343022
      6437.60       1.9402623     0.011332180
      6444.04       1.8020770     0.011233735
      6450.48       1.6937957     0.011219493
      6456.94       1.5903594     0.011204860
      6463.39       1.5020978     0.011272143
      6469.85       1.4193816     0.011163464
      6476.33       1.3454548     0.011140376
      6482.80       1.2794607     0.011114729
      6489.28       1.2194565     0.011087180
      6495.77       1.1757796     0.011044925
      6502.27       1.1348233     0.011012514
      6508.77       1.1037464     0.010981105
      6515.28       1.0824617     0.010859369
      6521.80       1.0635393     0.010907572
      6528.32       1.0475703     0.010874075
      6534.85       1.0363586     0.010750673
      6541.38       1.0211619     0.010711472
      6547.92       1.0055793     0.010749810
      6554.47      0.98768829     0.010710718
      6561.03      0.96756592     0.010582881
      6567.59      0.94586976     0.010540563
      6574.16      0.91407368     0.010572746
      6580.73      0.88084966     0.010442597
      6587.31      0.85011239     0.010398002
      6593.90      0.81805706     0.010354786
      6600.50      0.78534100     0.010301786
      6607.10      0.75515391     0.010255854
      6613.70      0.72641214     0.010210457
      6620.32      0.69951709     0.010083480
      6626.94      0.67435066     0.010105596
      6633.57      0.65131586    0.0099751618
      6640.20      0.62986062    0.0099269149
      6646.84      0.60960936    0.0099443443
      6653.49      0.59385830    0.0098116442
      6660.14      0.57690011    0.0097602079
      6666.80      0.55766313    0.0097725869
      6673.47      0.53911270    0.0096370174
      6680.14      0.51153431    0.0095821932
      6686.82      0.48884672    0.0095276106
      6693.51      0.46421904    0.0094509685
      6700.20      0.43802722    0.0093928156
      6706.90      0.41508717    0.0092533006
      6713.61      0.39452895    0.0092531198
      6720.32      0.38042368    0.0091917258
      6727.05      0.37009827    0.0090489981
      6733.77      0.36002920    0.0090433895
      6740.51      0.35390472    0.0089004440
      6747.25      0.34840573    0.0088325583
      6754.00      0.34650574    0.0086913350
      6760.75      0.35019394    0.0085486561
      6767.51      0.34955591    0.0083589303
      6774.28      0.34991646    0.0081672210
      6781.05      0.34818400    0.0080257805
      6787.84      0.35157539    0.0079117459
      6794.62      0.35074565    0.0076581010
      6801.42      0.34565538    0.0075468583
      6808.22      0.34308779    0.0074173440
      6815.03      0.33771734    0.0073448475
      6821.85      0.32728577    0.0072045869
      6828.67      0.32164859    0.0071593776
      6835.50      0.31804187    0.0071061154
      6842.33      0.31120185    0.0069670038
      6849.17      0.30686196    0.0068858392
      6856.02      0.30510243    0.0067572265
      6862.88      0.30361104    0.0065930013
      6869.74      0.30240336    0.0064403719
      6876.61      0.30660415    0.0063032460
      6883.49      0.31589293    0.0060842258
      6890.37      0.32377435    0.0059255618
      6897.27      0.32801473    0.0057496374
      6904.16      0.33262847    0.0055380279
      6911.07      0.33698505    0.0053659292
      6917.98      0.34398235    0.0052529139
      6924.89      0.35238409    0.0052761793
      6931.82      0.36186081    0.0053287039
      6938.75      0.37250645    0.0053775425
      6945.69      0.38382360    0.0054657194
      6952.64      0.39450838    0.0056218934
      6959.59      0.40720158    0.0058229074
      6966.55      0.42324336    0.0060390498
      6973.52      0.43785869    0.0064203326
      6980.49      0.45323014    0.0070187822
      6987.47      0.46935412    0.0076857890
      6994.46      0.48367467    0.0082956973
      7001.46      0.50078192    0.0093351246
      7008.46      0.51787167     0.010885013
      7015.46      0.53685172     0.012256972
      7022.48      0.55405158     0.014270156
