# starting wavelength =        3651.3700
# ending wavelength =        7401.3800
# O2 telluric scale =        0
# O2 telluric shift =        0
# H2O telluric scale =        0
# H2O telluric shift =        0
      3652.50       1.0276802     0.035501362
      3656.16       1.0296721     0.030087569
      3659.81       1.0267886     0.025773678
      3663.47       1.0239060     0.022941292
      3667.14       1.0196820     0.020169556
      3670.80       1.0171370     0.017992896
      3674.48       1.0204883     0.016019195
      3678.15       1.0206560     0.014773343
      3681.83       1.0190784     0.013815048
      3685.51       1.0164255     0.013072983
      3689.20       1.0117321     0.012567053
      3692.88       1.0060238     0.012082415
      3696.58       1.0010944     0.011696871
      3700.27      0.99508781     0.011306890
      3703.98      0.99402914     0.011059551
      3707.68      0.99407765     0.010854061
      3711.39      0.99728235     0.010633578
      3715.10      0.99960157     0.010477006
      3718.81      0.99999130     0.010343136
      3722.53       1.0034067     0.010316582
      3726.26       1.0067473     0.010349742
      3729.98       1.0108766     0.010383711
      3733.71       1.0107078     0.010303315
      3737.45       1.0129210     0.010336907
      3741.18       1.0169347     0.010371945
      3744.93       1.0191995     0.010344758
      3748.67       1.0218189     0.010325581
      3752.42       1.0253927     0.010359967
      3756.17       1.0215021     0.010333996
      3759.93       1.0232474     0.010369187
      3763.69       1.0315854     0.010350751
      3767.45       1.0357599     0.010322743
      3771.22       1.0374492     0.010359300
      3774.99       1.0352186     0.010396936
      3778.77       1.0417719     0.010312475
      3782.54       1.0380936     0.010350566
      3786.33       1.0432490     0.010387756
      3790.11       1.0476541     0.010361831
      3793.90       1.0495770     0.010400154
      3797.70       1.0528257     0.010382078
      3801.50       1.0661574     0.010353704
      3805.30       1.0628684     0.010392953
      3809.10       1.0622734     0.010434415
      3812.91       1.0621012     0.010406807
      3816.73       1.0671002     0.010388395
      3820.54       1.0745012     0.010360192
      3824.36       1.0766665     0.010401142
      3828.19       1.0836649     0.010444125
      3832.02       1.0918825     0.010416707
      3835.85       1.0961652     0.010460115
      3839.68       1.1010448     0.010439384
      3843.52       1.1077303     0.010412627
      3847.37       1.1126614     0.010457570
      3851.22       1.1117079     0.010430076
      3855.07       1.1136005     0.010475137
      3858.92       1.1089384     0.010521335
      3862.78       1.1074566     0.010427674
      3866.64       1.1067411     0.010475129
      3870.51       1.1054490     0.010447203
      3874.38       1.1069892     0.010493809
      3878.26       1.1120195     0.010542618
      3882.13       1.1065102     0.010515122
      3886.02       1.0942204     0.010564445
      3889.90       1.0883347     0.010468434
      3893.79       1.0829138     0.010516408
      3897.69       1.0803717     0.010568742
      3901.59       1.0770561     0.010540496
      3905.49       1.0789039     0.010590982
      3909.39       1.0778635     0.010565416
      3913.30       1.0745228     0.010617252
      3917.22       1.0791213     0.010670481
      3921.13       1.0822756     0.010645044
      3925.06       1.0833034     0.010699419
      3928.98       1.0851260     0.010596005
      3932.91       1.0875436     0.010652836
      3936.84       1.0940829     0.010624467
      3940.78       1.1016962     0.010680041
      3944.72       1.1051307     0.010740295
      3948.67       1.1047450     0.010711652
      3952.61       1.1120632     0.010769886
      3956.57       1.1209382     0.010744261
      3960.52       1.1303359     0.010804621
      3964.48       1.1435003     0.010777166
      3968.45       1.1551194     0.010839671
      3972.42       1.1675492     0.010904466
      3976.39       1.1696124     0.010876275
      3980.37       1.1723269     0.010941755
      3984.35       1.1804312     0.010916805
      3988.33       1.1900330     0.010982366
      3992.32       1.1958573     0.010865179
      3996.31       1.2008130     0.010935402
      4000.31       1.2089595     0.010906338
      4004.31       1.2120167     0.010973722
      4008.31       1.2176885     0.011050109
      4012.32       1.2222810     0.011019815
      4016.33       1.2226184     0.011090367
      4020.35       1.2240232     0.011063109
      4024.37       1.2203472     0.011142314
      4028.40       1.2152687     0.011112300
      4032.42       1.2048951     0.011084057
      4036.46       1.2053578     0.011159968
      4040.50       1.1972097     0.011037044
      4044.54       1.1996561     0.011007857
      4048.58       1.1952810     0.010979837
      4052.63       1.1886679     0.010953135
      4056.68       1.1805482     0.010933105
      4060.74       1.1795067     0.010904398
      4064.80       1.1810044     0.010876952
      4068.86       1.1763240     0.010754033
      4072.93       1.1781415     0.010830917
      4077.01       1.1843768     0.010802419
      4081.08       1.1931728     0.010774842
      4085.17       1.1925291     0.010652998
      4089.25       1.1998237     0.010627844
      4093.34       1.2039380     0.010701560
      4097.43       1.2053687     0.010674053
      4101.53       1.2063623     0.010553030
      4105.63       1.2080667     0.010527613
      4109.74       1.2111331     0.010503141
      4113.85       1.2119487     0.010479567
      4117.96       1.2040762     0.010454674
      4122.08       1.1985355     0.010429181
      4126.20       1.1826691     0.010404083
      4130.33       1.1715409     0.010379790
      4134.46       1.1614987     0.010356257
      4138.59       1.1529891     0.010239747
      4142.73       1.1444787     0.010306568
      4146.88       1.1306037     0.010281949
      4151.02       1.1275388     0.010257608
      4155.18       1.1193042     0.010145765
      4159.33       1.1121793     0.010119943
      4163.49       1.1077484     0.010094897
      4167.65       1.1001972     0.010161138
      4171.82       1.0958568     0.010137185
      4175.99       1.0912039     0.010028461
      4180.17       1.0870038     0.010002738
      4184.35       1.0851399    0.0099777428
      4188.54       1.0845130    0.0099530761
      4192.72       1.0764750    0.0099288981
      4196.92       1.0703779    0.0099052326
      4201.11       1.0655795    0.0098881079
      4205.31       1.0526098    0.0098630499
      4209.52       1.0434755    0.0098382596
      4213.73       1.0361973    0.0098137410
      4217.94       1.0368805    0.0097896546
      4222.16       1.0360963    0.0097661813
      4226.38       1.0322478    0.0096594819
      4230.61       1.0278463    0.0096368066
      4234.84       1.0268701    0.0096142980
      4239.08       1.0239122    0.0096777707
      4243.32       1.0215493    0.0096537715
      4247.56       1.0214237    0.0096303028
      4251.81       1.0304209    0.0095247265
      4256.06       1.0312190    0.0095019706
      4260.32       1.0395385    0.0094792796
      4264.58       1.0464855    0.0094568974
      4268.84       1.0516497    0.0094348992
      4273.11       1.0591098    0.0094129554
      4277.38       1.0647402    0.0093912747
      4281.66       1.0628717    0.0093696213
      4285.94       1.0711634    0.0092676019
      4290.23       1.0789564    0.0092454797
      4294.52       1.0926622    0.0093036119
      4298.81       1.1075402    0.0092813770
      4303.11       1.1095967    0.0092593580
      4307.42       1.1133137    0.0092375782
      4311.72       1.1222635    0.0092159429
      4316.04       1.1319003    0.0091945088
      4320.35       1.1318787    0.0091730716
      4324.67       1.1436958    0.0090772331
      4329.00       1.1605499    0.0090554158
      4333.33       1.1742564    0.0090337137
      4337.66       1.1839158    0.0090120068
      4342.00       1.1964833    0.0089904930
      4346.34       1.1997911    0.0089691675
      4350.69       1.2022954    0.0089478101
      4355.04       1.2034880    0.0089268050
      4359.39       1.2111598    0.0089059581
      4363.75       1.2275528    0.0088850681
      4368.12       1.2408041    0.0088641458
      4372.48       1.2472640    0.0088435389
      4376.86       1.2615265    0.0088229473
      4381.23       1.2670278    0.0087295351
      4385.61       1.2659190    0.0087092405
      4390.00       1.2719632    0.0086890710
      4394.39       1.2788339    0.0086687166
      4398.79       1.2808948    0.0086487377
      4403.18       1.2849291    0.0086288774
      4407.59       1.2926894    0.0086088093
      4412.00       1.2994056    0.0085888195
      4416.41       1.3069785    0.0085692369
      4420.82       1.3110395    0.0085494519
      4425.25       1.3140946    0.0085297486
      4429.67       1.3109164    0.0085101510
      4434.10       1.3146436    0.0084906636
      4438.54       1.3299369    0.0084710873
      4442.97       1.3443400    0.0084517193
      4447.42       1.3560688    0.0084324714
      4451.86       1.3662516    0.0084130730
      4456.32       1.3755363    0.0083937519
      4460.77       1.3843158    0.0083049771
      4465.24       1.3824260    0.0082861615
      4469.70       1.3829754    0.0082673493
      4474.17       1.3865582    0.0082486588
      4478.65       1.3805780    0.0082302210
      4483.12       1.3805523    0.0082115790
      4487.61       1.3863091    0.0081931912
      4492.09       1.3849965    0.0081749366
      4496.59       1.3901916    0.0081567056
      4501.08       1.3923351    0.0081385549
      4505.58       1.3928778    0.0081206542
      4510.09       1.3907728    0.0081028096
      4514.60       1.3862036    0.0080849804
      4519.12       1.3865428    0.0079983221
      4523.63       1.3899695    0.0079802961
      4528.16       1.3808390    0.0079624459
      4532.69       1.3781002    0.0079446069
      4537.22       1.3820287    0.0079269393
      4541.76       1.3779561    0.0079094683
      4546.30       1.3719902    0.0078919587
      4550.85       1.3601938    0.0079382348
      4555.40       1.3549348    0.0079210501
      4559.95       1.3450124    0.0078393621
      4564.51       1.3389935    0.0078214471
      4569.08       1.3342816    0.0078038301
      4573.65       1.3316068    0.0077862958
      4578.22       1.3240999    0.0077690082
      4582.80       1.3194370    0.0077517990
      4587.38       1.3092942    0.0077349112
      4591.97       1.3038206    0.0076559553
      4596.56       1.2901287    0.0076397037
      4601.16       1.2785318    0.0076235712
      4605.76       1.2715124    0.0076076991
      4610.37       1.2634212    0.0076500372
      4614.98       1.2573686    0.0076331273
      4619.59       1.2515165    0.0076164932
      4624.21       1.2470128    0.0075388342
      4628.84       1.2412370    0.0075228592
      4633.47       1.2360145    0.0075071573
      4638.10       1.2319474    0.0074916629
      4642.74       1.2285525    0.0074766587
      4647.38       1.2214559    0.0073989837
      4652.03       1.2194676    0.0074407805
      4656.68       1.2094407    0.0074250133
      4661.34       1.1995382    0.0074096308
      4666.00       1.1874098    0.0073946532
      4670.67       1.1782077    0.0073196935
      4675.33       1.1670087    0.0073037271
      4680.01       1.1621543    0.0072882733
      4684.69       1.1463945    0.0073300476
      4689.38       1.1448228    0.0073152046
      4694.07       1.1456461    0.0072419599
      4698.76       1.1450662    0.0072262562
      4703.46       1.1437810    0.0072109766
      4708.16       1.1388532    0.0071959771
      4712.87       1.1366418    0.0071814448
      4717.58       1.1373116    0.0071656924
      4722.30       1.1377215    0.0071502507
      4727.03       1.1387335    0.0071350568
      4731.75       1.1426527    0.0071204908
      4736.48       1.1402202    0.0070509482
      4741.22       1.1359528    0.0070908520
      4745.96       1.1292844    0.0070756490
      4750.71       1.1231744    0.0070611150
      4755.46       1.1157529    0.0069920175
      4760.22       1.1114777    0.0069786100
      4764.97       1.1068161    0.0069656620
      4769.74       1.1061170    0.0070027812
      4774.51       1.1017174    0.0069342935
      4779.29       1.1028191    0.0069210419
      4784.07       1.0988533    0.0069083109
      4788.85       1.0960759    0.0068912607
      4793.64       1.0889479    0.0068776852
      4798.43       1.0851875    0.0068647477
      4803.23       1.0815449    0.0068523731
      4808.03       1.0829035    0.0067840787
      4812.84       1.0770980    0.0068223794
      4817.66       1.0726072    0.0068098858
      4822.48       1.0730125    0.0067432403
      4827.30       1.0693688    0.0067298227
      4832.12       1.0617239    0.0067681969
      4836.96       1.0579887    0.0067032149
      4841.79       1.0539885    0.0066895683
      4846.63       1.0505239    0.0066766677
      4851.48       1.0554900    0.0066637152
      4856.33       1.0540324    0.0066500517
      4861.19       1.0514829    0.0066370508
      4866.05       1.0458462    0.0065748179
      4870.92       1.0434074    0.0066111329
      4875.79       1.0392446    0.0065982311
      4880.66       1.0403720    0.0065362386
      4885.55       1.0423862    0.0065728661
      4890.43       1.0440174    0.0065598424
      4895.32       1.0452659    0.0064983368
      4900.22       1.0484433    0.0064871674
      4905.12       1.0468732    0.0065221192
      4910.02       1.0512131    0.0064609790
      4914.94       1.0589061    0.0064500203
      4919.85       1.0621302    0.0064849894
      4924.77       1.0641940    0.0064242829
      4929.70       1.0750032    0.0064136593
      4934.62       1.0873056    0.0063997388
      4939.56       1.0981718    0.0063884196
      4944.50       1.1090548    0.0063780417
      4949.44       1.1158436    0.0063640007
      4954.39       1.1268314    0.0063530589
      4959.35       1.1370170    0.0062940795
      4964.31       1.1504681    0.0063289566
      4969.27       1.1649719    0.0063183678
      4974.24       1.1817875    0.0062593498
      4979.22       1.1958775    0.0062945381
      4984.20       1.2092139    0.0062369489
      4989.18       1.2212994    0.0062253230
      4994.17       1.2373260    0.0062608577
      4999.16       1.2450883    0.0062030572
      5004.16       1.2519793    0.0061921701
      5009.17       1.2614773    0.0061812499
      5014.18       1.2691284    0.0061697828
      5019.19       1.2772805    0.0061145431
      5024.21       1.2880324    0.0061481152
      5029.23       1.2914351    0.0060926706
      5034.26       1.2929404    0.0061267820
      5039.30       1.2979025    0.0061158329
      5044.34       1.3041742    0.0060616203
      5049.39       1.3050115    0.0060947457
      5054.43       1.3068636    0.0060403120
      5059.49       1.3154206    0.0060738420
      5064.55       1.3201480    0.0060193025
      5069.61       1.3233817    0.0060105363
      5074.68       1.3272746    0.0059987169
      5079.76       1.3318693    0.0059897054
      5084.84       1.3335401    0.0059784573
      5089.92       1.3403845    0.0059692780
      5095.01       1.3412477    0.0059159986
      5100.11       1.3427252    0.0059492488
      5105.21       1.3485280    0.0058965627
      5110.31       1.3454221    0.0059295699
      5115.42       1.3468431    0.0058773212
      5120.54       1.3476931    0.0059100735
      5125.66       1.3460509    0.0058583537
      5130.79       1.3467828    0.0058489060
      5135.92       1.3430079    0.0058395702
      5141.05       1.3395002    0.0058300532
      5146.20       1.3369796    0.0058209128
      5151.34       1.3384756    0.0058115979
      5156.49       1.3445201    0.0058026460
      5161.65       1.3404018    0.0057933310
      5166.81       1.3420984    0.0057844999
      5171.98       1.3401501    0.0057753928
      5177.15       1.3446171    0.0057666348
      5182.33       1.3410325    0.0057168830
      5187.51       1.3412007    0.0057489506
      5192.70       1.3404667    0.0056995752
      5197.89       1.3399962    0.0057314396
      5203.09       1.3304479    0.0056824395
      5208.29       1.3195683    0.0057142038
      5213.50       1.3145682    0.0056656822
      5218.72       1.3057952    0.0056972014
      5223.93       1.2997472    0.0056491626
      5229.16       1.2884012    0.0056402397
      5234.39       1.2760900    0.0056330587
      5239.62       1.2741096    0.0056240231
      5244.86       1.2677408    0.0056172423
      5250.11       1.2623084    0.0056080409
      5255.36       1.2619446    0.0055610314
      5260.61       1.2527924    0.0055924181
      5265.87       1.2481357    0.0055452478
      5271.14       1.2456124    0.0055771378
      5276.41       1.2438402    0.0055298168
      5281.69       1.2395007    0.0055224472
      5286.97       1.2410426    0.0055147912
      5292.26       1.2431172    0.0055071206
      5297.55       1.2355589    0.0055004937
      5302.85       1.2276734    0.0054921761
      5308.15       1.2262864    0.0054851581
      5313.46       1.2253080    0.0054777670
      5318.77       1.2253738    0.0054704659
      5324.09       1.2237031    0.0054263477
      5329.42       1.2162848    0.0054561145
      5334.75       1.2122405    0.0054492882
      5340.08       1.2131716    0.0054049620
      5345.42       1.2085659    0.0054350854
      5350.77       1.2036085    0.0053918163
      5356.12       1.1997647    0.0053843111
      5361.48       1.1874390    0.0054146621
      5366.83       1.1826021    0.0053713825
      5372.20       1.1817431    0.0053641545
      5377.58       1.1742382    0.0053592308
      5382.95       1.1703461    0.0053516146
      5388.34       1.1663916    0.0053447130
      5393.72       1.1593527    0.0053022257
      5399.12       1.1498802    0.0053323844
      5404.52       1.1448839    0.0053257141
      5409.92       1.1402572    0.0052834412
      5415.33       1.1345029    0.0053136461
      5420.75       1.1292950    0.0052710569
      5426.17       1.1226588    0.0052651791
      5431.60       1.1155484    0.0052598481
      5437.03       1.1108643    0.0052531299
      5442.47       1.1095652    0.0052473597
      5447.91       1.1053818    0.0052421012
      5453.36       1.0985672    0.0052358542
      5458.81       1.0912180    0.0052300087
      5464.27       1.0840535    0.0052247903
      5469.73       1.0790984    0.0051843590
      5475.20       1.0730756    0.0052132965
      5480.68       1.0673892    0.0052079208
      5486.16       1.0660389    0.0051683454
      5491.65       1.0610580    0.0051625498
      5497.14       1.0577018    0.0051916617
      5502.64       1.0520087    0.0051867277
      5508.14       1.0492699    0.0051471554
      5513.65       1.0500418    0.0051416917
      5519.16       1.0477383    0.0051365952
      5524.68       1.0447478    0.0051324622
      5530.20       1.0391761    0.0051269173
      5535.73       1.0371152    0.0051217099
      5541.27       1.0304754    0.0050828200
      5546.81       1.0273270    0.0050782801
      5552.36       1.0222295    0.0051076802
      5557.91       1.0160289    0.0051026530
      5563.47       1.0049753    0.0050639738
      5569.04      0.99466477    0.0050595753
      5574.60      0.98748076    0.0050554736
      5580.18      0.98314416    0.0050844844
      5585.76      0.98195447    0.0050460215
      5591.35      0.97822602    0.0050416529
      5596.94      0.97426389    0.0050375616
      5602.53      0.97773142    0.0050336850
      5608.14      0.97805609    0.0049965154
      5613.75      0.97953115    0.0050246820
      5619.36      0.98329506    0.0050205821
      5624.98      0.98149233    0.0050166840
      5630.60      0.98136622    0.0050129712
      5636.23      0.98203735    0.0049764091
      5641.87      0.98427374    0.0049723053
      5647.51      0.98202200    0.0049683767
      5653.16      0.98144060    0.0049646393
      5658.82      0.97999536    0.0049932949
      5664.47      0.98102985    0.0049577730
      5670.14      0.97817571    0.0049538833
      5675.81      0.98008045    0.0049501006
      5681.48      0.98071920    0.0049464775
      5687.17      0.98609147    0.0049429739
      5692.85      0.98866364    0.0049074657
      5698.55      0.98713526    0.0049042152
      5704.25      0.99303722    0.0049011419
      5709.95      0.99751821    0.0049298546
      5715.66      0.99759338    0.0049268976
      5721.38      0.99666526    0.0049243475
      5727.10      0.99381159    0.0048895172
      5732.83      0.98938551    0.0048868551
      5738.56      0.98353413    0.0048845697
      5744.30      0.97681524    0.0048833374
      5750.04      0.96911739    0.0048837603
      5755.79      0.96255476    0.0048854297
      5761.55      0.95435763    0.0048872142
      5767.31      0.94859591    0.0048571271
      5773.08      0.94139916    0.0048596764
      5778.85      0.93579750    0.0048620848
      5784.63      0.93412560    0.0048627902
      5790.41      0.92645147    0.0048621359
      5796.21      0.92729038    0.0048608509
      5802.00      0.92068621    0.0048588712
      5807.81      0.91694311    0.0048560643
      5813.61      0.91617272    0.0048526474
      5819.43      0.90971908    0.0048491746
      5825.25      0.90517522    0.0048151577
      5831.07      0.90613929    0.0048122358
      5836.90      0.90212765    0.0048089490
      5842.74      0.89737401    0.0048049577
      5848.58      0.89136714    0.0048004567
      5854.43      0.89084470    0.0047956452
      5860.29      0.88641793    0.0047910516
      5866.15      0.88229054    0.0047861987
      5872.01      0.87894905    0.0047806544
      5877.89      0.87743493    0.0047753749
      5883.76      0.87596071    0.0047712614
      5889.65      0.88084844    0.0047676325
      5895.54      0.87973045    0.0047633891
      5901.43      0.87346833    0.0047592377
      5907.34      0.87557378    0.0047558615
      5913.24      0.87062790    0.0047531075
      5919.16      0.86600489    0.0047506186
      5925.08      0.85990213    0.0047483287
      5931.00      0.85555523    0.0047463527
      5936.93      0.85387939    0.0047445742
      5942.87      0.85310484    0.0047428223
      5948.81      0.84684407    0.0047410773
      5954.76      0.84219001    0.0047394513
      5960.72      0.83936012    0.0047379237
      5966.68      0.83769182    0.0047077203
      5972.64      0.83081694    0.0047063114
      5978.62      0.82664767    0.0047049508
      5984.60      0.82394798    0.0047036935
      5990.58      0.82135934    0.0047024286
      5996.57      0.81880710    0.0047012340
      6002.57      0.81613683    0.0047001248
      6008.57      0.80711625    0.0046990315
      6014.58      0.79777639    0.0046980083
      6020.60      0.78976395    0.0046686742
      6026.62      0.78325654    0.0046674895
      6032.65      0.77418058    0.0046663217
      6038.68      0.76912802    0.0046651783
      6044.72      0.76162905    0.0046641367
      6050.76      0.75410420    0.0046631704
      6056.81      0.75171203    0.0046622419
      6062.87      0.75044234    0.0046338646
      6068.93      0.74548679    0.0046331266
      6075.00      0.74864596    0.0046324902
      6081.08      0.75061093    0.0046319293
      6087.16      0.75327021    0.0046593934
      6093.25      0.75861397    0.0046590954
      6099.34      0.75990447    0.0046335886
      6105.44      0.76465399    0.0046348047
      6111.54      0.76914875    0.0046334352
      6117.66      0.77376798    0.0046337329
      6123.78      0.77584188    0.0046365541
      6129.90      0.78031759    0.0046151989
      6136.03      0.78345381    0.0046228302
      6142.17      0.79001656    0.0046613828
      6148.31      0.79133504    0.0046719016
      6154.46      0.79180245    0.0046822612
      6160.61      0.78903055    0.0046643731
      6166.77      0.78711604    0.0046700178
      6172.94      0.78925454    0.0046727834
      6179.11      0.79203789    0.0046722454
      6185.29      0.79101621    0.0046687441
      6191.48      0.79808705    0.0046610800
      6197.67      0.80090335    0.0046518736
      6203.87      0.80663068    0.0046426245
      6210.07      0.80817169    0.0046078863
      6216.28      0.80447071    0.0046033028
      6222.50      0.80461342    0.0046269255
      6228.72      0.80460202    0.0046210609
      6234.95      0.80999858    0.0045895447
      6241.19      0.81013411    0.0045865350
      6247.42      0.81292850    0.0045839148
      6253.67      0.81464601    0.0046081779
      6259.93      0.82031552    0.0045792038
      6266.19      0.82250071    0.0045775160
      6272.46      0.81885691    0.0045763694
      6278.73      0.82302530    0.0045486346
      6285.01      0.83101606    0.0045752389
      6291.29      0.84030126    0.0045752356
      6297.58      0.84835087    0.0045490936
      6303.88      0.85456599    0.0045489316
      6310.19      0.86410030    0.0045768471
      6316.50      0.86991791    0.0045525986
      6322.81      0.87683874    0.0045546083
      6329.14      0.87731374    0.0045581742
      6335.47      0.87495557    0.0045651702
      6341.80      0.87317614    0.0045679536
      6348.14      0.87356620    0.0045705723
      6354.49      0.87224417    0.0045477602
      6360.85      0.86663448    0.0045775081
      6367.21      0.86546898    0.0045786600
      6373.57      0.86716320    0.0045531977
      6379.95      0.86501723    0.0045529845
      6386.33      0.85936624    0.0045777744
      6392.72      0.85529279    0.0045504458
      6399.11      0.85837384    0.0045495452
      6405.51      0.85928124    0.0045491043
      6411.92      0.85596997    0.0045489470
      6418.32      0.85526006    0.0045492585
      6424.74      0.85491166    0.0045488433
      6431.17      0.85211871    0.0045477606
      6437.60      0.85034269    0.0045203270
      6444.04      0.84942315    0.0045449880
      6450.48      0.84670782    0.0045443067
      6456.94      0.84426726    0.0045173482
      6463.39      0.84129101    0.0045417956
      6469.85      0.84058799    0.0045144767
      6476.33      0.83901329    0.0045131031
      6482.80      0.84042025    0.0045140341
      6489.28      0.84322264    0.0045134665
      6495.77      0.84398005    0.0044887033
      6502.27      0.84064804    0.0045149048
      6508.77      0.84045240    0.0045150268
      6515.28      0.83574793    0.0044909010
      6521.80      0.83344497    0.0045167317
      6528.32      0.83200566    0.0044924110
      6534.85      0.83011014    0.0045186089
      6541.38      0.82610499    0.0044942112
      6547.92      0.82308763    0.0044952474
      6554.47      0.81858130    0.0044962264
      6561.03      0.81245306    0.0044970976
      6567.59      0.80586980    0.0044982300
      6574.16      0.80081677    0.0044990136
      6580.73      0.79334565    0.0044745201
      6587.31      0.78806455    0.0045009432
      6593.90      0.78296254    0.0044765654
      6600.50      0.77831140    0.0045029370
      6607.10      0.77413004    0.0044786088
      6613.70      0.76838981    0.0045049389
      6620.32      0.76129862    0.0044806537
      6626.94      0.75422048    0.0044571510
      6633.57      0.74873581    0.0044826596
      6640.20      0.74200122    0.0044591801
      6646.84      0.73621937    0.0044847215
      6653.49      0.73388343    0.0044612232
      6660.14      0.72879580    0.0044873022
      6666.80      0.72382515    0.0044662318
      6673.47      0.72006456    0.0045015243
      6680.14      0.71147508    0.0044970425
      6686.82      0.70645126    0.0044971402
      6693.51      0.70018199    0.0044946839
      6700.20      0.69536036    0.0045120572
      6706.90      0.69038706    0.0045410568
      6713.61      0.68914100    0.0045936388
      6720.32      0.68996892    0.0046332354
      6727.05      0.68984793    0.0047261307
      6733.77      0.68696127    0.0047754637
      6740.51      0.68558385    0.0048695723
      6747.25      0.68321719    0.0048969453
      6754.00      0.68062953    0.0049337770
      6760.75      0.68073266    0.0049406693
      6767.51      0.68018957    0.0049229487
      6774.28      0.67679515    0.0048794304
      6781.05      0.67666069    0.0048312035
      6787.84      0.67191499    0.0047685853
      6794.62      0.66883499    0.0046956366
      6801.42      0.66200668    0.0046862213
      6808.22      0.65864343    0.0046392646
      6815.03      0.65474296    0.0046047545
      6821.85      0.64940917    0.0045993280
      6828.67      0.64687934    0.0045577125
      6835.50      0.64582877    0.0045425754
      6842.33      0.64463173    0.0045314838
      6849.17      0.64234542    0.0045208926
      6856.02      0.64010629    0.0045148215
      6862.88      0.63698722    0.0045122504
      6869.74      0.63689230    0.0045112676
      6876.61      0.63661299    0.0044871670
      6883.49      0.63570259    0.0044869084
      6890.37      0.63664227    0.0045084888
      6897.27      0.63911366    0.0044804446
      6904.16      0.64034925    0.0044751505
      6911.07      0.64118445    0.0044942558
      6917.98      0.64330626    0.0044659498
      6924.89      0.64742764    0.0044629860
      6931.82      0.64546812    0.0044361697
      6938.75      0.64884127    0.0044558460
      6945.69      0.64690499    0.0044532464
      6952.64      0.64441413    0.0044282038
      6959.59      0.64549371    0.0044275632
      6966.55      0.64541015    0.0044519968
      6973.52      0.64153642    0.0044569435
      6980.49      0.63826724    0.0044394346
      6987.47      0.63635293    0.0044457434
      6994.46      0.63473497    0.0044545604
      7001.46      0.63239678    0.0044660627
      7008.46      0.63213316    0.0044878259
      7015.46      0.63257578    0.0045218713
      7022.48      0.63280153    0.0045427450
      7029.51      0.63502629    0.0045973624
      7036.53      0.63455979    0.0046004478
      7043.57      0.63696635    0.0045610600
      7050.62      0.63630761    0.0045618838
      7057.66      0.63581482    0.0045339612
      7064.72      0.63280372    0.0045008572
      7071.79      0.62923819    0.0044825842
      7078.86      0.62912505    0.0044386625
      7085.94      0.62852974    0.0043731181
      7093.03      0.62557015    0.0043280333
      7100.12      0.62210975    0.0042827983
      7107.22      0.61874228    0.0042583431
      7114.33      0.61936072    0.0042187887
      7121.44      0.61471725    0.0041832811
      7128.56      0.61171341    0.0041485382
      7135.69      0.60794566    0.0040948645
      7142.83      0.60480297    0.0040720588
      7149.97      0.60187437    0.0040270133
      7157.12      0.59803256    0.0039785916
      7164.28      0.59369191    0.0039279311
      7171.44      0.58663474    0.0038763648
      7178.62      0.58172484    0.0038271336
      7185.80      0.57647638    0.0037821623
      7192.98      0.57134736    0.0037283430
      7200.17      0.56534645    0.0037042657
      7207.38      0.56127269    0.0036658817
      7214.58      0.55747805    0.0036278480
      7221.80      0.55131947    0.0035912445
      7229.02      0.54450755    0.0035567184
      7236.25      0.53948836    0.0035243045
      7243.49      0.53243835    0.0034939562
      7250.73      0.52761031    0.0034548407
      7257.98      0.52347319    0.0034271509
      7265.24      0.51946827    0.0034004488
      7272.51      0.51708937    0.0033752715
      7279.78      0.51215902    0.0033509565
      7287.06      0.50748513    0.0033919178
      7294.35      0.50434845    0.0034411087
      7301.64      0.50052298    0.0035002304
      7308.94      0.49696297    0.0035722773
      7316.25      0.49535162    0.0036622616
      7323.57      0.49325713    0.0037845769
      7330.89      0.49086453    0.0039384425
      7338.22      0.48855544    0.0041390341
      7345.56      0.48728963    0.0044031555
      7352.91      0.48579418    0.0047505995
      7360.26      0.48461300    0.0052053265
      7367.62      0.48329804    0.0057975336
      7374.99      0.48185506    0.0065605235
      7382.37      0.48102796    0.0075383025
      7389.75      0.48079793    0.0087766338
      7397.14      0.48200020     0.010337210
