# starting wavelength =        3861.5500
# ending wavelength =        7671.9500
# O2 telluric scale =        0
# O2 telluric shift =        0
# H2O telluric scale =        0
# H2O telluric shift =        0
      3862.78       1.2501198     0.079068574
      3866.64       1.2324603     0.076710949
      3870.51       1.2175548     0.076368064
      3874.38       1.2045897     0.076026013
      3878.26       1.2193023     0.075694153
      3882.13       1.2403138     0.075368414
      3886.02       1.2607174     0.075049425
      3889.90       1.2668739     0.074736600
      3893.79       1.2627236     0.074429769
      3897.69       1.2575332     0.074129066
      3901.59       1.2737909     0.075818099
      3905.49       1.2629000     0.075527101
      3909.39       1.2058746     0.075238630
      3913.30       1.1343338     0.074953784
      3917.22       1.0954278     0.072871702
      3921.13       1.0472266     0.072533080
      3925.06       1.0262384     0.072201048
      3928.98      0.99102358     0.071872940
      3932.91      0.95824433     0.071550702
      3936.84       1.0201050     0.071235855
      3940.78       1.0782958     0.070919347
      3944.72       1.1434364     0.070610320
      3948.67       1.2412972     0.070304998
      3952.61       1.3672066     0.070004022
      3956.57       1.4802560     0.069706846
      3960.52       1.5558257     0.069413416
      3964.48       1.6384781     0.069123651
      3968.45       1.6928134     0.068836836
      3972.42       1.7243724     0.068556104
      3976.39       1.7247870     0.068272887
      3980.37       1.6933199     0.066226404
      3984.35       1.6396399     0.065954294
      3988.33       1.5636303     0.065688618
      3992.32       1.5321398     0.067372487
      3996.31       1.4634382     0.067060605
      4000.31       1.4347590     0.066753173
      4004.31       1.4150680     0.066450794
      4008.31       1.4361516     0.066146372
      4012.32       1.4938013     0.065847783
      4016.33       1.5247564     0.065550951
      4020.35       1.5784355     0.065257765
      4024.37       1.6556021     0.064966578
      4028.40       1.7273514     0.064678570
      4032.42       1.7665022     0.064392469
      4036.46       1.8005391     0.064108987
      4040.50       1.8551689     0.063830242
      4044.54       1.8786760     0.063547802
      4048.58       1.8803016     0.063269979
      4052.63       1.8386624     0.062993515
      4056.68       1.7909202     0.062718769
      4060.74       1.7419413     0.062445569
      4064.80       1.6746020     0.062173688
      4068.86       1.6401769     0.061906303
      4072.93       1.6150239     0.060039128
      4077.01       1.5803995     0.059777382
      4081.08       1.5655003     0.059515234
      4085.17       1.5858513     0.059258690
      4089.25       1.6025456     0.058999063
      4093.34       1.6239018     0.058745153
      4097.43       1.6477641     0.058488050
      4101.53       1.6564196     0.058236178
      4105.63       1.6664368     0.057984055
      4109.74       1.6674633     0.057731366
      4113.85       1.6829951     0.057479315
      4117.96       1.7002959     0.057226450
      4122.08       1.7098561     0.056978329
      4126.20       1.7161566     0.056727230
      4130.33       1.7162436     0.056480564
      4134.46       1.7099083     0.056232968
      4138.59       1.7046303     0.055985961
      4142.73       1.7024407     0.055738500
      4146.88       1.7303799     0.055490537
      4151.02       1.7477792     0.055247126
      4155.18       1.7635136     0.055000782
      4159.33       1.8021324     0.054759274
      4163.49       1.8332524     0.054514666
      4167.65       1.8315718     0.054274466
      4171.82       1.8230249     0.054034075
      4175.99       1.8191023     0.053792923
      4180.17       1.8028490     0.053551935
      4184.35       1.7765466     0.053310392
      4188.54       1.7337626     0.053073122
      4192.72       1.7035648     0.052833158
      4196.92       1.6712637     0.052597268
      4201.11       1.6371948     0.052360605
      4205.31       1.6227763     0.052124553
      4209.52       1.6203538     0.051888276
      4213.73       1.6233044     0.051651597
      4217.94       1.6457599     0.051419626
      4222.16       1.6739765     0.051184897
      4226.38       1.6951795     0.050954807
      4230.61       1.6917041     0.050722187
      4234.84       1.6859937     0.050494180
      4239.08       1.6825408     0.050266319
      4243.32       1.6712698     0.050037963
      4247.56       1.6456046     0.049810451
      4251.81       1.6269803     0.049582640
      4256.06       1.6278410     0.049359497
      4260.32       1.6312704     0.049133802
      4264.58       1.6315920     0.047736611
      4268.84       1.6175232     0.047519857
      4273.11       1.6100152     0.047306220
      4277.38       1.6024602     0.047090709
      4281.66       1.5998221     0.046878764
      4285.94       1.6069758     0.046667890
      4290.23       1.6119524     0.046458901
      4294.52       1.6063900     0.046251149
      4298.81       1.5779997     0.046045277
      4303.11       1.5469826     0.045842817
      4307.42       1.5172512     0.045638761
      4311.72       1.4951959     0.045438261
      4316.04       1.4916971     0.045236528
      4320.35       1.4869053     0.045038171
      4324.67       1.4870237     0.044841618
      4329.00       1.4877270     0.044646850
      4333.33       1.4916610     0.044455939
      4337.66       1.5038321     0.044263615
      4342.00       1.5201875     0.044075634
      4346.34       1.5208767     0.043886851
      4350.69       1.5365252     0.044612289
      4355.04       1.5620678     0.044398350
      4359.39       1.5876179     0.043119796
      4363.75       1.6234528     0.042918426
      4368.12       1.6556936     0.042720384
      4372.48       1.6806584     0.042521452
      4376.86       1.7020277     0.042326824
      4381.23       1.7102709     0.042131291
      4385.61       1.7259817     0.041939930
      4390.00       1.7523862     0.041750439
      4394.39       1.7571150     0.041563650
      4398.79       1.7427761     0.041380825
      4403.18       1.7034003     0.041197625
      4407.59       1.6660676     0.041018830
      4412.00       1.6184047     0.040840022
      4416.41       1.5462801     0.040665378
      4420.82       1.4629053     0.040493712
      4425.25       1.3837981     0.040324865
      4429.67       1.3085092     0.039091256
      4434.10       1.2522764     0.038903685
      4438.54       1.2044642     0.038718814
      4442.97       1.1724699     0.038536027
      4447.42       1.1677400     0.039262377
      4451.86       1.1808129     0.039080989
      4456.32       1.2034959     0.038902218
      4460.77       1.2471283     0.038727078
      4465.24       1.2948639     0.038556573
      4469.70       1.3278705     0.038386816
      4474.17       1.3620376     0.038222000
      4478.65       1.3844638     0.038058183
      4483.12       1.4010813     0.036961542
      4487.61       1.4213207     0.036778259
      4492.09       1.4389666     0.036596370
      4496.59       1.4487150     0.036419577
      4501.08       1.4376234     0.036245969
      4505.58       1.4164711     0.036075522
      4510.09       1.4018913     0.035907357
      4514.60       1.3865830     0.035742957
      4519.12       1.3511488     0.036424686
      4523.63       1.3377855     0.036264357
      4528.16       1.3453271     0.036108298
      4532.69       1.3852300     0.035109504
      4537.22       1.4049872     0.034929055
      4541.76       1.4260156     0.034752318
      4546.30       1.4543750     0.034579353
      4550.85       1.4763804     0.034410421
      4555.40       1.4837983     0.034247217
      4559.95       1.5030258     0.034086992
      4564.51       1.5259854     0.033932323
      4569.08       1.5449114     0.033782022
      4573.65       1.5710703     0.034431261
      4578.22       1.5925651     0.033504269
      4582.80       1.6037229     0.033327543
      4587.38       1.6102990     0.033155342
      4591.97       1.6182564     0.032989521
      4596.56       1.6251604     0.032828172
      4601.16       1.6337020     0.032671170
      4605.76       1.6469701     0.032519004
      4610.37       1.6572083     0.032371632
      4614.98       1.6622208     0.031512875
      4619.59       1.6776075     0.031378713
      4624.21       1.6897972     0.031954477
      4628.84       1.6906937     0.031787903
      4633.47       1.6793176     0.031626412
      4638.10       1.6459309     0.031470250
      4642.74       1.6105809     0.031319106
      4647.38       1.5656080     0.031173536
      4652.03       1.5175972     0.031032825
      4656.68       1.4779358     0.030213086
      4661.34       1.4399109     0.030086936
      4666.00       1.4066173     0.029966012
      4670.67       1.3696338     0.030472768
      4675.33       1.3518676     0.030319296
      4680.01       1.3433467     0.030171258
      4684.69       1.3434369     0.030029137
      4689.38       1.3653373     0.029232802
      4694.07       1.3812783     0.029106437
      4698.76       1.3941755     0.028986741
      4703.46       1.4093373     0.028871135
      4708.16       1.4228940     0.028762244
      4712.87       1.4632432     0.029212702
      4717.58       1.4586224     0.029071091
      4722.30       1.4298740     0.028295614
      4727.03       1.4024593     0.028173116
      4731.75       1.3813495     0.028054938
      4736.48       1.3503531     0.027943933
      4741.22       1.3223904     0.027837492
      4745.96       1.3075051     0.027738510
      4750.71       1.2724830     0.028154407
      4755.46       1.2510922     0.027402522
      4760.22       1.2413450     0.027282720
      4764.97       1.2350652     0.027170300
      4769.74       1.2304889     0.027062644
      4774.51       1.2202288     0.026962487
      4779.29       1.2155524     0.026867242
      4784.07       1.2238837     0.026667314
      4788.85       1.2239391     0.026546749
      4793.64       1.2201139     0.026434011
      4798.43       1.2114292     0.026326487
      4803.23       1.2052147     0.026226788
      4808.03       1.1900489     0.026132667
      4812.84       1.1773916     0.026046727
      4817.66       1.1685093     0.025841890
      4822.48       1.1772033     0.025729269
      4827.30       1.1850521     0.025623875
      4832.12       1.1959342     0.025526605
      4836.96       1.2190334     0.025435267
      4841.79       1.2468994     0.024749135
      4846.63       1.2599910     0.024635354
      4851.48       1.2731916     0.025056410
      4856.33       1.2807085     0.024953998
      4861.19       1.2766905     0.024859110
      4866.05       1.2697490     0.024772015
      4870.92       1.2672731     0.024108565
      4875.79       1.2713737     0.023998739
      4880.66       1.2681359     0.024411380
      4885.55       1.2652659     0.024313650
      4890.43       1.2689305     0.024223856
      4895.32       1.2802592     0.024142215
      4900.22       1.3124776     0.023492191
      4905.12       1.3310458     0.023387731
      4910.02       1.3506506     0.023291096
      4914.94       1.3816331     0.023703485
      4919.85       1.3945261     0.023619708
      4924.77       1.3971357     0.023004939
      4929.70       1.3975167     0.022900260
      4934.62       1.3792827     0.022803431
      4939.56       1.3516903     0.023206286
      4944.50       1.3059155     0.023124075
      4949.44       1.2452509     0.022538286
      4954.39       1.1983754     0.022433110
      4959.35       1.1565135     0.022336275
      4964.31       1.1246110     0.022248163
      4969.27       1.0829782     0.022649240
      4974.24       1.0776910     0.022086640
      4979.22       1.0777874     0.021982690
      4984.20       1.0990978     0.021887471
      4989.18       1.1327175     0.021801055
      4994.17       1.1745688     0.021723530
      4999.16       1.2487225     0.021649987
      5004.16       1.3055201     0.021548678
      5009.17       1.3578995     0.021456679
      5014.18       1.3984757     0.021373574
      5019.19       1.4296119     0.020869031
      5024.21       1.4673023     0.021228090
      5029.23       1.4766452     0.021130906
      5034.26       1.4812480     0.021043108
      5039.30       1.4741027     0.020964689
      5044.34       1.4567213     0.020474317
      5049.39       1.4326752     0.020821995
      5054.43       1.4068876     0.020729310
      5059.49       1.3779307     0.020646763
      5064.55       1.3495952     0.020160214
      5069.61       1.3204434     0.020097782
      5074.68       1.2807491     0.020430981
      5079.76       1.2514573     0.020344562
      5084.84       1.2221957     0.020268226
      5089.92       1.1892714     0.019796492
      5095.01       1.1670241     0.019741831
      5100.11       1.1384871     0.020056712
      5105.21       1.1061509     0.019978377
      5110.31       1.0792697     0.019511488
      5115.42       1.0676164     0.019454398
      5120.54       1.0574411     0.019780578
      5125.66       1.0445338     0.019700554
      5130.79       1.0503636     0.019238715
      5135.92       1.0629836     0.019180967
      5141.05       1.0816048     0.019133291
      5146.20       1.1102291     0.019434399
      5151.34       1.1506294     0.018977075
      5156.49       1.1830052     0.018919766
      5161.65       1.2174094     0.018872669
      5166.81       1.2495727     0.019179679
      5171.98       1.2631143     0.018728496
      5177.15       1.2709556     0.018672208
      5182.33       1.2770926     0.018624972
      5187.51       1.2778320     0.018588284
      5192.70       1.2651973     0.018490068
      5197.89       1.2556623     0.018435044
      5203.09       1.2391436     0.018389426
      5208.29       1.2219441     0.018354719
      5213.50       1.2108459     0.018261794
      5218.72       1.1924262     0.018207894
      5223.93       1.1770996     0.018165052
      5229.16       1.1593816     0.018133327
      5234.39       1.1445550     0.018043881
      5239.62       1.1372062     0.017993162
      5244.86       1.1365486     0.017953775
      5250.11       1.1405098     0.017536543
      5255.36       1.1497536     0.017835569
      5260.61       1.1512196     0.017788524
      5265.87       1.1489990     0.017752992
      5271.14       1.1488384     0.017337655
      5276.41       1.1540364     0.017636941
      5281.69       1.1685787     0.017594724
      5286.97       1.1873422     0.017562963
      5292.26       1.2067649     0.017147990
      5297.55       1.2264054     0.017449205
      5302.85       1.2420719     0.017412404
      5308.15       1.2658663     0.017021288
      5313.46       1.2764348     0.016968754
      5318.77       1.2774560     0.017272524
      5324.09       1.2777751     0.017241371
      5329.42       1.2684653     0.016845985
      5334.75       1.2639910     0.016799337
      5340.08       1.2576781     0.017107006
      5345.42       1.2553503     0.016731922
      5350.77       1.2493359     0.016680676
      5356.12       1.2366043     0.016981569
      5361.48       1.2167933     0.016626096
      5366.83       1.2030497     0.016570608
      5372.20       1.1935484     0.016526926
      5377.58       1.1916725     0.016833689
      5382.95       1.1939371     0.016467898
      5388.34       1.1904894     0.016420749
      5393.72       1.1885273     0.016384562
      5399.12       1.1937198     0.016371755
      5404.52       1.1908500     0.016320712
      5409.92       1.1837884     0.016282043
      5415.33       1.1641163     0.016281417
      5420.75       1.1514143     0.016227082
      5426.17       1.1464403     0.016185839
      5431.60       1.1267052     0.015865744
      5437.03       1.1132502     0.016140209
      5442.47       1.1036119     0.016096333
      5447.91       1.0871706     0.015776195
      5453.36       1.0674458     0.016058423
      5458.81       1.0559364     0.016012070
      5464.27       1.0463167     0.015979229
      5469.73       1.0344568     0.015980637
      5475.20       1.0378161     0.015933015
      5480.68       1.0456217     0.015898640
      5486.16       1.0617177     0.015593151
      5491.65       1.0706164     0.015858447
      5497.14       1.0858366     0.015823372
      5502.64       1.0968947     0.015519210
      5508.14       1.1030875     0.015788740
      5513.65       1.1064008     0.015753227
      5519.16       1.1084290     0.015450832
      5524.68       1.1045237     0.015722819
      5530.20       1.1020275     0.015687207
      5535.73       1.0912129     0.015386703
      5541.27       1.0838710     0.015660741
      5546.81       1.0661905     0.015346874
      5552.36       1.0448502     0.015327105
      5557.91       1.0227726     0.015602093
      5563.47       1.0010048     0.015291259
      5569.04      0.97871306     0.015272244
      5574.60      0.95685846     0.015266754
      5580.18      0.93992393     0.015239295
      5585.76      0.93188668     0.015222240
      5591.35      0.92470544     0.015218300
      5596.94      0.91170593     0.015190985
      5602.53      0.90310172     0.015176033
      5608.14      0.89323664     0.015174055
      5613.75      0.88746385     0.015146610
      5619.36      0.88431582     0.015134020
      5624.98      0.88639326     0.015135029
      5630.60      0.87912456     0.015106637
      5636.23      0.87769595     0.015096578
      5641.87      0.87430932     0.014802530
      5647.51      0.87667394     0.015070369
      5653.16      0.88007631     0.015064096
      5658.82      0.88116464     0.014767414
      5664.47      0.88447653     0.015037965
      5670.14      0.88432811     0.015035685
      5675.81      0.87884687     0.015022998
      5681.48      0.87149554     0.015009893
      5687.17      0.85929438     0.014729750
      5692.85      0.85910933     0.014994664
      5698.55      0.85268822     0.014986804
      5704.25      0.84284673     0.014701337
      5709.95      0.83521375     0.014971410
      5715.66      0.82840077     0.014969435
      5721.38      0.82797430     0.014680193
      5727.10      0.82143478     0.014957412
      5732.83      0.81850777     0.014684437
      5738.56      0.80720313     0.014664525
      5744.30      0.79847394     0.014949341
      5750.04      0.79934239     0.014678423
      5755.79      0.80525052     0.014962262
      5761.55      0.81303351     0.014713347
      5767.31      0.81418400     0.014698699
      5773.08      0.81953945     0.014993814
      5778.85      0.81826252     0.014737177
      5784.63      0.81538214     0.014728251
      5790.41      0.80381235     0.014767324
      5796.21      0.79373839     0.014743600
      5802.00      0.79129289     0.015027187
      5807.81      0.78292408     0.014754623
      5813.61      0.78271480     0.014734293
      5819.43      0.78671023     0.014763794
      5825.25      0.80120489     0.014735312
      5831.07      0.82344849     0.014724237
      5836.90      0.85389630     0.014742955
      5842.74      0.89108568     0.014721240
      5848.58      0.93625408     0.014747139
      5854.43      0.97610121     0.014715011
      5860.29       1.0358640     0.014460365
      5866.15       1.0894168     0.014712061
      5872.01       1.1296733     0.014688165
      5877.89       1.1721260     0.014708152
      5883.76       1.1964889     0.014679575
      5889.65       1.2093195     0.014431444
      5895.54       1.2146603     0.014681879
      5901.43       1.1919486     0.014425556
      5907.34       1.1624983     0.014688127
      5913.24       1.1338145     0.014665839
      5919.16       1.0918475     0.014425642
      5925.08       1.0470718     0.014677580
      5931.00       1.0125643     0.014431748
      5936.93      0.96814331     0.014694780
      5942.87      0.94177958     0.014443181
      5948.81      0.91989644     0.014447089
      5954.76      0.90192647     0.014694732
      5960.72      0.88920810     0.014456544
      5966.68      0.88208708     0.014713028
      5972.64      0.88064053     0.014469086
      5978.62      0.87300199     0.014734249
      5984.60      0.86993823     0.014484503
      5990.58      0.86313446     0.014490631
      5996.57      0.85971999     0.014501930
      6002.57      0.84696277     0.014503056
      6008.57      0.82849332     0.014758703
      6014.58      0.80869757     0.014518150
      6020.60      0.79283790     0.014780942
      6026.62      0.77841183     0.014535015
      6032.65      0.76606876     0.014545709
      6038.68      0.75888476     0.014552872
      6044.72      0.75092085     0.014559780
      6050.76      0.73997233     0.014572694
      6056.81      0.73423321     0.014575649
      6062.87      0.73319905     0.014593595
      6068.93      0.73440698     0.014592574
      6075.00      0.74211088     0.014349420
      6081.08      0.74888925     0.014611286
      6087.16      0.75046303     0.014372076
      6093.25      0.75448604     0.014632332
      6099.34      0.76537991     0.014403149
      6105.44      0.77165556     0.014666490
      6111.54      0.77391716     0.014676790
      6117.66      0.76721650     0.014687593
      6123.78      0.76317424     0.014699732
      6129.90      0.75885046     0.014466635
      6136.03      0.75698555     0.014759027
      6142.17      0.74430130     0.014545218
      6148.31      0.73594126     0.014848088
      6154.46      0.73580702     0.014636689
      6160.61      0.72445676     0.014939266
      6166.77      0.72179676     0.014712206
      6172.94      0.71498230     0.015000419
      6179.11      0.70371764     0.014747599
      6185.29      0.69915819     0.015012748
      6191.48      0.69336531     0.014738097
      6197.67      0.68601654     0.014982323
      6203.87      0.68735624     0.014702292
      6210.07      0.69548545     0.014945893
      6216.28      0.70108591     0.014683571
      6222.50      0.70241355     0.014670575
      6228.72      0.70513250     0.014677384
      6234.95      0.70276122     0.014658386
      6241.19      0.70060007     0.014670605
      6247.42      0.69553220     0.014656216
      6253.67      0.68664228     0.014671887
      6259.93      0.67620987     0.014658672
      6266.19      0.66646603     0.014677081
      6272.46      0.65795745     0.014665706
      6278.73      0.64526204     0.014686915
      6285.01      0.62539776     0.014457928
      6291.29      0.60958561     0.014701920
      6297.58      0.59133647     0.014475299
      6303.88      0.58066199     0.014718790
      6310.19      0.57814106     0.014493649
      6316.50      0.57733304     0.014740734
      6322.81      0.58917209     0.014521292
      6329.14      0.60130178     0.014775082
      6335.47      0.61125937     0.014563149
      6341.80      0.62373026     0.014817105
      6348.14      0.63867373     0.014600377
      6354.49      0.65182136     0.014850858
      6360.85      0.66236596     0.014633898
      6367.21      0.67447646     0.014878098
      6373.57      0.68059344     0.014657286
      6379.95      0.68122963     0.014664888
      6386.33      0.68299135     0.014667167
      6392.72      0.68120996     0.014666740
      6399.11      0.68274969     0.014670918
      6405.51      0.67765709     0.014669242
      6411.92      0.67863131     0.014915928
      6418.32      0.68032781     0.014678202
      6424.74      0.68360975     0.014919869
      6431.17      0.68458975     0.014682203
      6437.60      0.68939546     0.014687165
      6444.04      0.69043589     0.014680264
      6450.48      0.68397070     0.014683549
      6456.94      0.67551942     0.014682288
      6463.39      0.66119446     0.014678594
      6469.85      0.65570339     0.014678616
      6476.33      0.64217411     0.014671858
      6482.80      0.63499258     0.014437386
      6489.28      0.62618513     0.014673205
      6495.77      0.62383823     0.014436656
      6502.27      0.62059756     0.014677218
      6508.77      0.62500791     0.014683679
      6515.28      0.63282214     0.014683669
      6521.80      0.64878460     0.014684896
      6528.32      0.66722881     0.014453283
      6534.85      0.68495387     0.014685723
      6541.38      0.70860564     0.014449082
      6547.92      0.73125221     0.014687765
      6554.47      0.74734615     0.014445973
      6561.03      0.76150183     0.014690008
      6567.59      0.76094011     0.014688399
      6574.16      0.74353081     0.014454260
      6580.73      0.72676505     0.014685121
      6587.31      0.70032956     0.014445205
      6593.90      0.67913690     0.014682443
      6600.50      0.64856424     0.014436446
      6607.10      0.61416030     0.014448508
      6613.70      0.59507975     0.014428212
      6620.32      0.56937812     0.014434005
      6626.94      0.55115881     0.014665526
      6633.57      0.55017853     0.014419510
      6640.20      0.55597690     0.014430465
      6646.84      0.56286963     0.014406045
      6653.49      0.58352556     0.014409798
      6660.14      0.61480298     0.014425751
      6666.80      0.63508222     0.014393206
      6673.47      0.66765814     0.014434646
      6680.14      0.68477211     0.014439377
      6686.82      0.70142726     0.014463465
      6693.51      0.70787513     0.014231769
      6700.20      0.70948942     0.014457870
      6706.90      0.70396558     0.014589192
      6713.61      0.69581905     0.014651361
      6720.32      0.67667451     0.014883509
      6727.05      0.65540716     0.014835793
      6733.77      0.62922261     0.015284847
      6740.51      0.60376070     0.015558881
      6747.25      0.57969748     0.015430226
      6754.00      0.55670108     0.015796405
      6760.75      0.54229444     0.015554948
      6767.51      0.52870974     0.015488299
      6774.28      0.51480044     0.015597830
      6781.05      0.50765032     0.015202900
      6787.84      0.50478515     0.015212765
      6794.62      0.50344883     0.014995089
      6801.42      0.50038861     0.014650414
      6808.22      0.50078071     0.014790148
      6815.03      0.50318580     0.014462046
      6821.85      0.50464213     0.014305627
      6828.67      0.50356551     0.014445312
      6835.50      0.50236097     0.014163508
      6842.33      0.50430298     0.014083361
      6849.17      0.50151648     0.014052497
      6856.02      0.49897481     0.013986417
      6862.88      0.49570048     0.013942918
      6869.74      0.49342538     0.013925110
      6876.61      0.49032431     0.013884876
      6883.49      0.48933693     0.013850325
      6890.37      0.48417451     0.013827920
      6897.27      0.48185322     0.013774591
      6904.16      0.47357071     0.013721036
      6911.07      0.46836480     0.013689774
      6917.98      0.46269351     0.013631454
      6924.89      0.45476947     0.013380654
      6931.82      0.44668792     0.013552692
      6938.75      0.44080852     0.013494300
      6945.69      0.43370857     0.013246906
      6952.64      0.42618703     0.013416647
      6959.59      0.41989552     0.013363988
      6966.55      0.41957416     0.013129472
      6973.52      0.41766466     0.013107724
      6980.49      0.41547681     0.013278869
      6987.47      0.41130963     0.013050912
      6994.46      0.41401518     0.013041577
      7001.46      0.42161986     0.013229511
      7008.46      0.43638208     0.013045050
      7015.46      0.45531021     0.013112346
      7022.48      0.46767459     0.013361209
      7029.51      0.48519839     0.013264161
      7036.53      0.50389728     0.013387667
      7043.57      0.51842495     0.013475420
      7050.62      0.53066860     0.013470397
      7057.66      0.54279793     0.013477093
      7064.72      0.54767010     0.013449373
      7071.79      0.55168708     0.013398271
      7078.86      0.55540612     0.013314799
      7085.94      0.55433294     0.013218649
      7093.03      0.54959397     0.012959412
      7100.12      0.54313769     0.013067691
      7107.22      0.52650328     0.013015275
      7114.33      0.50804193     0.012973508
      7121.44      0.49197044     0.012919392
      7128.56      0.47923795     0.012849022
      7135.69      0.47095139     0.012755239
      7142.83      0.45886869     0.012467636
      7149.97      0.44833557     0.012531822
      7157.12      0.43734753     0.012395916
      7164.28      0.42447008     0.012111312
      7171.44      0.41373900     0.011968023
      7178.62      0.40280159     0.012020310
      7185.80      0.39643951     0.011866219
      7192.98      0.39250119     0.011575146
      7200.17      0.38741083     0.011428562
      7207.38      0.38766102     0.011485805
      7214.58      0.39466089     0.011223480
      7221.80      0.40033770     0.011095320
      7229.02      0.40339365     0.011163421
      7236.25      0.40955821     0.010924545
      7243.49      0.41616287     0.010810195
      7250.73      0.42893653     0.010697286
      7257.98      0.43546127     0.010457383
      7265.24      0.44547892     0.010349781
      7272.51      0.44980083     0.010124743
      7279.78      0.45290120    0.0099024071
      7287.06      0.45056670    0.0097993073
      7294.35      0.44679831    0.0095993332
      7301.64      0.44367178    0.0094948134
      7308.94      0.43493423    0.0092921977
      7316.25      0.42066012    0.0090571198
      7323.57      0.41569303    0.0088698253
      7330.89      0.40691723    0.0087734515
      7338.22      0.39869819    0.0085874827
      7345.56      0.39148777    0.0084090046
      7352.91      0.38592006    0.0083123900
      7360.26      0.37891674    0.0081761339
      7367.62      0.37567469    0.0081836313
      7374.99      0.37672877    0.0081120467
      7382.37      0.37790735    0.0080178844
      7389.75      0.38037654    0.0078286927
      7397.14      0.38103969    0.0075962303
      7404.53      0.38410987    0.0075745678
      7411.94      0.38101967    0.0075533659
      7419.35      0.38045352    0.0076787607
      7426.77      0.37746381    0.0077176951
      7434.20      0.37502062    0.0079048322
      7441.63      0.37153566    0.0079940297
      7449.07      0.36671538    0.0081548537
      7456.52      0.35933550    0.0080489193
      7463.98      0.35784665    0.0079371396
      7471.45      0.35705765    0.0078873742
      7478.92      0.35463073    0.0076873630
      7486.40      0.35376045    0.0074988453
      7493.88      0.34957293    0.0072227927
      7501.38      0.34675109    0.0069534192
      7508.88      0.34587956    0.0066348664
      7516.39      0.35127551    0.0062181858
      7523.91      0.35163255    0.0059294003
      7531.43      0.35077183    0.0056676409
      7538.96      0.34757314    0.0054570024
      7546.50      0.37150886    0.0052285364
      7554.05      0.36962119    0.0051993621
      7561.60      0.36734546    0.0052378490
      7569.16      0.36620075    0.0052489074
      7576.73      0.36451233    0.0052737857
      7584.31      0.36719848    0.0053939655
      7591.89      0.36880953    0.0057622675
      7599.49      0.37097395    0.0060490052
      7607.09      0.36540154    0.0062295205
      7614.70      0.35817708    0.0064997652
      7622.31      0.34878730    0.0073280881
      7629.93      0.33797801    0.0079696689
      7637.56      0.32383285    0.0085060464
      7645.20      0.30690877    0.0093322731
      7652.85      0.28672938     0.011088014
      7660.50      0.26395503     0.012113758
      7668.16      0.23587681     0.013857128
