# starting wavelength =        2948.3800
# ending wavelength =        8746.5900
# O2 telluric scale =       0.11415885
# O2 telluric shift =        6.2436108
# H2O telluric scale =        0
# H2O telluric shift =        0
      2949.13       1.8262475      0.15533529
      2952.08       1.8893528      0.12828286
      2955.03       1.9292597      0.10413041
      2957.99       1.9553151     0.094557432
      2960.94       1.9754575     0.079201858
      2963.90       1.9785136     0.073246239
      2966.87       1.9589717     0.065617765
      2969.84       1.9414280     0.058333684
      2972.81       1.9306240     0.055378242
      2975.78       1.9212094     0.050981284
      2978.76       1.9138385     0.047989688
      2981.73       1.9025274     0.046349156
      2984.72       1.8850028     0.044144167
      2987.70       1.8563271     0.042959219
      2990.69       1.8112450     0.041124283
      2993.68       1.7921324     0.039876475
      2996.67       1.7854428     0.039038932
      2999.67       1.7769083     0.038164012
      3002.67       1.7684278     0.036831903
      3005.67       1.7554603     0.036346509
      3008.68       1.7425490     0.035875238
      3011.69       1.7252647     0.035419121
      3014.70       1.6999885     0.034515319
      3017.71       1.6911447     0.034066605
      3020.73       1.6798482     0.033631412
      3023.75       1.6682990     0.033333355
      3026.78       1.6591292     0.032353433
      3029.80       1.6558329     0.031938979
      3032.83       1.6521050     0.031663402
      3035.87       1.6548113     0.030733823
      3038.90       1.6571951     0.030340905
      3041.94       1.6571275     0.030084917
      3044.98       1.6669051     0.029693190
      3048.03       1.6876522     0.028831550
      3051.08       1.6944070     0.028595342
      3054.13       1.6973743     0.028224058
      3057.18       1.7139692     0.028013345
      3060.24       1.7095115     0.027191557
      3063.30       1.7096284     0.026840961
      3066.36       1.7182411     0.026645214
      3069.43       1.7247883     0.026318466
      3072.50       1.7220537     0.025541801
      3075.57       1.7438163     0.025360506
      3078.65       1.7655192     0.025053314
      3081.73       1.7870354     0.024456263
      3084.81       1.8025837     0.024157122
      3087.89       1.8166558     0.023869786
      3090.98       1.8230284     0.023698683
      3094.07       1.8342536     0.023031537
      3097.17       1.8445974     0.022763069
      3100.26       1.8595407     0.022608303
      3103.36       1.8612150     0.021981251
      3106.47       1.8672767     0.021851240
      3109.58       1.8762621     0.021592179
      3112.68       1.8905269     0.021344583
      3115.80       1.8969231     0.020888337
      3118.91       1.9021475     0.020647861
      3122.03       1.9078125     0.020549467
      3125.15       1.8941357     0.019995079
      3128.28       1.8926194     0.019773428
      3131.41       1.8975359     0.019689948
      3134.54       1.9037032     0.019170016
      3137.67       1.8958680     0.019091738
      3140.81       1.8850980     0.018897803
      3143.95       1.8754572     0.018714397
      3147.10       1.8597210     0.018346478
      3150.24       1.8500284     0.018169260
      3153.39       1.8327369     0.018111794
      3156.55       1.8208940     0.017662889
      3159.70       1.8108033     0.017502272
      3162.86       1.7998996     0.017456645
      3166.03       1.7828392     0.017038863
      3169.19       1.7632075     0.017012460
      3172.36       1.7452640     0.016860119
      3175.54       1.7305927     0.016602814
      3178.71       1.7236150     0.016456078
      3181.89       1.7145688     0.016319731
      3185.07       1.7033998     0.016085016
      3188.26       1.6968933     0.015953956
      3191.45       1.6858613     0.015965884
      3194.64       1.6822388     0.015619446
      3197.83       1.6757960     0.015636860
      3201.03       1.6674929     0.015530054
      3204.23       1.6588329     0.015203552
      3207.44       1.6529623     0.015235583
      3210.64       1.6497239     0.015143649
      3213.85       1.6472881     0.015180155
      3217.07       1.6467917     0.014881846
      3220.28       1.6414124     0.014934123
      3223.51       1.6387749     0.014847810
      3226.73       1.6426854     0.014572527
      3229.96       1.6493575     0.014632158
      3233.19       1.6504644     0.014366660
      3236.42       1.6422670     0.014441036
      3239.66       1.6428362     0.014372043
      3242.90       1.6515922     0.014273147
      3246.14       1.6544637     0.014207497
      3249.39       1.6579886     0.014303569
      3252.64       1.6608138     0.014064719
      3255.89       1.6585392     0.014165362
      3259.14       1.6531384     0.014122129
      3262.40       1.6401422     0.014047627
      3265.67       1.6330664     0.014006916
      3268.93       1.6281394     0.013975898
      3272.20       1.6121825     0.013910605
      3275.47       1.6037712     0.013881822
      3278.75       1.5942412     0.014006203
      3282.03       1.5863152     0.013805504
      3285.31       1.5805713     0.013941813
      3288.60       1.5768643     0.013915433
      3291.88       1.5678431     0.013892950
      3295.18       1.5672449     0.013867914
      3298.47       1.5627505     0.013858509
      3301.77       1.5685550     0.013834489
      3305.07       1.5816470     0.013999170
      3308.38       1.5952062     0.013813985
      3311.69       1.6024724     0.013981115
      3315.00       1.6149243     0.013978414
      3318.31       1.6264528     0.013974384
      3321.63       1.6421833     0.013971927
      3324.95       1.6673620     0.014150186
      3328.28       1.6937671     0.013976081
      3331.61       1.7191651     0.014162545
      3334.94       1.7333101     0.013988840
      3338.27       1.7530399     0.014182913
      3341.61       1.7688804     0.014178613
      3344.95       1.7804644     0.014210137
      3348.30       1.7895103     0.014204860
      3351.65       1.7901828     0.014416150
      3355.00       1.7835714     0.014236413
      3358.35       1.7754032     0.014447648
      3361.71       1.7802756     0.014272002
      3365.07       1.7916967     0.014482700
      3368.44       1.7983537     0.014497103
      3371.81       1.7982641     0.014519895
      3375.18       1.7988327     0.014532750
      3378.56       1.8053153     0.014558665
      3381.94       1.8136837     0.014569675
      3385.32       1.8171858     0.014782670
      3388.70       1.8192431     0.014605826
      3392.09       1.8256239     0.014820992
      3395.48       1.8302263     0.014640065
      3398.88       1.8337703     0.014856518
      3402.28       1.8403386     0.015086741
      3405.68       1.8461150     0.014887956
      3409.09       1.8553525     0.015114277
      3412.49       1.8654504     0.014914691
      3415.91       1.8733364     0.015136973
      3419.32       1.8845176     0.015145260
      3422.74       1.9014865     0.015153429
      3426.17       1.9028743     0.015158022
      3429.59       1.8931364     0.015163514
      3433.02       1.8843858     0.015164231
      3436.45       1.8825269     0.015376025
      3439.89       1.8875041     0.015394987
      3443.33       1.8946667     0.015371906
      3446.78       1.8908159     0.015386602
      3450.22       1.8928211     0.015359868
      3453.67       1.8987685     0.015592999
      3457.13       1.9025143     0.015339973
      3460.58       1.9088489     0.015568073
      3464.04       1.9112293     0.015312923
      3467.51       1.9141633     0.015536514
      3470.98       1.9093539     0.015517379
      3474.45       1.9133026     0.015498009
      3477.92       1.9166161     0.015709111
      3481.40       1.9320079     0.015453036
      3484.88       1.9512187     0.015659682
      3488.37       1.9747331     0.015649651
      3491.86       1.9908856     0.015602931
      3495.35       1.9950484     0.015587477
      3498.84       1.9921338     0.015539086
      3502.34       1.9752714     0.015765366
      3505.84       1.9691329     0.015468267
      3509.35       1.9742294     0.015691833
      3512.86       1.9859977     0.015642383
      3516.37       1.9972285     0.015612549
      3519.89       2.0149656     0.015557792
      3523.41       2.0328933     0.015527667
      3526.93       2.0415936     0.015468117
      3530.46       2.0568085     0.015682480
      3533.99       2.0662686     0.015372258
      3537.53       2.0705167     0.015579578
      3541.06       2.0942315     0.015270666
      3544.60       2.1224837     0.015470737
      3548.15       2.1415507     0.015163637
      3551.70       2.1530651     0.015356935
      3555.25       2.1510458     0.015052333
      3558.80       2.1574713     0.015238536
      3562.36       2.1548545     0.014936823
      3565.92       2.1440961     0.015115826
      3569.49       2.1395066     0.014817393
      3573.06       2.1328269     0.014739295
      3576.64       2.1334291     0.014694615
      3580.21       2.1287755     0.014610114
      3583.79       2.1319457     0.014567827
      3587.38       2.1368001     0.014477043
      3590.96       2.1373428     0.014437480
      3594.55       2.1295162     0.014340395
      3598.15       2.1300243     0.014039859
      3601.75       2.1272362     0.014201341
      3605.35       2.1299818     0.014112677
      3608.96       2.1385882     0.014060047
      3612.56       2.1455564     0.013965318
      3616.18       2.1455840     0.013916741
      3619.79       2.1368187     0.013815970
      3623.41       2.1412193     0.013521860
      3627.04       2.1392344     0.013665465
      3630.66       2.1392376     0.013367944
      3634.29       2.1456454     0.013512803
      3637.93       2.1439297     0.013212152
      3641.57       2.1377169     0.013358500
      3645.21       2.1298710     0.013252374
      3648.86       2.1239785     0.012962851
      3652.50       2.1222890     0.013091748
      3656.16       2.1148246     0.012799638
      3659.81       2.1060699     0.012931035
      3663.47       2.0973747     0.012636343
      3667.14       2.0853393     0.012543845
      3670.80       2.0677685     0.012659562
      3674.48       2.0630859     0.012374961
      3678.15       2.0637090     0.012493766
      3681.83       2.0578915     0.012206568
      3685.51       2.0550879     0.012112398
      3689.20       2.0538773     0.012038970
      3692.88       2.0563967     0.011939090
      3696.58       2.0561485     0.012047688
      3700.27       2.0643086     0.011767576
      3703.98       2.0732744     0.011672059
      3707.68       2.0730648     0.011597959
      3711.39       2.0764212     0.011497100
      3715.10       2.0806110     0.011238171
      3718.81       2.0799469     0.011324902
      3722.53       2.0726532     0.011228462
      3726.26       2.0705012     0.011154829
      3729.98       2.0674098     0.011052999
      3733.71       2.0627381     0.010801553
      3737.45       2.0569742     0.010880394
      3741.18       2.0503943     0.010782772
      3744.93       2.0565558     0.010530257
      3748.67       2.0579020     0.010609390
      3752.42       2.0591841     0.010368005
      3756.17       2.0629276     0.010440206
      3759.93       2.0690940     0.010341509
      3763.69       2.0676947     0.010100838
      3767.45       2.0731317     0.010172692
      3771.22       2.0758503    0.0099432078
      3774.99       2.0793302    0.0098375689
      3778.77       2.0831232    0.0099087240
      3782.54       2.0821007    0.0096808191
      3786.33       2.0754463    0.0095791085
      3790.11       2.0621071    0.0096494752
      3793.90       2.0516446    0.0094242565
      3797.70       2.0457147    0.0093264299
      3801.50       2.0470154    0.0092752412
      3805.30       2.0510623    0.0091743505
      3809.10       2.0522113    0.0090808037
      3812.91       2.0635797    0.0090287247
      3816.73       2.0830014    0.0089321323
      3820.54       2.0941028    0.0089955970
      3824.36       2.1131956    0.0087899434
      3828.19       2.1360037    0.0086969710
      3832.02       2.1546965    0.0086545602
      3835.85       2.1716961    0.0085590789
      3839.68       2.1991747    0.0086168384
      3843.52       2.2217349    0.0087906740
      3847.37       2.2491860    0.0091241426
      3851.22       2.2726058    0.0095631569
      3855.07       2.2973861    0.0082096768
      3858.92       2.3129347    0.0084422311
      3862.78       2.3254089    0.0086036056
      3866.64       2.3356080    0.0087878688
      3870.51       2.3451557    0.0092278565
      3874.38       2.3574902    0.0095073471
      3878.26       2.3578267    0.0095346131
      3882.13       2.3505535    0.0098284940
      3886.02       2.3517688    0.0093400942
      3889.90       2.3397990    0.0090210134
      3893.79       2.3302031    0.0087906924
      3897.69       2.3238456    0.0082443155
      3901.59       2.3165636    0.0078830621
      3905.49       2.3047837    0.0076244636
      3909.39       2.2958091    0.0073510845
      3913.30       2.2924168    0.0074917587
      3917.22       2.2830169    0.0078294847
      3921.13       2.2780860    0.0075705007
      3925.06       2.2707910    0.0072383750
      3928.98       2.2650369    0.0069658251
      3932.91       2.2582624    0.0070266553
      3936.84       2.2437680    0.0068767810
      3940.78       2.2268795    0.0068277435
      3944.72       2.2102929    0.0067830679
      3948.67       2.1955911    0.0067457750
      3952.61       2.1727485    0.0066991990
      3956.57       2.1544540    0.0066569362
      3960.52       2.1398655    0.0065224777
      3964.48       2.1252501    0.0065795926
      3968.45       2.1195819    0.0065392009
      3972.42       2.1081451    0.0064117879
      3976.39       2.0998785    0.0064685444
      3980.37       2.0921380    0.0064300697
      3984.35       2.0856754    0.0063953832
      3988.33       2.0842918    0.0062707953
      3992.32       2.0821435    0.0063300346
      3996.31       2.0906478    0.0062971093
      4000.31       2.0908884    0.0061798249
      4004.31       2.0923325    0.0061457716
      4008.31       2.0912536    0.0062073819
      4012.32       2.0890117    0.0060971746
      4016.33       2.0895119    0.0060646685
      4020.35       2.0919422    0.0060350217
      4024.37       2.0932470    0.0060983634
      4028.40       2.0957673    0.0059915351
      4032.42       2.0985479    0.0059632377
      4036.46       2.1002488    0.0059380973
      4040.50       2.1083505    0.0060034921
      4044.54       2.1128060    0.0058999784
      4048.58       2.1171031    0.0058758923
      4052.63       2.1215283    0.0058543316
      4056.68       2.1207279    0.0058446117
      4060.74       2.1176080    0.0058213521
      4064.80       2.1205076    0.0058007004
      4068.86       2.1238692    0.0057826010
      4072.93       2.1218910    0.0056861250
      4077.01       2.1194948    0.0057547621
      4081.08       2.1153321    0.0057373230
      4085.17       2.1089462    0.0057220960
      4089.25       2.1036897    0.0056287634
      4093.34       2.0966651    0.0056999924
      4097.43       2.0870655    0.0056854018
      4101.53       2.0763778    0.0056730183
      4105.63       2.0637091    0.0055819918
      4109.74       2.0499835    0.0055733850
      4113.85       2.0356199    0.0056436142
      4117.96       2.0275256    0.0056318159
      4122.08       2.0179113    0.0055444316
      4126.20       2.0067527    0.0055379648
      4130.33       1.9922408    0.0055333667
      4134.46       1.9777947    0.0056036683
      4138.59       1.9664325    0.0055165553
      4142.73       1.9634997    0.0055118345
      4146.88       1.9560335    0.0055088803
      4151.02       1.9492106    0.0055076376
      4155.18       1.9439098    0.0055785697
      4159.33       1.9380126    0.0054940838
      4163.49       1.9277417    0.0054922641
      4167.65       1.9172725    0.0054920315
      4171.82       1.9072048    0.0054933351
      4175.99       1.8957947    0.0054840044
      4180.17       1.8873920    0.0054833444
      4184.35       1.8755325    0.0054843036
      4188.54       1.8626300    0.0054864262
      4192.72       1.8486588    0.0054899653
      4196.92       1.8395275    0.0054119564
      4201.11       1.8319970    0.0054836148
      4205.31       1.8204847    0.0054863665
      4209.52       1.8113710    0.0054901388
      4213.73       1.7997816    0.0054951360
      4217.94       1.7903578    0.0054196991
      4222.16       1.7842266    0.0054226589
      4226.38       1.7741029    0.0054966440
      4230.61       1.7713114    0.0055019891
      4234.84       1.7625671    0.0055081645
      4239.08       1.7555495    0.0054359433
      4243.32       1.7458393    0.0054400455
      4247.56       1.7371969    0.0054449126
      4251.81       1.7308706    0.0054508562
      4256.06       1.7205522    0.0055274149
      4260.32       1.7129309    0.0054588100
      4264.58       1.7052527    0.0054633853
      4268.84       1.6935965    0.0054687891
      4273.11       1.6883825    0.0054749974
      4277.38       1.6854255    0.0054819887
      4281.66       1.6820409    0.0054897027
      4285.94       1.6760477    0.0054926417
      4290.23       1.6726507    0.0054982043
      4294.52       1.6663344    0.0055042574
      4298.81       1.6592846    0.0055110767
      4303.11       1.6576226    0.0055884790
      4307.42       1.6579157    0.0055888315
      4311.72       1.6576062    0.0054596006
      4316.04       1.6544776    0.0054765948
      4320.35       1.6527712    0.0055825764
      4324.67       1.6537564    0.0056490434
      4329.00       1.6536133    0.0057285483
      4333.33       1.6544977    0.0058080408
      4337.66       1.6541538    0.0058766920
      4342.00       1.6574781    0.0058429282
      4346.34       1.6630316    0.0058548315
      4350.69       1.6631327    0.0058473924
      4355.04       1.6694829    0.0058162146
      4359.39       1.6741902    0.0058552459
      4363.75       1.6819090    0.0057897895
      4368.12       1.6869902    0.0057230904
      4372.48       1.6925498    0.0055893614
      4376.86       1.6932311    0.0055559872
      4381.23       1.6966806    0.0055643687
      4385.61       1.7068222    0.0056553287
      4390.00       1.7113037    0.0056610960
      4394.39       1.7153899    0.0055885621
      4398.79       1.7196456    0.0055971681
      4403.18       1.7238119    0.0056058807
      4407.59       1.7297972    0.0055989678
      4412.00       1.7371870    0.0056059778
      4416.41       1.7458692    0.0056130573
      4420.82       1.7511860    0.0056200327
      4425.25       1.7599505    0.0056271327
      4429.67       1.7682764    0.0056342941
      4434.10       1.7720559    0.0056413641
      4438.54       1.7788671    0.0056484977
      4442.97       1.7866428    0.0056556217
      4447.42       1.7955723    0.0055837093
      4451.86       1.7984888    0.0055888762
      4456.32       1.8062531    0.0055940259
      4460.77       1.8107028    0.0055991374
      4465.24       1.8171324    0.0056043504
      4469.70       1.8207897    0.0056779069
      4474.17       1.8226240    0.0058404413
      4478.65       1.8273016    0.0057123226
      4483.12       1.8319602    0.0056965253
      4487.61       1.8355139    0.0057340035
      4492.09       1.8419286    0.0057989963
      4496.59       1.8475528    0.0057836055
      4501.08       1.8512953    0.0058543359
      4505.58       1.8516765    0.0059175678
      4510.09       1.8532938    0.0059648600
      4514.60       1.8512846    0.0059900442
      4519.12       1.8458025    0.0059803057
      4523.63       1.8403503    0.0059480516
      4528.16       1.8356603    0.0058959877
      4532.69       1.8356842    0.0058313274
      4537.22       1.8312038    0.0057631407
      4541.76       1.8263334    0.0057019399
      4546.30       1.8193748    0.0056605439
      4550.85       1.8143526    0.0056576059
      4555.40       1.8038481    0.0057294537
      4559.95       1.8001340    0.0057361655
      4564.51       1.7959113    0.0055732252
      4569.08       1.7942288    0.0055719105
      4573.65       1.7944996    0.0055703974
      4578.22       1.7948373    0.0055683667
      4582.80       1.7925145    0.0055659541
      4587.38       1.7916077    0.0055632408
      4591.97       1.7895441    0.0055600245
      4596.56       1.7870932    0.0055562700
      4601.16       1.7835048    0.0055522397
      4605.76       1.7758676    0.0055478366
      4610.37       1.7718150    0.0055430322
      4614.98       1.7736281    0.0055376223
      4619.59       1.7759093    0.0055318950
      4624.21       1.7727225    0.0055256158
      4628.84       1.7698759    0.0056647726
      4633.47       1.7698237    0.0056143518
      4638.10       1.7695481    0.0055056366
      4642.74       1.7669812    0.0055096693
      4647.38       1.7658077    0.0055654945
      4652.03       1.7633686    0.0056469614
      4656.68       1.7637003    0.0057367667
      4661.34       1.7616047    0.0058210616
      4666.00       1.7572660    0.0058877394
      4670.67       1.7556423    0.0059261862
      4675.33       1.7544943    0.0059240860
      4680.01       1.7493206    0.0058718619
      4684.69       1.7462691    0.0057892594
      4689.38       1.7387353    0.0056860912
      4694.07       1.7287244    0.0055742367
      4698.76       1.7263267    0.0054660138
      4703.46       1.7213534    0.0053749426
      4708.16       1.7152854    0.0053191042
      4712.87       1.7094598    0.0052873944
      4717.58       1.7056137    0.0054606959
      4722.30       1.6985650    0.0052739570
      4727.03       1.6894683    0.0051853779
      4731.75       1.6789859    0.0051664659
      4736.48       1.6670507    0.0051466734
      4741.22       1.6571838    0.0051263888
      4745.96       1.6524647    0.0051057226
      4750.71       1.6483253    0.0050845002
      4755.46       1.6441790    0.0050626208
      4760.22       1.6418145    0.0050401990
      4764.97       1.6390260    0.0050173014
      4769.74       1.6378552    0.0049938247
      4774.51       1.6347801    0.0049698394
      4779.29       1.6317047    0.0048785714
      4784.07       1.6280517    0.0048529275
      4788.85       1.6262058    0.0048268726
      4793.64       1.6185645    0.0048005464
      4798.43       1.6106131    0.0047736878
      4803.23       1.6024778    0.0047465230
      4808.03       1.5907659    0.0047724076
      4812.84       1.5763210    0.0047440617
      4817.66       1.5610951    0.0047154551
      4822.48       1.5537404    0.0046864976
      4827.30       1.5482318    0.0046572874
      4832.12       1.5465090    0.0045663892
      4836.96       1.5483086    0.0045357920
      4841.79       1.5504429    0.0045050943
      4846.63       1.5497065    0.0044742063
      4851.48       1.5462297    0.0044430701
      4856.33       1.5456238    0.0044118425
      4861.19       1.5453463    0.0043805247
      4866.05       1.5424801    0.0043489944
      4870.92       1.5402030    0.0043174729
      4875.79       1.5379750    0.0042299566
      4880.66       1.5317465    0.0042430076
      4885.55       1.5230202    0.0042099184
      4890.43       1.5138582    0.0041768165
      4895.32       1.5052715    0.0041437984
      4900.22       1.4937828    0.0041108485
      4905.12       1.4839164    0.0040778735
      4910.02       1.4797884    0.0039915691
      4914.94       1.4773994    0.0039592953
      4919.85       1.4742208    0.0039270974
      4924.77       1.4722215    0.0038949873
      4929.70       1.4731441    0.0039011974
      4934.62       1.4710936    0.0038677406
      4939.56       1.4683253    0.0038345081
      4944.50       1.4650880    0.0037507640
      4949.44       1.4629456    0.0037183445
      4954.39       1.4620249    0.0036863492
      4959.35       1.4621249    0.0036545643
      4964.31       1.4613283    0.0036230667
      4969.27       1.4598725    0.0035920341
      4974.24       1.4536372    0.0035452873
      4979.22       1.4500782    0.0035135553
      4984.20       1.4437759    0.0034822436
      4989.18       1.4385637    0.0034512935
      4994.17       1.4351852    0.0034209003
      4999.16       1.4332882    0.0033909190
      5004.16       1.4327804    0.0033139926
      5009.17       1.4293086    0.0032839356
      5014.18       1.4263703    0.0032867444
      5019.19       1.4232239    0.0032574544
      5024.21       1.4193785    0.0032286823
      5029.23       1.4165752    0.0032006114
      5034.26       1.4142899    0.0031286650
      5039.30       1.4132934    0.0031007654
      5044.34       1.4142142    0.0031041147
      5049.39       1.4185337    0.0030771996
      5054.43       1.4190488    0.0030510886
      5059.49       1.4210063    0.0029844083
      5064.55       1.4248418    0.0029585515
      5069.61       1.4279850    0.0029335280
      5074.68       1.4332187    0.0029091947
      5079.76       1.4378126    0.0028774952
      5084.84       1.4442562    0.0028535422
      5089.92       1.4517643    0.0028304828
      5095.01       1.4579326    0.0028084550
      5100.11       1.4634943    0.0027874482
      5105.21       1.4670906    0.0027606367
      5110.31       1.4721218    0.0027399661
      5115.42       1.4761875    0.0027204333
      5120.54       1.4763334    0.0027023341
      5125.66       1.4768286    0.0026537274
      5130.79       1.4773945    0.0026391821
      5135.92       1.4780097    0.0026517324
      5141.05       1.4781552    0.0026377183
      5146.20       1.4757547    0.0026250665
      5151.34       1.4755656    0.0025827469
      5156.49       1.4766733    0.0025714901
      5161.65       1.4764039    0.0025860479
      5166.81       1.4750897    0.0025743770
      5171.98       1.4736834    0.0025340466
      5177.15       1.4728704    0.0025244179
      5182.33       1.4725136    0.0025156559
      5187.51       1.4719443    0.0025320577
      5192.70       1.4709884    0.0024957749
      5197.89       1.4679677    0.0024893503
      5203.09       1.4651366    0.0024838905
      5208.29       1.4635054    0.0024763168
      5213.50       1.4590736    0.0024712257
      5218.72       1.4528568    0.0024670895
      5223.93       1.4453078    0.0024641517
      5229.16       1.4362913    0.0024604762
      5234.39       1.4293232    0.0024578177
      5239.62       1.4211165    0.0024563521
      5244.86       1.4140213    0.0024564090
      5250.11       1.4083258    0.0024293113
      5255.36       1.4020192    0.0024577987
      5260.61       1.3974754    0.0024594245
      5265.87       1.3916124    0.0024357110
      5271.14       1.3886015    0.0024382344
      5276.41       1.3862725    0.0024708411
      5281.69       1.3849589    0.0024504485
      5286.97       1.3830834    0.0024545713
      5292.26       1.3821488    0.0024596756
      5297.55       1.3811116    0.0024955954
      5302.85       1.3815656    0.0024767911
      5308.15       1.3802999    0.0024830243
      5313.46       1.3797170    0.0025206833
      5318.77       1.3769904    0.0025037216
      5324.09       1.3723503    0.0025108536
      5329.42       1.3689381    0.0025188959
      5334.75       1.3677167    0.0025345440
      5340.08       1.3637280    0.0025424091
      5345.42       1.3607136    0.0025510757
      5350.77       1.3567834    0.0025368156
      5356.12       1.3543472    0.0025767667
      5361.48       1.3487029    0.0025859699
      5366.83       1.3414812    0.0025719576
      5372.20       1.3366975    0.0026132763
      5377.58       1.3300299    0.0026227904
      5382.95       1.3223594    0.0026087813
      5388.34       1.3147681    0.0026511302
      5393.72       1.3080874    0.0026608308
      5399.12       1.3010585    0.0026465513
      5404.52       1.2934785    0.0026576864
      5409.92       1.2862130    0.0026992426
      5415.33       1.2756723    0.0026845858
      5420.75       1.2656593    0.0026956766
      5426.17       1.2553512    0.0027120973
      5431.60       1.2473461    0.0027226685
      5437.03       1.2411973    0.0027346501
      5442.47       1.2350227    0.0027516202
      5447.91       1.2289069    0.0027611670
      5453.36       1.2231703    0.0027719631
      5458.81       1.2165156    0.0027892295
      5464.27       1.2102173    0.0028017678
      5469.73       1.2049493    0.0027898619
      5475.20       1.1989415    0.0028373812
      5480.68       1.1949010    0.0028520665
      5486.16       1.1886453    0.0028393179
      5491.65       1.1849872    0.0028863491
      5497.14       1.1837401    0.0028981485
      5502.64       1.1827094    0.0028777109
      5508.14       1.1824532    0.0029183523
      5513.65       1.1816368    0.0028922254
      5519.16       1.1751335    0.0028935128
      5524.68       1.1712468    0.0029271139
      5530.20       1.1671783    0.0028954306
      5535.73       1.1660531    0.0029279403
      5541.27       1.1625926    0.0028991569
      5546.81       1.1587262    0.0028992297
      5552.36       1.1521959    0.0029011434
      5557.91       1.1468079    0.0028989294
      5563.47       1.1405618    0.0028978189
      5569.04       1.1347622    0.0028980134
      5574.60       1.1289390    0.0028951582
      5580.18       1.1213708    0.0028945681
      5585.76       1.1147499    0.0028900324
      5591.35       1.1062643    0.0028567151
      5596.94       1.1009754    0.0028820739
      5602.53       1.0969422    0.0028765098
      5608.14       1.0911301    0.0028419155
      5613.75       1.0897140    0.0028636650
      5619.36       1.0854967    0.0028267434
      5624.98       1.0808550    0.0028472419
      5630.60       1.0760948    0.0028087047
      5636.23       1.0708304    0.0028012724
      5641.87       1.0680372    0.0027896275
      5647.51       1.0639701    0.0027811406
      5653.16       1.0596097    0.0027668396
      5658.82       1.0563334    0.0027555732
      5664.47       1.0534481    0.0027697458
      5670.14       1.0490432    0.0027256684
      5675.81       1.0463600    0.0027126333
      5681.48       1.0422816    0.0026901379
      5687.17       1.0389842    0.0026744128
      5692.85       1.0353029    0.0026492467
      5698.55       1.0308286    0.0026318030
      5704.25       1.0285232    0.0026054519
      5709.95       1.0252164    0.0025873141
      5715.66       1.0221392    0.0025379640
      5721.38       1.0207932    0.0025416331
      5727.10       1.0173526    0.0024917544
      5732.83       1.0153954    0.0024932503
      5738.56       1.0123982    0.0024426198
      5744.30       1.0118075    0.0024426114
      5750.04       1.0144433    0.0023922238
      5755.79       1.0164981    0.0023913351
      5761.55       1.0164029    0.0023407878
      5767.31       1.0161586    0.0023189584
      5773.08       1.0149581    0.0022887707
      5778.85       1.0138323    0.0022673418
      5784.63       1.0145584    0.0022375961
      5790.41       1.0158298    0.0022162340
      5796.21       1.0175127    0.0021866216
      5802.00       1.0195020    0.0021654564
      5807.81       1.0209344    0.0021360008
      5813.61       1.0192384    0.0021149800
      5819.43       1.0155958    0.0020858252
      5825.25       1.0124679    0.0020406242
      5831.07       1.0105468    0.0020365064
      5836.90       1.0078705    0.0019923939
      5842.74       1.0051356    0.0019882828
      5848.58       1.0036907    0.0019454270
      5854.43       1.0030059    0.0019415088
      5860.29      0.99999594    0.0019000602
      5866.15      0.99628206    0.0018964408
      5872.01      0.99298016    0.0018566088
      5877.89      0.98832075    0.0018534583
      5883.76      0.98382614    0.0018153012
      5889.65      0.98121373    0.0017917523
      5895.54      0.97852314    0.0017764385
      5901.43      0.97870170    0.0017543675
      5907.34      0.97623035    0.0017403827
      5913.24      0.97347118    0.0017199486
      5919.16      0.96965075    0.0017074405
      5925.08      0.96567784    0.0016887955
      5931.00      0.96100358    0.0016581392
      5936.93      0.95704034    0.0016612047
      5942.87      0.95200449    0.0016480538
      5948.81      0.94681871    0.0016429737
      5954.76      0.94526944    0.0016381982
      5960.72      0.94307857    0.0016109475
      5966.68      0.93745597    0.0016183723
      5972.64      0.93244542    0.0016018520
      5978.62      0.92779145    0.0016219100
      5984.60      0.92417884    0.0016198214
      5990.58      0.91930281    0.0016422021
      5996.57      0.91398139    0.0016589373
      6002.57      0.91035516    0.0016880726
      6008.57      0.90600100    0.0017278123
      6014.58      0.90235415    0.0017312543
      6020.60      0.89473847    0.0017489102
      6026.62      0.88812510    0.0017540256
      6032.65      0.88266636    0.0017553075
      6038.68      0.87680943    0.0017341796
      6044.72      0.86931386    0.0017404685
      6050.76      0.86277659    0.0017309071
      6056.81      0.85776576    0.0017124100
      6062.87      0.85376893    0.0017323265
      6068.93      0.85225428    0.0017254896
      6075.00      0.84794595    0.0017466763
      6081.08      0.84313041    0.0017573555
      6087.16      0.84189303    0.0017555277
      6093.25      0.84055198    0.0017887429
      6099.34      0.83935178    0.0017908996
      6105.44      0.83819453    0.0018160522
      6111.54      0.83660158    0.0018572893
      6117.66      0.83679029    0.0018665830
      6123.78      0.83646109    0.0019016119
      6129.90      0.83697646    0.0019265708
      6136.03      0.83804793    0.0019645112
      6142.17      0.83952265    0.0020038304
      6148.31      0.84030918    0.0020302955
      6154.46      0.84177608    0.0020699980
      6160.61      0.84356210    0.0021119885
      6166.77      0.84689071    0.0021411280
      6172.94      0.85045651    0.0021859964
      6179.11      0.85414717    0.0022029083
      6185.29      0.85894696    0.0022503164
      6191.48      0.86341711    0.0023119194
      6197.67      0.86781923    0.0023309228
      6203.87      0.87243962    0.0023828131
      6210.07      0.87736271    0.0024497451
      6216.28      0.88116985    0.0024717625
      6222.50      0.88496214    0.0025289793
      6228.72      0.88918940    0.0026026768
      6234.95      0.89159028    0.0026278160
      6241.19      0.89326426    0.0026947440
      6247.42      0.89674144    0.0027696086
      6253.67      0.89870781    0.0028218305
      6259.93      0.89585087    0.0029118299
      6266.19      0.89257351    0.0030092701
      6272.46      0.88937229    0.0030586087
      6278.73      0.88447312    0.0031685395
      6285.01      0.88047811    0.0032587400
      6291.29      0.87520793    0.0032938588
      6297.58      0.87087057    0.0033893279
      6303.88      0.86507249    0.0034574975
      6310.19      0.86068434    0.0035175170
      6316.50      0.85680919    0.0035310459
      6322.81      0.85437285    0.0036083921
      6329.14      0.85313268    0.0036721960
      6335.47      0.85067432    0.0036942820
      6341.80      0.84717771    0.0037641369
      6348.14      0.84489353    0.0038338826
      6354.49      0.84135404    0.0038770581
      6360.85      0.83988276    0.0039342884
      6367.21      0.84066963    0.0039813446
      6373.57      0.83917962    0.0040238804
      6379.95      0.83849653    0.0040529350
      6386.33      0.83507214    0.0040973125
      6392.72      0.83230503    0.0041380325
      6399.11      0.83160068    0.0041723433
      6405.51      0.83392716    0.0041597792
      6411.92      0.83485425    0.0042242989
      6418.32      0.83702207    0.0042574632
      6424.74      0.84105333    0.0042473005
      6431.17      0.84713604    0.0042833606
      6437.60      0.85308723    0.0043219441
      6444.04      0.85972928    0.0043939152
      6450.48      0.86673747    0.0043869304
      6456.94      0.87258424    0.0044277115
      6463.39      0.87814383    0.0044662355
      6469.85      0.88418518    0.0045033490
      6476.33      0.89238367    0.0045735350
      6482.80      0.89649681    0.0045606585
      6489.28      0.90084533    0.0045968934
      6495.77      0.90266584    0.0046330885
      6502.27      0.90424874    0.0046687188
      6508.77      0.90397253    0.0046532386
      6515.28      0.90341836    0.0047205319
      6521.80      0.90198693    0.0047527445
      6528.32      0.90174979    0.0047842101
      6534.85      0.89842716    0.0048144049
      6541.38      0.89642811    0.0047938025
      6547.92      0.89478044    0.0048207091
      6554.47      0.89226160    0.0048842019
      6561.03      0.89135589    0.0049093429
      6567.59      0.89317308    0.0049340935
      6574.16      0.89122068    0.0049188779
      6580.73      0.88821740    0.0049800626
      6587.31      0.88567579    0.0050723765
      6593.90      0.88389948    0.0052588332
      6600.50      0.88459241    0.0053104996
      6607.10      0.88276369    0.0052610011
      6613.70      0.88406803    0.0052842943
      6620.32      0.88174789    0.0054289314
      6626.94      0.87598611    0.0056851227
      6633.57      0.87036785    0.0060498556
      6640.20      0.86313491    0.0065068910
      6646.84      0.86083604    0.0069042021
      6653.49      0.85801934    0.0074015748
      6660.14      0.84606592    0.0079116619
      6666.80      0.84158087    0.0081687615
      6673.47      0.83618220    0.0080835290
      6680.14      0.82242796    0.0077599049
      6686.82      0.81639506    0.0072451361
      6693.51      0.80624834    0.0067652737
      6700.20      0.79844946    0.0063178485
      6706.90      0.79094650    0.0059859552
      6713.61      0.78472157    0.0058675856
      6720.32      0.77990860    0.0057020164
      6727.05      0.77936676    0.0054579906
      6733.77      0.77814789    0.0052881181
      6740.51      0.77762920    0.0051787622
      6747.25      0.77787111    0.0051192049
      6754.00      0.77614241    0.0051173184
      6760.75      0.77643885    0.0050708811
      6767.51      0.77801642    0.0050354350
      6774.28      0.77750598    0.0050089998
      6781.05      0.77709031    0.0049889165
      6787.84      0.77369464    0.0049728584
      6794.62      0.77172725    0.0049588303
      6801.42      0.76641088    0.0049054616
      6808.22      0.76077615    0.0048923468
      6815.03      0.75780382    0.0048796296
      6821.85      0.75437333    0.0048667481
      6828.67      0.75075520    0.0048533331
      6835.50      0.74632407    0.0048397223
      6842.33      0.74481705    0.0048258193
      6849.17      0.74278882    0.0048113416
      6856.02      0.74191844    0.0047969322
      6862.88      0.73876626    0.0047831573
      6869.74      0.73811974    0.0047698105
      6876.61      0.73664162    0.0047565313
      6883.49      0.73484807    0.0047437692
      6890.37      0.73098497    0.0046928784
      6897.27      0.72661323    0.0046803650
      6904.16      0.72076850    0.0046657164
      6911.07      0.71616519    0.0046489036
      6917.98      0.71222823    0.0046312520
      6924.89      0.70773310    0.0046131255
      6931.82      0.70316657    0.0045946565
      6938.75      0.70238668    0.0045757921
      6945.69      0.69963320    0.0045566711
      6952.64      0.69948940    0.0045376600
      6959.59      0.69609932    0.0045191999
      6966.55      0.69634687    0.0045015584
      6973.52      0.69747900    0.0044841873
      6980.49      0.69669349    0.0044665749
      6987.47      0.69764972    0.0044491597
      6994.46      0.69537790    0.0044317407
      7001.46      0.69599843    0.0044136318
      7008.46      0.69173860    0.0043947718
      7015.46      0.69055181    0.0043760672
      7022.48      0.68641516    0.0043205326
      7029.51      0.68897634    0.0043033640
      7036.53      0.68868425    0.0042862062
      7043.57      0.68719841    0.0042705504
      7050.62      0.68629851    0.0042572604
      7057.66      0.68359195    0.0042461654
      7064.72      0.68322730    0.0042387051
      7071.79      0.68545950    0.0042355382
      7078.86      0.68599213    0.0042355463
      7085.94      0.68694938    0.0042411517
      7093.03      0.68537758    0.0042546142
      7100.12      0.68819333    0.0042758249
      7107.22      0.68744545    0.0043021786
      7114.33      0.68622825    0.0043045136
      7121.44      0.68452677    0.0043395592
      7128.56      0.68160573    0.0043737562
      7135.69      0.68416834    0.0043922666
      7142.83      0.67846916    0.0043942805
      7149.97      0.67739151    0.0043923299
      7157.12      0.67689503    0.0043891603
      7164.28      0.67760931    0.0044192432
      7171.44      0.67601461    0.0044112074
      7178.62      0.67408323    0.0043636388
      7185.80      0.67295394    0.0043509686
      7192.98      0.66977586    0.0043398298
      7200.17      0.66908695    0.0043332637
      7207.38      0.66984667    0.0043309156
      7214.58      0.66531563    0.0043278590
      7221.80      0.66133875    0.0043235524
      7229.02      0.65449392    0.0042864519
      7236.25      0.65082122    0.0042835065
      7243.49      0.64830115    0.0042811666
      7250.73      0.64318762    0.0042817595
      7257.98      0.64080416    0.0043304929
      7265.24      0.63907982    0.0043475013
      7272.51      0.63671969    0.0043184212
      7279.78      0.63072465    0.0043157705
      7287.06      0.62672255    0.0043176999
      7294.35      0.62133325    0.0043240049
      7301.64      0.61665542    0.0043334106
      7308.94      0.61277323    0.0043480614
      7316.25      0.60650672    0.0043327909
      7323.57      0.60463969    0.0043878513
      7330.89      0.59809900    0.0044092614
      7338.22      0.59505401    0.0044353512
      7345.56      0.59145383    0.0044661128
      7352.91      0.58258090    0.0044703252
      7360.26      0.57854279    0.0045046585
      7367.62      0.57158882    0.0045421183
      7374.99      0.56714043    0.0046268144
      7382.37      0.56685072    0.0046718740
      7389.75      0.55912353    0.0046911631
      7397.14      0.55696112    0.0047402343
      7404.53      0.55268188    0.0047918379
      7411.94      0.54671215    0.0048458912
      7419.35      0.54509321    0.0049253111
      7426.77      0.53906785    0.0049840824
      7434.20      0.53449037    0.0050445329
      7441.63      0.53135087    0.0051068010
      7449.07      0.52638330    0.0051424752
      7456.52      0.52756101    0.0052075737
      7463.98      0.52811586    0.0053263534
      7471.45      0.52537714    0.0053927602
      7478.92      0.52492904    0.0054303723
      7486.40      0.52163585    0.0054989449
      7493.88      0.52242337    0.0055689999
      7501.38      0.52365368    0.0056961713
      7508.88      0.52753669    0.0057360683
      7516.39      0.52701483    0.0058081604
      7523.91      0.52968956    0.0058815488
      7531.43      0.53264683    0.0059565210
      7538.96      0.53428047    0.0060573713
      7546.50      0.53727156    0.0061337030
      7554.05      0.54296132    0.0062106007
      7561.60      0.55066955    0.0062519175
      7569.16      0.55709792    0.0063913587
      7576.73      0.56422514    0.0064684210
      7584.31      0.56622116    0.0065084829
      7591.89      0.57164203    0.0065831119
      7599.49      0.57688259    0.0067237611
      7607.09      0.57954398    0.0067991948
      7614.70      0.58868462    0.0068333649
      7622.31      0.58539895    0.0069058491
      7629.93      0.58780462    0.0070468054
      7637.56      0.59889381    0.0070785789
      7645.20      0.59996968    0.0071499128
      7652.85      0.60475367    0.0072213848
      7660.50      0.60668793    0.0073191298
      7668.16      0.60743177    0.0073875985
      7675.83      0.60895754    0.0074562998
      7683.50      0.60730288    0.0074801897
      7691.19      0.61036183    0.0076156427
      7698.88      0.61501685    0.0076799465
      7706.58      0.61333260    0.0076971138
      7714.29      0.61035982    0.0078293863
      7722.00      0.60837745    0.0078407344
      7729.73      0.60049993    0.0078996817
      7737.45      0.59664101    0.0079586305
      7745.19      0.59302298    0.0080337801
      7752.94      0.59137182    0.0080900910
      7760.69      0.59529285    0.0081489016
      7768.45      0.59288417    0.0082258171
      7776.22      0.59363540    0.0082827339
      7784.00      0.59502242    0.0082956737
      7791.78      0.58908258    0.0084435854
      7799.57      0.58462414    0.0085218859
      7807.37      0.58640438    0.0085684292
      7815.18      0.57004438    0.0087596906
      7822.99      0.56051743    0.0088446648
      7830.82      0.55895878    0.0089742020
      7838.65      0.54784157    0.0091993751
      7846.49      0.53605742    0.0092872658
      7854.34      0.52822675    0.0093998274
      7862.19      0.50926503    0.0095107657
      7870.05      0.50253102    0.0095445970
      7877.93      0.49086123    0.0095430864
      7885.80      0.48355054    0.0095098720
      7893.69      0.48182954    0.0094664124
      7901.58      0.48124051    0.0094208768
      7909.49      0.48564587    0.0094016975
      7917.40      0.48956203    0.0093322472
      7925.31      0.48020850    0.0094004048
      7933.24      0.47776092    0.0093631190
      7941.17      0.47414194    0.0094779879
      7949.11      0.47327393    0.0094416604
      7957.06      0.46822273    0.0094675612
      7965.02      0.45835330    0.0095565445
      7972.98      0.45150773    0.0094788805
      7980.96      0.44279538    0.0095297771
      7988.94      0.43547614    0.0094351534
      7996.93      0.42784884    0.0094053787
      8004.93      0.42783999    0.0093560503
      8012.93      0.42454397    0.0093052070
      8020.95      0.41711674    0.0092066779
      8028.97      0.41219619    0.0091220466
      8036.99      0.40938306    0.0089626417
      8045.03      0.40819441    0.0089452494
      8053.08      0.40877419    0.0088051290
      8061.13      0.40332573    0.0088219728
      8069.20      0.39978345    0.0087348571
      8077.26      0.39705026    0.0087985748
      8085.34      0.39994573    0.0087741060
      8093.43      0.40147405    0.0089152905
      8101.52      0.40311852    0.0089828612
      8109.62      0.39926289    0.0092251604
      8117.73      0.39684660    0.0094731437
      8125.85      0.38938865    0.0097760801
      8133.98      0.38665232     0.010322181
      8142.11      0.38850504     0.010745337
      8150.25      0.38371097     0.011408414
      8158.41      0.38054948     0.011816228
      8166.56      0.38269486     0.012370826
      8174.73      0.37853687     0.012522341
      8182.91      0.38415052     0.012450709
      8191.09      0.38504939     0.012090590
      8199.28      0.37644312     0.011796803
      8207.48      0.35475469     0.011445891
      8215.69      0.36528435     0.011161855
      8223.91      0.36399284     0.010899240
      8232.13      0.36753529     0.010694229
      8240.36      0.37843217     0.010572795
      8248.60      0.38173705     0.010484984
      8256.85      0.38419752     0.010438683
      8265.11      0.38338295     0.010392888
      8273.37      0.39418843     0.010329885
      8281.65      0.39279045     0.010154449
      8289.93      0.39068976     0.010053751
      8298.22      0.39247524    0.0099237263
      8306.52      0.39323767    0.0097409833
      8314.83      0.39170203    0.0095581418
      8323.14      0.38403350    0.0093965372
      8331.46      0.37995953    0.0092468314
      8339.80      0.37462576    0.0090414454
      8348.13      0.36931813    0.0089036663
      8356.48      0.36332626    0.0087526873
      8364.84      0.35650087    0.0085940382
      8373.21      0.34994571    0.0084374508
      8381.58      0.33514014    0.0082218631
      8389.96      0.33054107    0.0080650726
      8398.35      0.31972177    0.0079028694
      8406.75      0.30609846    0.0077399921
      8415.16      0.30694553    0.0075885400
      8423.57      0.30077623    0.0073520884
      8432.00      0.29004779    0.0071692057
      8440.43      0.28621159    0.0070071450
      8448.87      0.28006668    0.0068580754
      8457.32      0.26942455    0.0067164085
      8465.78      0.26562842    0.0065404436
      8474.25      0.26045222    0.0064254075
      8482.72      0.25501258    0.0063201684
      8491.20      0.25476251    0.0062197403
      8499.69      0.24931929    0.0060864890
      8508.19      0.24351899    0.0059936527
      8516.70      0.24115135    0.0059080608
      8525.22      0.23556229    0.0058203631
      8533.75      0.23615391    0.0056940258
      8542.28      0.23402155    0.0056162555
      8550.82      0.23046938    0.0055241457
      8559.37      0.22835243    0.0053931643
      8567.93      0.22225962    0.0052924766
      8576.50      0.21693617    0.0051908114
      8585.08      0.21666579    0.0050509680
      8593.66      0.21364003    0.0049423216
      8602.26      0.21191307    0.0048998428
      8610.86      0.20904369    0.0049346527
      8619.47      0.20633010    0.0049732791
      8628.09      0.20480289    0.0050395182
      8636.72      0.20134398    0.0051205354
      8645.36      0.19752827    0.0052049749
      8654.00      0.19641264    0.0053629261
      8662.66      0.19321222    0.0055128252
      8671.32      0.18755713    0.0057990259
      8679.99      0.18354038    0.0060627520
      8688.67      0.18161932    0.0065609753
      8697.36      0.17886953    0.0070138063
      8706.06      0.17444570    0.0078479874
      8714.76      0.16998152    0.0087571552
      8723.48      0.16635027    0.0097590570
      8732.21      0.16216487     0.011490386
      8740.93      0.15980579     0.013081931
