# starting wavelength =        4495.0000
# ending wavelength =        8536.1300
# O2 telluric scale =       0.48541890
# O2 telluric shift =        8.0021998
# H2O telluric scale =        0
# H2O telluric shift =        0
      4496.59       2.2635965      0.35170806
      4501.08       2.2923045      0.30706405
      4505.58       2.3722672      0.27058046
      4510.09       2.3308679      0.23856959
      4514.60       2.2625518      0.20757429
      4519.12       2.2051506      0.18549205
      4523.63       2.1443942      0.16771763
      4528.16       2.0888706      0.15183148
      4532.69       2.0434867      0.13675451
      4537.22       2.0020060      0.12573827
      4541.76       1.9690419      0.11660002
      4546.30       1.9251443      0.10858680
      4550.85       1.9271316      0.10079121
      4555.40       1.9378866     0.095073867
      4559.95       1.9599458     0.089891062
      4564.51       1.9200754     0.084806733
      4569.08       1.8797930     0.081130162
      4573.65       1.8433857     0.077466827
      4578.22       1.8193341     0.074636308
      4582.80       1.7540677     0.071518542
      4587.38       1.7208817     0.069395038
      4591.97       1.7361334     0.066876383
      4596.56       1.7269202     0.065224891
      4601.16       1.6881008     0.063258941
      4605.76       1.6814940     0.061554867
      4610.37       1.6710338     0.059437018
      4614.98       1.6381985     0.057915468
      4619.59       1.6474778     0.056012192
      4624.21       1.6180408     0.054670077
      4628.84       1.6198583     0.052969660
      4633.47       1.6008395     0.051899773
      4638.10       1.5801895     0.050285369
      4642.74       1.5673434     0.048876035
      4647.38       1.5664519     0.047994574
      4652.03       1.5714901     0.046701532
      4656.68       1.5873573     0.045935004
      4661.34       1.6099722     0.044845471
      4666.00       1.6308221     0.044144848
      4670.67       1.6646671     0.043236968
      4675.33       1.6893892     0.042658042
      4680.01       1.7178632     0.041854724
      4684.69       1.7379409     0.041434175
      4689.38       1.7269204     0.040760380
      4694.07       1.6960816     0.040213133
      4698.76       1.6808700     0.039903169
      4703.46       1.6830158     0.039408622
      4708.16       1.6781759     0.039268442
      4712.87       1.6856926     0.038880180
      4717.58       1.7013032     0.038741991
      4722.30       1.6938947     0.038552701
      4727.03       1.6971529     0.038309554
      4731.75       1.6936746     0.038413892
      4736.48       1.6889997     0.038256422
      4741.22       1.6911794     0.038302805
      4745.96       1.7056375     0.038371499
      4750.71       1.7056109     0.038484283
      4755.46       1.6822946     0.038641484
      4760.22       1.6625952     0.038662010
      4764.97       1.6494366     0.038861006
      4769.74       1.6497338     0.039128258
      4774.51       1.6229937     0.039378401
      4779.29       1.6232894     0.039707107
      4784.07       1.6109724     0.039845176
      4788.85       1.6112829     0.040378805
      4793.64       1.5960222     0.040544338
      4798.43       1.5863584     0.040882709
      4803.23       1.5775009     0.041300086
      4808.03       1.5903141     0.041659150
      4812.84       1.5806241     0.042087519
      4817.66       1.6066846     0.042264584
      4822.48       1.6348944     0.042881959
      4827.30       1.6742483     0.043043380
      4832.12       1.6850931     0.043450813
      4836.96       1.6809868     0.043796792
      4841.79       1.6570611     0.044181082
      4846.63       1.6481416     0.044507755
      4851.48       1.5907300     0.044861374
      4856.33       1.5922847     0.044924330
      4861.19       1.6063125     0.045484719
      4866.05       1.5928740     0.045508272
      4870.92       1.5680685     0.046046306
      4875.79       1.5485607     0.046031098
      4880.66       1.5070397     0.046262754
      4885.55       1.4847139     0.046493918
      4890.43       1.4732197     0.046684376
      4895.32       1.4860648     0.046587447
      4900.22       1.4621552     0.047047918
      4905.12       1.4324695     0.046914632
      4910.02       1.3919577     0.046458595
      4914.94       1.3818639     0.046291794
      4919.85       1.3461341     0.046110770
      4924.77       1.3603656     0.045915435
      4929.70       1.3245420     0.045706963
      4934.62       1.3200580     0.045485789
      4939.56       1.3101176     0.045251982
      4944.50       1.2771926     0.044682838
      4949.44       1.2570293     0.044657467
      4954.39       1.2656535     0.044384186
      4959.35       1.2638899     0.044101013
      4964.31       1.2756742     0.043809186
      4969.27       1.2614014     0.043509463
      4974.24       1.2703996     0.042888249
      4979.22       1.2903105     0.042570556
      4984.20       1.3054904     0.042246994
      4989.18       1.3266658     0.041917817
      4994.17       1.3752286     0.041584540
      4999.16       1.3474694     0.040948831
      5004.16       1.3644756     0.040800682
      5009.17       1.3835818     0.040450355
      5014.18       1.4001889     0.040098600
      5019.19       1.4140688     0.039744782
      5024.21       1.4409272     0.039102212
      5029.23       1.4273504     0.038749779
      5034.26       1.4250651     0.038398142
      5039.30       1.4452379     0.038047410
      5044.34       1.4501305     0.037859826
      5049.39       1.4732570     0.037230728
      5054.43       1.4394656     0.036883231
      5059.49       1.4231215     0.036539231
      5064.55       1.4206875     0.036199735
      5069.61       1.3721502     0.035595794
      5074.68       1.3619445     0.035267258
      5079.76       1.3770777     0.035105619
      5084.84       1.3912076     0.034791785
      5089.92       1.3962042     0.034230901
      5095.01       1.4081994     0.033925816
      5100.11       1.4115865     0.033628632
      5105.21       1.4181017     0.033343472
      5110.31       1.4339214     0.032997233
      5115.42       1.4564883     0.032740041
      5120.54       1.4755947     0.032493031
      5125.66       1.4772309     0.032260096
      5130.79       1.4559037     0.031832808
      5135.92       1.4791979     0.031782370
      5141.05       1.4744722     0.031583456
      5146.20       1.4789359     0.031187624
      5151.34       1.4994583     0.031012249
      5156.49       1.4938052     0.030847368
      5161.65       1.4757995     0.030838016
      5166.81       1.4720740     0.030487150
      5171.98       1.4746313     0.030342683
      5177.15       1.4710284     0.030205578
      5182.33       1.4634098     0.029879112
      5187.51       1.4385149     0.029904279
      5192.70       1.4374885     0.029785462
      5197.89       1.4606302     0.029489423
      5203.09       1.4588062     0.029384667
      5208.29       1.4943257     0.029445630
      5213.50       1.5153230     0.029184406
      5218.72       1.5487287     0.029102503
      5223.93       1.5569100     0.029025926
      5229.16       1.5679737     0.028941920
      5234.39       1.5818872     0.028874848
      5239.62       1.6056943     0.028817188
      5244.86       1.6137705     0.028604045
      5250.11       1.6140734     0.028715397
      5255.36       1.6210645     0.028675794
      5260.61       1.6080557     0.028487289
      5265.87       1.6229409     0.028469069
      5271.14       1.6269829     0.028607762
      5276.41       1.6221217     0.028434694
      5281.69       1.6385617     0.028428618
      5286.97       1.6181924     0.028429284
      5292.26       1.5909172     0.028430910
      5297.55       1.5933845     0.028437141
      5302.85       1.5832474     0.028288077
      5308.15       1.5826536     0.028460104
      5313.46       1.5927991     0.028473712
      5318.77       1.5843098     0.028329850
      5324.09       1.5907066     0.028507685
      5329.42       1.5949982     0.028368977
      5334.75       1.5975410     0.028382406
      5340.08       1.6025292     0.028563608
      5345.42       1.6202496     0.028423539
      5350.77       1.6146422     0.028436223
      5356.12       1.6026057     0.028461642
      5361.48       1.5882640     0.028470162
      5366.83       1.5906723     0.028326773
      5372.20       1.6084109     0.028495869
      5377.58       1.6133094     0.028498622
      5382.95       1.5982964     0.028347287
      5388.34       1.6090770     0.028504885
      5393.72       1.6136611     0.028343048
      5399.12       1.6107185     0.028336199
      5404.52       1.6124904     0.028321128
      5409.92       1.5893164     0.028304624
      5415.33       1.6151746     0.028130344
      5420.75       1.6170936     0.028270677
      5426.17       1.6242481     0.028247839
      5431.60       1.6400108     0.028191677
      5437.03       1.6409078     0.028145726
      5442.47       1.6284795     0.027935458
      5447.91       1.6229895     0.028040251
      5453.36       1.6180146     0.027836495
      5458.81       1.6054758     0.027941605
      5464.27       1.5927124     0.027742509
      5469.73       1.5859040     0.027696180
      5475.20       1.5836121     0.027635729
      5480.68       1.5946429     0.027576045
      5486.16       1.6007986     0.027492864
      5491.65       1.5794488     0.027410233
      5497.14       1.5719015     0.027153291
      5502.64       1.5677637     0.027181004
      5508.14       1.5691905     0.026892646
      5513.65       1.5758238     0.026884700
      5519.16       1.5581489     0.026568391
      5524.68       1.5601957     0.026528730
      5530.20       1.5697093     0.026193300
      5535.73       1.5657840     0.025850594
      5541.27       1.5526226     0.025791032
      5546.81       1.5457874     0.025449457
      5552.36       1.5490142     0.025393341
      5557.91       1.5623635     0.025066582
      5563.47       1.5662546     0.025017034
      5569.04       1.5735975     0.024686341
      5574.60       1.5490231     0.024621988
      5580.18       1.5223694     0.024296191
      5585.76       1.5083281     0.024234777
      5591.35       1.4974950     0.023912271
      5596.94       1.4989348     0.023596035
      5602.53       1.4981635     0.023527210
      5608.14       1.4919975     0.023212999
      5613.75       1.4880328     0.023145439
      5619.36       1.4537988     0.022840975
      5624.98       1.4389854     0.022640034
      5630.60       1.4142497     0.022491313
      5636.23       1.3841322     0.022290291
      5641.87       1.3742460     0.022142397
      5647.51       1.3716549     0.021946514
      5653.16       1.3670135     0.021663915
      5658.82       1.3666029     0.021612305
      5664.47       1.3557453     0.021421586
      5670.14       1.3530841     0.021277493
      5675.81       1.3449963     0.021086469
      5681.48       1.3306876     0.020809247
      5687.17       1.3241828     0.020754459
      5692.85       1.3168028     0.020482081
      5698.55       1.3088108     0.020303822
      5704.25       1.3105663     0.020166551
      5709.95       1.3020420     0.019995409
      5715.66       1.2996341     0.019746940
      5721.38       1.2911381     0.019705988
      5727.10       1.2939706     0.019471081
      5732.83       1.2971124     0.019439442
      5738.56       1.2845444     0.019298860
      5744.30       1.2763614     0.019080288
      5750.04       1.2571770     0.019060863
      5755.79       1.2459078     0.018855946
      5761.55       1.2200547     0.018738231
      5767.31       1.2197814     0.018632419
      5773.08       1.2131596     0.018557015
      5778.85       1.2067913     0.018462288
      5784.63       1.2033530     0.018291748
      5790.41       1.2064507     0.018314852
      5796.21       1.2018997     0.018243723
      5802.00       1.2046831     0.018095421
      5807.81       1.1952234     0.018135625
      5813.61       1.2089886     0.017996130
      5819.43       1.2133498     0.017949824
      5825.25       1.2112109     0.017909959
      5831.07       1.2227945     0.017877598
      5836.90       1.2177718     0.017845829
      5842.74       1.2115570     0.017732203
      5848.58       1.2191641     0.017799277
      5854.43       1.2274949     0.017781382
      5860.29       1.2288344     0.017679698
      5866.15       1.2270729     0.017668420
      5872.01       1.2100923     0.017750286
      5877.89       1.2006926     0.017658688
      5883.76       1.1793082     0.017657390
      5889.65       1.1637537     0.017660233
      5895.54       1.1554419     0.017664533
      5901.43       1.1606367     0.017671402
      5907.34       1.1521285     0.017681555
      5913.24       1.1406564     0.017603495
      5919.16       1.1353851     0.017621458
      5925.08       1.1241969     0.017737138
      5931.00       1.1185277     0.017714117
      5936.93       1.1090715     0.017781786
      5942.87       1.1133781     0.017789127
      5948.81       1.1190663     0.017707727
      5954.76       1.1174013     0.017821144
      5960.72       1.1306410     0.017887570
      5966.68       1.1371008     0.017991279
      5972.64       1.1329520     0.018023683
      5978.62       1.1393823     0.018199001
      5984.60       1.1464154     0.018472791
      5990.58       1.1195544     0.018570186
      5996.57       1.1268928     0.018792969
      6002.57       1.1295474     0.019003605
      6008.57       1.1318929     0.019187981
      6014.58       1.1248728     0.019212726
      6020.60       1.1002631     0.019406698
      6026.62       1.0884823     0.019462988
      6032.65       1.0924547     0.019467447
      6038.68       1.0937995     0.019315785
      6044.72       1.0925538     0.019217710
      6050.76       1.0954583     0.019076718
      6056.81       1.0970304     0.018909072
      6062.87       1.0840889     0.018772607
      6068.93       1.0842140     0.018603232
      6075.00       1.0849823     0.018466414
      6081.08       1.0830170     0.018393422
      6087.16       1.0849005     0.018362766
      6093.25       1.0922729     0.018208404
      6099.34       1.0834489     0.018116945
      6105.44       1.0864258     0.018058439
      6111.54       1.0910660     0.018010532
      6117.66       1.0940621     0.018050018
      6123.78       1.0805548     0.017918255
      6129.90       1.0847019     0.017871579
      6136.03       1.0737679     0.017831536
      6142.17       1.0665480     0.017795409
      6148.31       1.0574616     0.017759689
      6154.46       1.0575749     0.017638472
      6160.61       1.0486406     0.017595968
      6166.77       1.0335898     0.017551290
      6172.94       1.0080590     0.017505330
      6179.11      0.99978731     0.017464058
      6185.29       1.0008526     0.017435602
      6191.48      0.99998093     0.017421728
      6197.67       1.0014306     0.017331208
      6203.87      0.99165626     0.017317245
      6210.07      0.99638059     0.017300325
      6216.28       1.0034088     0.017283416
      6222.50       1.0102412     0.017352528
      6228.72       1.0137626     0.017354157
      6234.95       1.0074168     0.017387978
      6241.19       1.0065583     0.017373116
      6247.42       1.0172917     0.017481214
      6253.67       1.0245143     0.017603139
      6259.93       1.0366573     0.017722059
      6266.19       1.0489656     0.017837319
      6272.46       1.0584944     0.017949331
      6278.73       1.0482046     0.018058071
      6285.01       1.0529881     0.018159173
      6291.29       1.0627742     0.018243255
      6297.58       1.0487998     0.018313984
      6303.88       1.0551517     0.018271217
      6310.19       1.0607099     0.018233386
      6316.50       1.0440829     0.018259593
      6322.81       1.0387722     0.018271306
      6329.14       1.0353157     0.018277605
      6335.47       1.0400168     0.018287938
      6341.80       1.0432222     0.018309290
      6348.14       1.0419317     0.018350626
      6354.49       1.0467231     0.018408238
      6360.85       1.0543356     0.018463471
      6367.21       1.0604887     0.018503771
      6373.57       1.0776056     0.018522144
      6379.95       1.0980362     0.018520272
      6386.33       1.1141096     0.018502194
      6392.72       1.1214003     0.018482560
      6399.11       1.1378471     0.018484576
      6405.51       1.1573140     0.018509332
      6411.92       1.1791813     0.018461033
      6418.32       1.1778841     0.018488499
      6424.74       1.1710873     0.018517259
      6431.17       1.1734666     0.018556514
      6437.60       1.1646582     0.018609289
      6444.04       1.1615036     0.018674871
      6450.48       1.1688588     0.018745913
      6456.94       1.1641428     0.018824580
      6463.39       1.1546279     0.018915350
      6469.85       1.1559664     0.018935348
      6476.33       1.1441404     0.019032465
      6482.80       1.1366230     0.019128091
      6489.28       1.1306536     0.019223829
      6495.77       1.1204254     0.019325168
      6502.27       1.1064032     0.019432592
      6508.77       1.1029333     0.019544677
      6515.28       1.0956320     0.019585778
      6521.80       1.1029812     0.019702274
      6528.32       1.1005627     0.019818759
      6534.85       1.0982791     0.019934359
      6541.38       1.1027619     0.020051225
      6547.92       1.1087109     0.020173576
      6554.47       1.0780045     0.016972994
      6561.03       1.0809759     0.016999727
      6567.59       1.0844930     0.016974502
      6574.16       1.0822821     0.017094194
      6580.73       1.0846579     0.017289339
      6587.31       1.0916545     0.017554958
      6593.90       1.1004066     0.017851570
      6600.50       1.0922328     0.018221977
      6607.10       1.0966854     0.018626333
      6613.70       1.0937819     0.019056853
      6620.32       1.0739679     0.019600149
      6626.94       1.0797985     0.020055492
      6633.57       1.0609083     0.020504183
      6640.20       1.0556730     0.020933312
      6646.84       1.0479447     0.021299093
      6653.49       1.0467444     0.021630115
      6660.14       1.0397675     0.021973098
      6666.80       1.0275692     0.022101117
      6673.47       1.0172662     0.022062440
      6680.14       1.0130152     0.022089360
      6686.82      0.99830811     0.021937097
      6693.51      0.99768331     0.021615071
      6700.20      0.97667386     0.021323054
      6706.90      0.97060555     0.020981812
      6713.61      0.96693785     0.020474535
      6720.32      0.95507367     0.020081069
      6727.05      0.93969321     0.019717051
      6733.77      0.92155965     0.019207169
      6740.51      0.90795315     0.018830880
      6747.25      0.90762139     0.018483536
      6754.00      0.89820279     0.018126192
      6760.75      0.89120570     0.017887286
      6767.51      0.87995329     0.017825064
      6774.28      0.86866127     0.017874782
      6781.05      0.86266497     0.018053584
      6787.84      0.85769064     0.017909450
      6794.62      0.84698398     0.021111887
      6801.42      0.85659655     0.020905528
      6808.22      0.85500976     0.020813299
      6815.03      0.84620195     0.020807557
      6821.85      0.85134746     0.020622756
      6828.67      0.84493834     0.020537091
      6835.50      0.84304919     0.020452298
      6842.33      0.84917554     0.020347220
      6849.17      0.84175646     0.020261515
      6856.02      0.84800712     0.020175579
      6862.88      0.84114531     0.019992915
      6869.74      0.82755624     0.019989109
      6876.61      0.82248754     0.019812693
      6883.49      0.82535050     0.019724624
      6890.37      0.82367449     0.019633789
      6897.27      0.80986469     0.019521900
      6904.16      0.79854913     0.019428937
      6911.07      0.81963334     0.019243433
      6917.98      0.81038440     0.019221387
      6924.89      0.80596800     0.019123355
      6931.82      0.81377286     0.018932564
      6938.75      0.79623156     0.018902654
      6945.69      0.79523871     0.018710709
      6952.64      0.80021882     0.018611600
      6959.59      0.81573484     0.018490651
      6966.55      0.81534211     0.018396326
      6973.52      0.82278640     0.018216465
      6980.49      0.82782146     0.018194589
      6987.47      0.82406590     0.018108217
      6994.46      0.82742584     0.017935297
      7001.46      0.83102022     0.017916609
      7008.46      0.83482268     0.017745849
      7015.46      0.83754462     0.017663659
      7022.48      0.83045073     0.017571789
      7029.51      0.83204910     0.017499029
      7036.53      0.82020351     0.017355753
      7043.57      0.80800618     0.017358995
      7050.62      0.79930244     0.017234847
      7057.66      0.79927916     0.017247534
      7064.72      0.79755959     0.017132424
      7071.79      0.78736450     0.017108500
      7078.86      0.77759047     0.017106017
      7085.94      0.78228531     0.017122962
      7093.03      0.78770697     0.017176232
      7100.12      0.76543706     0.017252964
      7107.22      0.77163749     0.017292062
      7114.33      0.76833696     0.017373463
      7121.44      0.76145935     0.017414532
      7128.56      0.77180898     0.017474934
      7135.69      0.78451694     0.017521369
      7142.83      0.78239011     0.017579646
      7149.97      0.79214847     0.017615099
      7157.12      0.80801111     0.017561020
      7164.28      0.80544515     0.017627981
      7171.44      0.80072207     0.017531528
      7178.62      0.79824629     0.017494346
      7185.80      0.80305826     0.017463338
      7192.98      0.81312273     0.017423090
      7200.17      0.81468544     0.017397582
      7207.38      0.81773314     0.017380025
      7214.58      0.82743179     0.017307023
      7221.80      0.84106682     0.017389705
      7229.02      0.84671088     0.017337129
      7236.25      0.86057421     0.017422874
      7243.49      0.87422548     0.017361451
      7250.73      0.87826794     0.017372885
      7257.98      0.89096534     0.017379671
      7265.24      0.88968835     0.017394456
      7272.51      0.89092428     0.017347829
      7279.78      0.88813496     0.017469592
      7287.06      0.88939882     0.017473049
      7294.35      0.89741339     0.017535228
      7301.64      0.89262322     0.017553124
      7308.94      0.88060157     0.017591139
      7316.25      0.88306540     0.017664231
      7323.57      0.87656290     0.017735699
      7330.89      0.86026475     0.017844519
      7338.22      0.84645538     0.017880169
      7345.56      0.82118077     0.018056151
      7352.91      0.78093372     0.018096085
      7360.26      0.74909816     0.018233418
      7367.62      0.73780144     0.018351236
      7374.99      0.72115634     0.018509011
      7382.37      0.70274184     0.018667954
      7389.75      0.68271671     0.018738869
      7397.14      0.66932478     0.018967027
      7404.53      0.66992543     0.019050037
      7411.94      0.66033378     0.019230189
      7419.35      0.64182605     0.019472032
      7426.77      0.63403580     0.019558461
      7434.20      0.62884885     0.019742689
      7441.63      0.62870359     0.019928880
      7449.07      0.61777669     0.020076940
      7456.52      0.61344759     0.020258958
      7463.98      0.60902164     0.020336937
      7471.45      0.61315228     0.020513973
      7478.92      0.61336021     0.020688031
      7486.40      0.62760178     0.020819153
      7493.88      0.62697426     0.020982237
      7501.38      0.61147515     0.021142057
      7508.88      0.60687008     0.021195201
      7516.39      0.59968660     0.021415121
      7523.91      0.58449215     0.021562142
      7531.43      0.58602249     0.021602392
      7538.96      0.57379690     0.021735913
      7546.50      0.57971110     0.021862668
      7554.05      0.57587510     0.021982090
      7561.60      0.57127552     0.022071779
      7569.16      0.58463686     0.022176226
      7576.73      0.59334127     0.022269355
      7584.31      0.57943265     0.022253896
      7591.89      0.58373410     0.022328485
      7599.49      0.57620290     0.022393408
      7607.09      0.58288293     0.022531296
      7614.70      0.56582270     0.022479824
      7622.31      0.57110435     0.022691108
      7629.93      0.57780610     0.022994253
      7637.56      0.59758174     0.022589173
      7645.20      0.59633929     0.022477333
      7652.85      0.59412382     0.022492398
      7660.50      0.60774508     0.022584151
      7668.16      0.62332560     0.022721944
      7675.83      0.63869631     0.022869976
      7683.50      0.62552431     0.023031553
      7691.19      0.62819717     0.023183715
      7698.88      0.62266962     0.023313342
      7706.58      0.64632131     0.023737770
      7714.29      0.67405405     0.023595221
      7722.00      0.69841036     0.023409852
      7729.73      0.73160191     0.023360991
      7737.45      0.74577952     0.023334225
      7745.19      0.76208915     0.023219926
      7752.94      0.78389008     0.023189275
      7760.69      0.79017724     0.023161277
      7768.45      0.80610458     0.023118132
      7776.22      0.79690686     0.023063128
      7784.00      0.78339663     0.023026613
      7791.78      0.78553072     0.022936982
      7799.57      0.76675925     0.022967735
      7807.37      0.75167055     0.023184819
      7815.18      0.74894073     0.023479568
      7822.99      0.76380992     0.024009748
      7830.82      0.74879177     0.023726675
      7838.65      0.73399085     0.023551473
      7846.49      0.70781783     0.023536179
      7854.34      0.70075998     0.023276890
      7862.19      0.69919412     0.023165944
      7870.05      0.69092904     0.023035231
      7877.93      0.68030263     0.022920912
      7885.80      0.68060407     0.022852307
      7893.69      0.66823566     0.022838261
      7901.58      0.67975420     0.022944481
      7909.49      0.67423301     0.023084368
      7917.40      0.66282785     0.022709192
      7925.31      0.65915938     0.022705214
      7933.24      0.63595626     0.020620174
      7941.17      0.62189174     0.020424699
      7949.11      0.61710345     0.020397599
      7957.06      0.60690650     0.020451773
      7965.02      0.59231942     0.020508741
      7972.98      0.59082452     0.020491967
      7980.96      0.58812596     0.020545276
      7988.94      0.57154103     0.020612571
      7996.93      0.56211192     0.020664798
      8004.93      0.55163087     0.020640836
      8012.93      0.53069332     0.020669439
      8020.95      0.50892848     0.020693623
      8028.97      0.48893128     0.020699078
      8036.99      0.47747132     0.020706080
      8045.03      0.46669802     0.020722983
      8053.08      0.44728210     0.020739403
      8061.13      0.42261650     0.020729518
      8069.20      0.41184759     0.021025487
      8077.26      0.40458844     0.021224204
      8085.34      0.38625105     0.021244422
      8093.43      0.37943872     0.021513347
      8101.52      0.36346110     0.021963982
      8109.62      0.35112217     0.022558472
      8117.73      0.33262760     0.023212545
      8125.85      0.30940080     0.023953175
      8133.98      0.29176012     0.024757349
      8142.11      0.27365481     0.025703860
      8150.25      0.25189058     0.026362104
      8158.41      0.23799854     0.027174673
      8166.56      0.21847528     0.028190590
      8174.73      0.20671676     0.029139870
      8182.91      0.16962611     0.030062242
      8191.09      0.16906078     0.030965411
      8199.28      0.16289625     0.031811405
      8207.48      0.16469755     0.032481169
      8215.69      0.17549124     0.033167368
      8223.91      0.18410766     0.033438008
      8232.13      0.17993824     0.033504511
      8240.36      0.18906666     0.033193503
      8248.60      0.18904784     0.032850505
      8256.85      0.18589568     0.032319282
      8265.11      0.20111928     0.031544021
      8273.37      0.20941321     0.030840905
      8281.65      0.20084988     0.030305260
      8289.93      0.20177627     0.029715962
      8298.22      0.20959504     0.028925054
      8306.52      0.21177791     0.028184268
      8314.83      0.22214371     0.027365072
      8323.14      0.22632445     0.026398800
      8331.46      0.24251473     0.025515512
      8339.80      0.22450033     0.024549449
      8348.13      0.23311434     0.023350663
      8356.48      0.21879893     0.022372880
      8364.84      0.15640017     0.021386138
      8373.21      0.19951530     0.018795786
      8381.58      0.19456206     0.018941190
      8389.96      0.19691827     0.019075642
      8398.35      0.19745975     0.019293871
      8406.75      0.20097196     0.019471216
      8415.16      0.20201444     0.019774131
      8423.57      0.20448353     0.020032871
      8432.00      0.20465905     0.020482310
      8440.43      0.20430150     0.020909910
      8448.87      0.20396974     0.021649464
      8457.32      0.20137625     0.022375963
      8465.78      0.20271973     0.023421125
      8474.25      0.19938696     0.024855812
      8482.72      0.19516961     0.026189286
      8491.20      0.18932321     0.028045643
      8499.69      0.18696788     0.029560092
      8508.19      0.18173658     0.031637104
      8516.70      0.17575775     0.033250119
      8525.22      0.16813844     0.035391658
      8533.75      0.15909274     0.038338689
