# starting wavelength =        2541.6700
# ending wavelength =        7816.3600
# O2 telluric scale =        0
# O2 telluric shift =        0
# H2O telluric scale =        0
# H2O telluric shift =        0
      2543.59       2.8124039     0.062972090
      2546.13       2.6831268     0.057805263
      2548.68       2.5491849     0.052960072
      2551.23       2.4306563     0.048874822
      2553.78       2.3484916     0.045477824
      2556.34       2.2873600     0.042212811
      2558.89       2.2324503     0.039079470
      2561.45       2.1774887     0.036488468
      2564.01       2.1242596     0.034316126
      2566.58       2.0775593     0.032240364
      2569.14       2.0411186     0.030223032
      2571.71       2.0116735     0.028597151
      2574.28       1.9854878     0.027152086
      2576.86       1.9604117     0.025934486
      2579.44       1.9421201     0.024792036
      2582.01       1.9339845     0.023663351
      2584.60       1.9398948     0.022778764
      2587.18       1.9537978     0.022003725
      2589.77       1.9695684     0.021363081
      2592.36       1.9868119     0.020761340
      2594.95       2.0022610     0.020238084
      2597.55       2.0173688     0.019712446
      2600.14       2.0351366     0.019320778
      2602.74       2.0552961     0.019009155
      2605.35       2.0798630     0.018716152
      2607.95       2.1084713     0.018462375
      2610.56       2.1392096     0.018202381
      2613.17       2.1722236     0.018020986
      2615.79       2.2083500     0.017865219
      2618.40       2.2445010     0.017753899
      2621.02       2.2814138     0.017642256
      2623.64       2.3182173     0.017546756
      2626.26       2.3559272     0.017466817
      2628.89       2.3920324     0.017378163
      2631.52       2.4319419     0.017322322
      2634.15       2.4768522     0.017275369
      2636.79       2.5194815     0.017253921
      2639.42       2.5680537     0.017217803
      2642.06       2.6161056     0.017236355
      2644.70       2.6656761     0.017355720
      2647.35       2.7161245     0.017453577
      2650.00       2.7680295     0.017527844
      2652.65       2.8186467     0.017636609
      2655.30       2.8662247     0.017723815
      2657.96       2.9038605     0.017801892
      2660.61       2.9457105     0.017887433
      2663.27       2.9866605     0.017925948
      2665.94       3.0293825     0.017971570
      2668.60       3.0842678     0.018032923
      2671.27       3.1401933     0.018051975
      2673.94       3.1954905     0.018040764
      2676.62       3.2495938     0.018046860
      2679.29       3.3065130     0.018014578
      2681.97       3.3429338     0.017952554
      2684.66       3.3811719     0.017938698
      2687.34       3.4141657     0.017840043
      2690.03       3.4458890     0.017746379
      2692.72       3.4691593     0.017611814
      2695.41       3.4875411     0.017450237
      2698.11       3.5008413     0.017287370
      2700.81       3.5234048     0.017133588
      2703.51       3.5345722     0.016927720
      2706.21       3.5445134     0.016688137
      2708.92       3.5662814     0.016431051
      2711.62       3.5968553     0.016167229
      2714.34       3.6241436     0.015878778
      2717.05       3.6520935     0.015584648
      2719.77       3.6879763     0.015276811
      2722.49       3.7123041     0.014962063
      2725.21       3.7353466     0.014694063
      2727.94       3.7495263     0.014367459
      2730.66       3.7600052     0.014035652
      2733.39       3.7751400     0.013705517
      2736.13       3.7921334     0.013385166
      2738.86       3.8038884     0.013059326
      2741.60       3.8174682     0.012737281
      2744.34       3.8294223     0.012420628
      2747.09       3.8355044     0.012122971
      2749.84       3.8438378     0.011819358
      2752.59       3.8472983     0.011522580
      2755.34       3.8563400     0.011232626
      2758.09       3.8681566     0.010966917
      2760.85       3.8851456     0.010692637
      2763.61       3.8971884     0.010425364
      2766.38       3.9081309     0.010166085
      2769.14       3.9125094    0.0099325922
      2771.91       3.9229734    0.0096883213
      2774.69       3.9349646    0.0094520182
      2777.46       3.9457432    0.0092237313
      2780.24       3.9559651    0.0090212061
      2783.02       3.9714026    0.0088088513
      2785.80       3.9851590    0.0086049511
      2788.59       3.9936217    0.0084094465
      2791.38       4.0066185    0.0082234019
      2794.17       4.0179597    0.0080621522
      2796.96       4.0313707    0.0078940074
      2799.76       4.0424119    0.0077362044
      2802.56       4.0504595    0.0075886449
      2805.36       4.0609638    0.0074409610
      2808.17       4.0702363    0.0073153591
      2810.98       4.0789678    0.0072010960
      2813.79       4.0880529    0.0070980291
      2816.60       4.1005765    0.0070123140
      2819.42       4.1109270    0.0069309471
      2822.24       4.1220081    0.0068610709
      2825.06       4.1315750    0.0068013825
      2827.88       4.1406688    0.0067542867
      2830.71       4.1502139    0.0067118373
      2833.54       4.1584586    0.0066849479
      2836.38       4.1640581    0.0066707178
      2839.21       4.1676964    0.0066668202
      2842.05       4.1702936    0.0066656948
      2844.90       4.1756271    0.0066797500
      2847.74       4.1802992    0.0067036202
      2850.59       4.1848401    0.0067361201
      2853.44       4.1878439    0.0067647767
      2856.29       4.1897235    0.0068115313
      2859.15       4.1887844    0.0068649056
      2862.01       4.1864982    0.0069148568
      2864.87       4.1855720    0.0069798137
      2867.74       4.1829823    0.0070500115
      2870.60       4.1790692    0.0071245677
      2873.47       4.1758710    0.0071955540
      2876.35       4.1701843    0.0072744258
      2879.22       4.1668690    0.0073592786
      2882.10       4.1623951    0.0074467806
      2884.99       4.1576680    0.0075273850
      2887.87       4.1529309    0.0076156752
      2890.76       4.1504121    0.0077083665
      2893.65       4.1465174    0.0078024409
      2896.54       4.1425920    0.0079019821
      2899.44       4.1383585    0.0079779664
      2902.34       4.1264323    0.0080733890
      2905.24       4.1199160    0.0081688203
      2908.15       4.1128740    0.0082667999
      2911.06       4.1077485    0.0083612136
      2913.97       4.0788735     0.016156869
      2916.88       4.0492561     0.016447297
      2919.80       4.0239592     0.016806493
      2922.72       4.0008195     0.017071565
      2925.64       3.9839105     0.017361512
      2928.57       3.9701593     0.017677721
      2931.50       3.9456619     0.017894215
      2934.43       3.9215688     0.018091025
      2937.36       3.9043210     0.018344574
      2940.30       3.8848858     0.018496566
      2943.24       3.8812590     0.018702158
      2946.18       3.8649524     0.018864244
      2949.13       3.8642599     0.018948342
      2952.08       3.8672072     0.019081494
      2955.03       3.8672291     0.019117766
      2957.99       3.8847660     0.019199047
      2960.94       3.9007048     0.019189590
      2963.90       3.9097158     0.019224889
      2966.87       3.9104729     0.019172838
      2969.84       3.9135695     0.019164223
      2972.81       3.9190422     0.019073242
      2975.78       3.9282227     0.019024176
      2978.76       3.9284899     0.018976312
      2981.73       3.9118302     0.018893422
      2984.72       3.8966155     0.018737365
      2987.70       3.9115460     0.018620516
      2990.69       3.9188606     0.018436428
      2993.68       3.9348359     0.018292706
      2996.67       3.9442081     0.018086095
      2999.67       3.9580061     0.017916714
      3002.67       3.9658168     0.017689436
      3005.67       3.9723027     0.017501558
      3008.68       3.9801764     0.017259913
      3011.69       3.9661464     0.017054058
      3014.70       3.9537904     0.016842944
      3017.71       3.9491128     0.016584481
      3020.73       3.9279117     0.016362394
      3023.75       3.9212154     0.016097358
      3026.78       3.9118139     0.015871715
      3029.80       3.8982578     0.015642729
      3032.83       3.8907903     0.015375803
      3035.87       3.8796327     0.015149467
      3038.90       3.8715653     0.014888136
      3041.94       3.8464110     0.014663606
      3044.98       3.8314323     0.014446123
      3048.03       3.8173683     0.014198119
      3051.08       3.8119765     0.013916261
      3054.13       3.7900060     0.013716556
      3057.18       3.7701482     0.013490556
      3060.24       3.7648100     0.013309099
      3063.30       3.7518256     0.013136197
      3066.36       3.7225511     0.012939314
      3069.43       3.6917770     0.012725923
      3072.50       3.6653548     0.012552387
      3075.57       3.6455865     0.012331397
      3078.65       3.6247157     0.012218066
      3081.73       3.6003871     0.012024738
      3084.81       3.5844549     0.011900345
      3087.89       3.5663131     0.011768479
      3090.98       3.5572095     0.011666615
      3094.07       3.5351262     0.011523600
      3097.17       3.5146960     0.011479339
      3100.26       3.5019469     0.011358521
      3103.36       3.4754463     0.011334567
      3106.47       3.4660851     0.011234552
      3109.58       3.4348049     0.011228870
      3112.68       3.4113466     0.011146970
      3115.80       3.3827738     0.011074369
      3118.91       3.3654341     0.011092805
      3122.03       3.3481101     0.011035139
      3125.15       3.3240598     0.011067184
      3128.28       3.3081284     0.011022769
      3131.41       3.3049951     0.011067226
      3134.54       3.2972190     0.011033732
      3137.67       3.2898060     0.011047803
      3140.81       3.2756499     0.011063788
      3143.95       3.2689125     0.011086659
      3147.10       3.2620450     0.011069571
      3150.24       3.2639508     0.011138332
      3153.39       3.2576332     0.011125761
      3156.55       3.2624928     0.011199539
      3159.70       3.2682107     0.011189243
      3162.86       3.2530805     0.011225689
      3166.03       3.2591465     0.011255720
      3169.19       3.2443692     0.011291793
      3172.36       3.2480189     0.011281137
      3175.54       3.2392812     0.011314109
      3178.71       3.2334722     0.011340637
      3181.89       3.2265898     0.011368666
      3185.07       3.2240209     0.011393710
      3188.26       3.2186231     0.011411579
      3191.45       3.2201779     0.011428268
      3194.64       3.2015445     0.011395662
      3197.83       3.1848370     0.011402713
      3201.03       3.1766730     0.011446423
      3204.23       3.1676251     0.011398052
      3207.44       3.1694522     0.011387294
      3210.64       3.1728448     0.011328367
      3213.85       3.1725317     0.011348967
      3217.07       3.1780315     0.011320005
      3220.28       3.1850244     0.011244886
      3223.51       3.1836370     0.011203786
      3226.73       3.2039418     0.011157338
      3229.96       3.2137197     0.011113029
      3233.19       3.2282564     0.011056217
      3236.42       3.2349047     0.010994417
      3239.66       3.2415112     0.010891732
      3242.90       3.2581484     0.010821844
      3246.14       3.2732419     0.010793501
      3249.39       3.2894016     0.010715141
      3252.64       3.2975953     0.010598993
      3255.89       3.2995516     0.010514620
      3259.14       3.3090045     0.010427277
      3262.40       3.3091073     0.010304937
      3265.67       3.3064467     0.010212173
      3268.93       3.3057998     0.010117330
      3272.20       3.2942457     0.010064361
      3275.47       3.2894798    0.0099658665
      3278.75       3.2860056    0.0098364244
      3282.03       3.2685027    0.0097353151
      3285.31       3.2579207    0.0096333018
      3288.60       3.2457307    0.0095307785
      3291.88       3.2235402    0.0094000539
      3295.18       3.2076554    0.0092975071
      3298.47       3.1868756    0.0091949720
      3301.77       3.1727395    0.0090928505
      3305.07       3.1555872    0.0089915838
      3308.38       3.1413871    0.0088911188
      3311.69       3.1271807    0.0087664922
      3315.00       3.1094853    0.0086686005
      3318.31       3.0977607    0.0085724442
      3321.63       3.0769096    0.0084783596
      3324.95       3.0546171    0.0083863576
      3328.28       3.0404620    0.0082965207
      3331.61       3.0372464    0.0082090211
      3334.94       3.0279230    0.0081005995
      3338.27       3.0235756    0.0080187036
      3341.61       3.0102440    0.0079395014
      3344.95       3.0054842    0.0078629336
      3348.30       3.0008331    0.0077891759
      3351.65       2.9876109    0.0077180948
      3355.00       2.9729849    0.0076499042
      3358.35       2.9643594    0.0075843194
      3361.71       2.9578599    0.0075213853
      3365.07       2.9520817    0.0074611002
      3368.44       2.9427788    0.0074033699
      3371.81       2.9378540    0.0073189257
      3375.18       2.9282650    0.0072667367
      3378.56       2.9258165    0.0072170777
      3381.94       2.9256045    0.0071697573
      3385.32       2.9141039    0.0071248223
      3388.70       2.9074247    0.0070823061
      3392.09       2.9029014    0.0070422352
      3395.48       2.8869375    0.0070043758
      3398.88       2.8707371    0.0069421391
      3402.28       2.8608649    0.0069087945
      3405.68       2.8493733    0.0068776216
      3409.09       2.8417604    0.0068486051
      3412.49       2.8274749    0.0068216734
      3415.91       2.8158611    0.0067717857
      3419.32       2.8050192    0.0067491448
      3422.74       2.7998559    0.0067285202
      3426.17       2.7970659    0.0067097396
      3429.59       2.7970743    0.0066929281
      3433.02       2.7955702    0.0066537404
      3436.45       2.7901231    0.0066404844
      3439.89       2.7887613    0.0066290642
      3443.33       2.7904486    0.0066419698
      3446.78       2.7873495    0.0066109510
      3450.22       2.7819818    0.0066045253
      3453.67       2.7786900    0.0065997300
      3457.13       2.7705729    0.0065965346
      3460.58       2.7564501    0.0065726424
      3464.04       2.7465960    0.0065726771
      3467.51       2.7379102    0.0065966860
      3470.98       2.7262470    0.0065771617
      3474.45       2.7089851    0.0065812580
      3477.92       2.6956612    0.0065866628
      3481.40       2.6851428    0.0065710582
      3484.88       2.6695418    0.0065784635
      3488.37       2.6622280    0.0066105176
      3491.86       2.6589615    0.0065983035
      3495.35       2.6541331    0.0066084422
      3498.84       2.6438496    0.0066197668
      3502.34       2.6339732    0.0066341935
      3505.84       2.6232510    0.0066467036
      3509.35       2.6167256    0.0066385142
      3512.86       2.6121897    0.0066524310
      3516.37       2.6079573    0.0066905159
      3519.89       2.5965217    0.0066837376
      3523.41       2.5901223    0.0066989215
      3526.93       2.5799917    0.0066925260
      3530.46       2.5746894    0.0067320445
      3533.99       2.5698486    0.0067260462
      3537.53       2.5609043    0.0067412110
      3541.06       2.5511284    0.0067596344
      3544.60       2.5473224    0.0067747310
      3548.15       2.5406198    0.0067898190
      3551.70       2.5278472    0.0068073133
      3555.25       2.5218439    0.0068216460
      3558.80       2.5191304    0.0068140475
      3562.36       2.5062896    0.0068515865
      3565.92       2.5017982    0.0068427060
      3569.49       2.4876933    0.0068553734
      3573.06       2.4762511    0.0068686660
      3576.64       2.4699131    0.0068573068
      3580.21       2.4591133    0.0068910931
      3583.79       2.4391929    0.0068777330
      3587.38       2.4268852    0.0068854250
      3590.96       2.4185168    0.0068938214
      3594.55       2.4097983    0.0068994087
      3598.15       2.4060767    0.0069053506
      3601.75       2.3968803    0.0068861493
      3605.35       2.3909877    0.0069118862
      3608.96       2.3882858    0.0068902261
      3612.56       2.3919066    0.0068906075
      3616.18       2.3954533    0.0068895689
      3619.79       2.3927489    0.0068646600
      3623.41       2.3964627    0.0068844045
      3627.04       2.4020299    0.0068572755
      3630.66       2.3939253    0.0068521028
      3634.29       2.3997525    0.0068457906
      3637.93       2.3918025    0.0068385196
      3641.57       2.3869973    0.0068081079
      3645.21       2.3795826    0.0068215279
      3648.86       2.3702679    0.0067897049
      3652.50       2.3583165    0.0067786614
      3656.16       2.3460215    0.0067898603
      3659.81       2.3386503    0.0067558520
      3663.47       2.3300854    0.0067427442
      3667.14       2.3189512    0.0067307298
      3670.80       2.3067239    0.0067163130
      3674.48       2.3022297    0.0066803525
      3678.15       2.3027780    0.0066652726
      3681.83       2.3031966    0.0066722238
      3685.51       2.3006231    0.0066351858
      3689.20       2.2958074    0.0066189660
      3692.88       2.2922843    0.0066026594
      3696.58       2.2925684    0.0065652839
      3700.27       2.2812722    0.0065704709
      3703.98       2.2759435    0.0065334057
      3707.68       2.2586174    0.0065161164
      3711.39       2.2440315    0.0064988965
      3715.10       2.2245543    0.0064617650
      3718.81       2.2141762    0.0064665546
      3722.53       2.2025137    0.0064493969
      3726.26       2.1967263    0.0064125718
      3729.98       2.1890514    0.0063958873
      3733.71       2.1741003    0.0063794429
      3737.45       2.1653810    0.0063632553
      3741.18       2.1626632    0.0063275959
      3744.93       2.1610957    0.0063116691
      3748.67       2.1620516    0.0063168631
      3752.42       2.1624423    0.0063013724
      3756.17       2.1635351    0.0062670157
      3759.93       2.1625212    0.0062518726
      3763.69       2.1666272    0.0062370001
      3767.45       2.1730145    0.0062224133
      3771.22       2.1709927    0.0061890563
      3774.99       2.1728004    0.0061749535
      3778.77       2.1677541    0.0061611104
      3782.54       2.1711184    0.0061474915
      3786.33       2.1700923    0.0061341248
      3790.11       2.1833735    0.0061210017
      3793.90       2.1934364    0.0060893424
      3797.70       2.1989262    0.0060766538
      3801.50       2.1984323    0.0060641533
      3805.30       2.2001557    0.0060518405
      3809.10       2.2066701    0.0060398307
      3812.91       2.2052630    0.0060280547
      3816.73       2.1998182    0.0060164642
      3820.54       2.1930124    0.0059867908
      3824.36       2.1842755    0.0059756718
      3828.19       2.1690217    0.0059647884
      3832.02       2.1512547    0.0059541319
      3835.85       2.1357448    0.0059436777
      3839.68       2.1178842    0.0059335107
      3843.52       2.1030062    0.0059235102
      3847.37       2.0836155    0.0058950035
      3851.22       2.0757342    0.0058855337
      3855.07       2.0608093    0.0058762212
      3858.92       2.0512930    0.0058670642
      3862.78       2.0437978    0.0058581613
      3866.64       2.0343763    0.0058494324
      3870.51       2.0239147    0.0058408242
      3874.38       2.0142089    0.0058140070
      3878.26       2.0077528    0.0058055822
      3882.13       2.0037171    0.0057972463
      3886.02       1.9952351    0.0057889743
      3889.90       1.9951108    0.0057807627
      3893.79       1.9959253    0.0057545352
      3897.69       1.9942163    0.0057463353
      3901.59       1.9870077    0.0057380647
      3905.49       1.9818531    0.0057297803
      3909.39       1.9784869    0.0057213730
      3913.30       1.9765598    0.0056947133
      3917.22       1.9711492    0.0056858573
      3921.13       1.9713559    0.0056768749
      3925.06       1.9747896    0.0056846841
      3928.98       1.9686155    0.0056574688
      3932.91       1.9644549    0.0056475830
      3936.84       1.9552320    0.0056374372
      3940.78       1.9550933    0.0056094160
      3944.72       1.9528883    0.0055987102
      3948.67       1.9523877    0.0055876876
      3952.61       1.9575647    0.0055584378
      3956.57       1.9600200    0.0055626001
      3960.52       1.9638694    0.0055500628
      3964.48       1.9680072    0.0055195226
      3968.45       1.9670151    0.0055058025
      3972.42       1.9704195    0.0054916335
      3976.39       1.9744891    0.0054754650
      3980.37       1.9802721    0.0054598762
      3984.35       1.9835218    0.0054437964
      3988.33       1.9895132    0.0054100262
      3992.32       1.9884858    0.0054079813
      3996.31       1.9901516    0.0053727291
      4000.31       1.9889790    0.0053542214
      4004.31       1.9853704    0.0053178558
      4008.31       1.9810804    0.0053129027
      4012.32       1.9743347    0.0052755424
      4016.33       1.9713961    0.0052545565
      4020.35       1.9638163    0.0052477278
      4024.37       1.9532365    0.0052088365
      4028.40       1.9375431    0.0051864517
      4032.42       1.9126458    0.0051471992
      4036.46       1.8946894    0.0051378725
      4040.50       1.8736535    0.0050978749
      4044.54       1.8615032    0.0050877387
      4048.58       1.8543393    0.0050471331
      4052.63       1.8380380    0.0050064307
      4056.68       1.8220604    0.0049952281
      4060.74       1.8037425    0.0049542732
      4064.80       1.7821060    0.0049292341
      4068.86       1.7601434    0.0049013324
      4072.93       1.7446647    0.0048760562
      4077.01       1.7297594    0.0048479213
      4081.08       1.7146945    0.0048069359
      4085.17       1.7024567    0.0047943173
      4089.25       1.6829300    0.0047535168
      4093.34       1.6692052    0.0047284964
      4097.43       1.6582437    0.0047003549
      4101.53       1.6381450    0.0046602754
      4105.63       1.6185750    0.0046477940
      4109.74       1.6024648    0.0046082929
      4113.85       1.5952480    0.0045814711
      4117.96       1.5854250    0.0045575914
      4122.08       1.5801825    0.0045316732
      4126.20       1.5650098    0.0044947579
      4130.33       1.5524856    0.0044844392
      4134.46       1.5452121    0.0044494784
      4138.59       1.5359438    0.0044270988
      4142.73       1.5284860    0.0044062390
      4146.88       1.5265310    0.0043889246
      4151.02       1.5266361    0.0043711904
      4155.18       1.5243470    0.0043438687
      4159.33       1.5266634    0.0043305416
      4163.49       1.5270966    0.0043203669
      4167.65       1.5194263    0.0043117779
      4171.82       1.5236986    0.0043061030
      4175.99       1.5195642    0.0042914103
      4180.17       1.5130080    0.0042918298
      4184.35       1.5121830    0.0043073639
      4188.54       1.5145038    0.0043022972
      4192.72       1.5154627    0.0043133985
      4196.92       1.5146859    0.0043286579
      4201.11       1.5168029    0.0043348945
      4205.31       1.5115797    0.0043587857
      4209.52       1.5157529    0.0043977048
      4213.73       1.5210190    0.0044166115
      4217.94       1.5257964    0.0044547093
      4222.16       1.5284677    0.0044981870
      4226.38       1.5324645    0.0045317181
      4230.61       1.5372309    0.0045858356
      4234.84       1.5402441    0.0046458111
      4239.08       1.5441237    0.0047118520
      4243.32       1.5407865    0.0047665828
      4247.56       1.5384538    0.0048443278
      4251.81       1.5422176    0.0049281348
      4256.06       1.5398554    0.0050177559
      4260.32       1.5428673    0.0051129425
      4264.58       1.5401565    0.0051922398
      4268.84       1.5407968    0.0052961289
      4273.11       1.5361232    0.0054036805
      4277.38       1.5313212    0.0055141291
      4281.66       1.5309916    0.0056264944
      4285.94       1.5244163    0.0057398657
      4290.23       1.5169872    0.0058301343
      4294.52       1.5184325    0.0059420552
      4298.81       1.5144850    0.0060518980
      4303.11       1.5082521    0.0061585439
      4307.42       1.5075824    0.0062608291
      4311.72       1.5010848    0.0063575882
      4316.04       1.4989148    0.0064477158
      4320.35       1.5026265    0.0065299602
      4324.67       1.4996104    0.0066031061
      4329.00       1.5005238    0.0066659456
      4333.33       1.5005516    0.0068259866
      4337.66       1.5049217    0.0070781475
      4342.00       1.4997848    0.0073811278
      4346.34       1.4878841    0.0077729931
      4350.69       1.4773945    0.0083919381
      4355.04       1.4679520    0.0092481001
      4359.39       1.4555232     0.010787357
      4363.75       1.4427717     0.013049921
      4368.12       1.4256882     0.016981492
      4372.48       1.4316414     0.023826332
      4376.86       1.4854477       1.4854477
      4381.23       1.3691648       1.3691648
      4385.61       1.3489661       1.3489661
      4390.00       1.3382775       1.3382775
      4394.39       1.3291006       1.3291006
      4398.79       1.3203245       1.3203245
      4403.18       1.3126837       1.3126837
      4407.59       1.3068640       1.3068640
      4412.00       1.2996307       1.2996307
      4416.41       1.2932654       1.2932654
      4420.82       1.2892880       1.2892880
      4425.25       1.2831142       1.2831142
      4429.67       1.2775491       1.2775491
      4434.10       1.2722475       1.2722475
      4438.54       1.2702832       1.2702832
      4442.97       1.2667057       1.2667057
      4447.42       1.2640624       1.2640624
      4451.86       1.2625165       1.2625165
      4456.32       1.2592772       1.2592772
      4460.77       1.2587548       1.2587548
      4465.24       1.2576325       1.2576325
      4469.70       1.2586614       1.2586614
      4474.17       1.2615900       1.2615900
      4478.65       1.2638740       1.2638740
      4483.12       1.2659494       1.2659494
      4487.61       1.2693486       1.2693486
      4492.09       1.2707091       1.2707091
      4496.59       1.2738615       1.2738615
      4501.08       1.2780026       1.2780026
      4505.58       1.2818282       1.2818282
      4510.09       1.2848608       1.2848608
      4514.60       1.2876958       1.2876958
      4519.12       1.2889752       1.2889752
      4523.63       1.2926457       1.2926457
      4528.16       1.2911787       1.2911787
      4532.69       1.2929299       1.2929299
      4537.22       1.2976908       1.2976908
      4541.76       1.2998657       1.2998657
      4546.30       1.3016136       1.3016136
      4550.85       1.2989001       1.2989001
      4555.40       1.2941657       1.2941657
      4559.95       1.2922898       1.2922898
      4564.51       1.2868454       1.2868454
      4569.08       1.2860205       1.2860205
      4573.65       1.2853142       1.2853142
      4578.22       1.2809830       1.2809830
      4582.80       1.2757713       1.2757713
      4587.38       1.2710657       1.2710657
      4591.97       1.2615495       1.2615495
      4596.56       1.2564579       1.2564579
      4601.16       1.2488985       1.2488985
      4605.76       1.2395447       1.2395447
      4610.37       1.2325164       1.2325164
      4614.98       1.2247895       1.2247895
      4619.59       1.2174348       1.2174348
      4624.21       1.2098323       1.2098323
      4628.84       1.2048682       1.2048682
      4633.47       1.2001484       1.2001484
      4638.10       1.1949313       1.1949313
      4642.74       1.1921558       1.1921558
      4647.38       1.1854283       1.1854283
      4652.03       1.1814597       1.1814597
      4656.68       1.1750545       1.1750545
      4661.34       1.1680457       1.1680457
      4666.00       1.1645927       1.1645927
      4670.67       1.1594287       1.1594287
      4675.33       1.1556901       1.1556901
      4680.01       1.1519596       1.1519596
      4684.69       1.1476366       1.1476366
      4689.38       1.1461200       1.1461200
      4694.07       1.1418757       1.1418757
      4698.76       1.1383866       1.1383866
      4703.46       1.1366820       1.1366820
      4708.16       1.1324563       1.1324563
      4712.87       1.1292480       1.1292480
      4717.58       1.1274287       1.1274287
      4722.30       1.1244386       1.1244386
      4727.03       1.1215990       1.1215990
      4731.75       1.1178594       1.1178594
      4736.48       1.1149762       1.1149762
      4741.22       1.1103459       1.1103459
      4745.96       1.1060654       1.1060654
      4750.71       1.1043537       1.1043537
      4755.46       1.1020179       1.1020179
      4760.22       1.0987294       1.0987294
      4764.97       1.0960094       1.0960094
      4769.74       1.0938609       1.0938609
      4774.51       1.0916418       1.0916418
      4779.29       1.0899762       1.0899762
      4784.07       1.0878441       1.0878441
      4788.85       1.0853345       1.0853345
      4793.64       1.0837708       1.0837708
      4798.43       1.0810855       1.0810855
      4803.23       1.0776082       1.0776082
      4808.03       1.0738646       1.0738646
      4812.84       1.0702732       1.0702732
      4817.66       1.0673398       1.0673398
      4822.48       1.0634139       1.0634139
      4827.30       1.0616978       1.0616978
      4832.12       1.0573485       1.0573485
      4836.96       1.0382575       1.0382575
      4841.79       1.0071576       1.0071576
      4846.63       1.0552512     0.016587808
      4851.48       1.0458617     0.012197625
      4856.33       1.0377700    0.0093146774
      4861.19       1.0312958    0.0077909832
      4866.05       1.0203401    0.0067122590
      4870.92       1.0070516    0.0060961168
      4875.79      0.99244175    0.0057127010
      4880.66      0.98132751    0.0054143998
      4885.55      0.97931966    0.0052168207
      4890.43      0.96958323    0.0050536588
      4895.32      0.96491480    0.0050259173
      4900.22      0.96542973    0.0050005155
      4905.12      0.96730224    0.0049980771
      4910.02      0.96519160    0.0049962087
      4914.94      0.96397403    0.0049741235
      4919.85      0.96579208    0.0049848062
      4924.77      0.96946873    0.0049723514
      4929.70      0.97073222    0.0049383931
      4934.62      0.97520173    0.0049197143
      4939.56      0.98354916    0.0048967867
      4944.50      0.98945400    0.0048661444
      4949.44      0.99177419    0.0048146053
      4954.39      0.99278353    0.0047961479
      4959.35      0.98956369    0.0047525423
      4964.31      0.99042525    0.0047048796
      4969.27      0.99156332    0.0046402348
      4974.24      0.99209182    0.0045866822
      4979.22      0.99702572    0.0045309788
      4984.20      0.99798297    0.0044738968
      4989.18       1.0004919    0.0044034282
      4994.17       1.0011212    0.0043455469
      4999.16       1.0000951    0.0042877130
      5004.16      0.99394835    0.0042302315
      5009.17      0.99189631    0.0041740871
      5014.18      0.99071684    0.0041201676
      5019.19      0.98655374    0.0040755742
      5024.21      0.98375181    0.0040278328
      5029.23      0.97937811    0.0039836781
      5034.26      0.97972846    0.0039416856
      5039.30      0.97477342    0.0039022400
      5044.34      0.97251994    0.0038662130
      5049.39      0.96557542    0.0038335460
      5054.43      0.96289405    0.0037925357
      5059.49      0.96089795    0.0037653346
      5064.55      0.95449715    0.0037407078
      5069.61      0.94780661    0.0037044175
      5074.68      0.94261515    0.0036858540
      5079.76      0.94193736    0.0036704684
      5084.84      0.93646890    0.0036582604
      5089.92      0.93004771    0.0036491221
      5095.01      0.92495194    0.0036424665
      5100.11      0.91996195    0.0036375589
      5105.21      0.91799029    0.0036340227
      5110.31      0.91354451    0.0036191669
      5115.42      0.90910165    0.0036182936
      5120.54      0.90985079    0.0036191922
      5125.66      0.90628453    0.0036213678
      5130.79      0.90693767    0.0036111618
      5135.92      0.90573393    0.0036137682
      5141.05      0.90478661    0.0036173673
      5146.20      0.90068452    0.0036216661
      5151.34      0.90148691    0.0036263714
      5156.49      0.89570787    0.0036309446
      5161.65      0.89334732    0.0036352501
      5166.81      0.89599721    0.0036266698
      5171.98      0.89485552    0.0036298008
      5177.15      0.89775345    0.0036451557
      5182.33      0.89577932    0.0036464634
      5187.51      0.89657033    0.0036468541
      5192.70      0.89833962    0.0036337892
      5197.89      0.89621337    0.0036325532
      5203.09      0.89438995    0.0036305612
      5208.29      0.89015282    0.0036277705
      5213.50      0.88918593    0.0036243420
      5218.72      0.88325406    0.0036071771
      5223.93      0.87580913    0.0036024135
      5229.16      0.87410112    0.0035971481
      5234.39      0.86980141    0.0035914877
      5239.62      0.86475491    0.0035849067
      5244.86      0.85993286    0.0035784466
      5250.11      0.85471141    0.0035717422
      5255.36      0.84681153    0.0035523742
      5260.61      0.84534690    0.0035455908
      5265.87      0.84267854    0.0035388525
      5271.14      0.84002707    0.0035311919
      5276.41      0.83511998    0.0035245162
      5281.69      0.83118644    0.0035180496
      5286.97      0.82941722    0.0034995260
      5292.26      0.82535345    0.0034949313
      5297.55      0.82266450    0.0034969421
      5302.85      0.81549897    0.0035057787
      5308.15      0.80700435    0.0035019017
      5313.46      0.79904124    0.0034929697
      5318.77      0.79119519    0.0034863650
      5324.09      0.78658742    0.0035170354
      5329.42      0.78263773    0.0035370948
      5334.75      0.77684975    0.0035766071
      5340.08      0.77224929    0.0036232039
      5345.42      0.76902251    0.0036793713
      5350.77      0.76376300    0.0037251400
      5356.12      0.75873862    0.0037502874
      5361.48      0.75622579    0.0037852166
      5366.83      0.75276963    0.0037709247
      5372.20      0.74864262    0.0037517550
      5377.58      0.74171233    0.0037162515
      5382.95      0.73844132    0.0036624705
      5388.34      0.73956440    0.0036101709
      5393.72      0.73838380    0.0035462060
      5399.12      0.73709232    0.0035144214
      5404.52      0.73078676    0.0034694607
      5409.92      0.72787427    0.0034415335
      5415.33      0.72770457    0.0033889241
      5420.75      0.72515126    0.0033579177
      5426.17      0.72368135    0.0033249331
      5431.60      0.72157544    0.0032958770
      5437.03      0.71955295    0.0032549463
      5442.47      0.72018862    0.0032245489
      5447.91      0.72105509    0.0031986469
      5453.36      0.71879297    0.0031701491
      5458.81      0.71640062    0.0031449519
      5464.27      0.71739471    0.0031159366
      5469.73      0.71668141    0.0030893936
      5475.20      0.71594876    0.0030506817
      5480.68      0.71356691    0.0030199656
      5486.16      0.71379377    0.0029940665
      5491.65      0.71528713    0.0029665983
      5497.14      0.71531213    0.0029334903
      5502.64      0.71789404    0.0029217980
      5508.14      0.72008206    0.0028932128
      5513.65      0.72163029    0.0028765016
      5519.16      0.72169696    0.0028646097
      5524.68      0.71667600    0.0028554582
      5530.20      0.71475017    0.0028432806
      5535.73      0.71474945    0.0028533342
      5541.27      0.71253487    0.0028506663
      5546.81      0.71018327    0.0028615375
      5552.36      0.70691775    0.0028856701
      5557.91      0.70414082    0.0028999355
      5563.47      0.70143204    0.0029345015
      5569.04      0.70119382    0.0029751553
      5574.60      0.69659671    0.0030348362
      5580.18      0.69388956    0.0030926101
      5585.76      0.69278271    0.0031691911
      5591.35      0.69323839    0.0032515968
      5596.94      0.69598806    0.0033103210
      5602.53      0.69973827    0.0033803673
      5608.14      0.70490692    0.0034292196
      5613.75      0.70494136    0.0034883322
      5619.36      0.70609004    0.0035484306
      5624.98      0.70454700    0.0035809599
      5630.60      0.70056721    0.0036262916
      5636.23      0.70080461    0.0036744129
      5641.87      0.70259483    0.0037107452
      5647.51      0.69640221    0.0037714597
      5653.16      0.69014530    0.0038186556
      5658.82      0.68181389    0.0038570856
      5664.47      0.67144361    0.0038686998
      5670.14      0.66755540    0.0038799237
      5675.81      0.66861190    0.0038778818
      5681.48      0.66508059    0.0038557177
      5687.17      0.66729449    0.0038386668
      5692.85      0.66927835    0.0038110900
      5698.55      0.67024259    0.0037865843
      5704.25      0.67197673    0.0037281905
      5709.95      0.67007439    0.0036725337
      5715.66      0.66750096    0.0036117805
      5721.38      0.66636104    0.0035474607
      5727.10      0.66733840    0.0034794494
      5732.83      0.66898986    0.0034017502
      5738.56      0.66564680    0.0033304770
      5744.30      0.66489512    0.0032578003
      5750.04      0.65906231    0.0031841873
      5755.79      0.65380808    0.0031097686
      5761.55      0.64637998    0.0030305246
      5767.31      0.64223519    0.0029582854
      5773.08      0.63850215    0.0028887015
      5778.85      0.64097875    0.0028226260
      5784.63      0.64027283    0.0027607758
      5790.41      0.63840807    0.0027037028
      5796.21      0.63715191    0.0026518782
      5802.00      0.63478106    0.0026058866
      5807.81      0.63033818    0.0025607600
      5813.61      0.62656699    0.0025279757
      5819.43      0.62448926    0.0025021805
      5825.25      0.62195385    0.0024836350
      5831.07      0.62217341    0.0024651251
      5836.90      0.62326712    0.0024617837
      5842.74      0.62288777    0.0024655581
      5848.58      0.61727687    0.0024764094
      5854.43      0.61347441    0.0024965301
      5860.29      0.60792465    0.0025324426
      5866.15      0.60361541    0.0025828326
      5872.01      0.59590817    0.0026312705
      5877.89      0.59267477    0.0026558261
      5883.76      0.58828619    0.0027054004
      5889.65      0.58376181    0.0027940788
      5895.54      0.57851603    0.0029225643
      5901.43      0.57336382    0.0030930667
      5907.34      0.56820833    0.0033042306
      5913.24      0.56198781    0.0035522336
      5919.16      0.55476701    0.0038310491
      5925.08      0.55522567    0.0041268447
      5931.00      0.55915127    0.0044127724
      5936.93      0.56201685    0.0046336396
      5942.87      0.57006255    0.0047580665
      5948.81      0.57324847    0.0047567754
      5954.76      0.57373533    0.0046540303
      5960.72      0.57372919    0.0044200090
      5966.68      0.57471457    0.0041948098
      5972.64      0.57193449    0.0039821073
      5978.62      0.56665108    0.0037942222
      5984.60      0.55773490    0.0036577549
      5990.58      0.55366346    0.0035370375
      5996.57      0.54741085    0.0034371962
      6002.57      0.54091900    0.0033834963
      6008.57      0.53686241    0.0033400963
      6014.58      0.52859389    0.0032898599
      6020.60      0.52718786    0.0032552446
      6026.62      0.52409197    0.0032269136
      6032.65      0.52165545    0.0032021631
      6038.68      0.52152595    0.0031849148
      6044.72      0.52115956    0.0031717861
      6050.76      0.51975367    0.0031526819
      6056.81      0.51704702    0.0031553060
      6062.87      0.51869231    0.0031435769
      6068.93      0.51682640    0.0031448987
      6075.00      0.51585875    0.0031501638
      6081.08      0.51404692    0.0031606420
      6087.16      0.51218580    0.0031744213
      6093.25      0.51069259    0.0031845993
      6099.34      0.50711329    0.0032068864
      6105.44      0.50827126    0.0032371013
      6111.54      0.50611435    0.0032680678
      6117.66      0.50460161    0.0032955442
      6123.78      0.50018193    0.0033460233
      6129.90      0.49635642    0.0033795097
      6136.03      0.49928875    0.0034226726
      6142.17      0.49963552    0.0034724996
      6148.31      0.49850714    0.0035163210
      6154.46      0.49976467    0.0035635029
      6160.61      0.49921055    0.0036033695
      6166.77      0.49690387    0.0036318917
      6172.94      0.49752453    0.0036698720
      6179.11      0.50134832    0.0036990202
      6185.29      0.49585279    0.0037264792
      6191.48      0.49356199    0.0037448919
      6197.67      0.49631078    0.0037467434
      6203.87      0.49895210    0.0037534489
      6210.07      0.50094731    0.0037521454
      6216.28      0.49969856    0.0037414443
      6222.50      0.50379934    0.0037240172
      6228.72      0.49978168    0.0036954002
      6234.95      0.49849159    0.0036482412
      6241.19      0.49647836    0.0036161347
      6247.42      0.49398552    0.0035547605
      6253.67      0.49135849    0.0034968140
      6259.93      0.48976484    0.0034417812
      6266.19      0.48617721    0.0033774302
      6272.46      0.48839298    0.0033068276
      6278.73      0.48836464    0.0032442292
      6285.01      0.49048718    0.0031906341
      6291.29      0.49168307    0.0031346078
      6297.58      0.49313899    0.0030787476
      6303.88      0.49254856    0.0030465182
      6310.19      0.49009334    0.0030105905
      6316.50      0.49201450    0.0029792488
      6322.81      0.49288535    0.0029673653
      6329.14      0.49274210    0.0029589310
      6335.47      0.49160577    0.0029766624
      6341.80      0.49155804    0.0030001315
      6348.14      0.49056711    0.0030250126
      6354.49      0.48975084    0.0030622948
      6360.85      0.48896025    0.0030970365
      6367.21      0.48808490    0.0031318091
      6373.57      0.48704357    0.0031781067
      6379.95      0.48886938    0.0032302568
      6386.33      0.49007485    0.0032757612
      6392.72      0.49760434    0.0033378870
      6399.11      0.50027084    0.0034044802
      6405.51      0.50332246    0.0034610901
      6411.92      0.50457273    0.0035372337
      6418.32      0.50578029    0.0036186513
      6424.74      0.50590922    0.0037064316
      6431.17      0.50537845    0.0037671003
      6437.60      0.50569312    0.0038389779
      6444.04      0.50283450    0.0039036292
      6450.48      0.49738405    0.0039594813
      6456.94      0.49518820    0.0040075270
      6463.39      0.48933782    0.0040395594
      6469.85      0.48547661    0.0040838467
      6476.33      0.48202815    0.0041064506
      6482.80      0.48038183    0.0041012067
      6489.28      0.47803440    0.0040838147
      6495.77      0.47703277    0.0040467734
      6502.27      0.47343060    0.0040096516
      6508.77      0.47884536    0.0039646806
      6515.28      0.48363774    0.0039116233
      6521.80      0.48178997    0.0038503979
      6528.32      0.48191071    0.0037846124
      6534.85      0.48681713    0.0037166466
      6541.38      0.49002922    0.0036480468
      6547.92      0.49548423    0.0035589610
      6554.47      0.49390415    0.0034911869
      6561.03      0.49945543    0.0034257543
      6567.59      0.49795415    0.0033637154
      6574.16      0.49367959    0.0033065686
      6580.73      0.49142602    0.0032550841
      6587.31      0.48566286    0.0032104325
      6593.90      0.48157646    0.0031734920
      6600.50      0.47886272    0.0031351235
      6607.10      0.47239293    0.0031159709
      6613.70      0.46682413    0.0031063626
      6620.32      0.46030258    0.0031061370
      6626.94      0.45172398    0.0031152635
      6633.57      0.45096234    0.0031270589
      6640.20      0.44535628    0.0031546657
      6646.84      0.43963755    0.0031904255
      6653.49      0.43625104    0.0032340350
      6660.14      0.43864257    0.0032796092
      6666.80      0.43432277    0.0033371143
      6673.47      0.42914837    0.0034007488
      6680.14      0.41688632    0.0034830938
      6686.82      0.41260045    0.0035522808
      6693.51      0.39761814    0.0036296668
      6700.20      0.38464583    0.0037097697
      6706.90      0.37560750    0.0037918971
      6713.61      0.36889665    0.0038690783
      6720.32      0.36434481    0.0039525551
      6727.05      0.36240510    0.0040347015
      6733.77      0.35662197    0.0041233863
      6740.51      0.35687486    0.0042002622
      6747.25      0.35796863    0.0042654952
      6754.00      0.36048814    0.0043338904
      6760.75      0.36410517    0.0043978096
      6767.51      0.37745552    0.0044479511
      6774.28      0.38547296    0.0045175870
      6781.05      0.39480451    0.0045573216
      6787.84      0.40073223    0.0046026088
      6794.62      0.40123586    0.0046444675
      6801.42      0.39742353    0.0046873975
      6808.22      0.38891191    0.0047235178
      6815.03      0.38571963    0.0047462358
      6821.85      0.37923603    0.0047777547
      6828.67      0.37656547    0.0048114843
      6835.50      0.38007555    0.0048406582
      6842.33      0.38291472    0.0048577998
      6849.17      0.38231088    0.0049001568
      6856.02      0.38128121    0.0049164156
      6862.88      0.38567708    0.0049441971
      6869.74      0.38762686    0.0049753751
      6876.61      0.38369561    0.0050037136
      6883.49      0.37731772    0.0050206422
      6890.37      0.37997045    0.0050644914
      6897.27      0.38990645    0.0050808241
      6904.16      0.38647460    0.0051120389
      6911.07      0.38340402    0.0051398433
      6917.98      0.38215976    0.0051548767
      6924.89      0.38354930    0.0051932332
      6931.82      0.37942144    0.0052048737
      6938.75      0.37661062    0.0052343579
      6945.69      0.37376744    0.0052579466
      6952.64      0.37400771    0.0052861497
      6959.59      0.37601450    0.0053037091
      6966.55      0.37607518    0.0053464275
      6973.52      0.37369706    0.0053533752
      6980.49      0.37298703    0.0053631328
      6987.47      0.36897324    0.0053531285
      6994.46      0.37000786    0.0053119249
      7001.46      0.36467873    0.0052186632
      7008.46      0.35674766    0.0051138240
      7015.46      0.35901344    0.0049407241
      7022.48      0.37061031    0.0047538800
      7029.51      0.36814126    0.0045539979
      7036.53      0.36288932    0.0043871707
      7043.57      0.36054375    0.0042080490
      7050.62      0.35719154    0.0040459814
      7057.66      0.35232676    0.0038902312
      7064.72      0.35074838    0.0037515712
      7071.79      0.34943749    0.0036442563
      7078.86      0.35082663    0.0035369089
      7085.94      0.35228304    0.0034413633
      7093.03      0.34786016    0.0033606397
      7100.12      0.34130672    0.0032908113
      7107.22      0.33588619    0.0032446951
      7114.33      0.33035988    0.0032213454
      7121.44      0.32346735    0.0032285526
      7128.56      0.32153377    0.0032460825
      7135.69      0.32252732    0.0032967574
      7142.83      0.32215254    0.0033673655
      7149.97      0.32416267    0.0034448637
      7157.12      0.32576491    0.0035583658
      7164.28      0.32241989    0.0036964681
      7171.44      0.32156752    0.0038611077
      7178.62      0.32156063    0.0040405883
      7185.80      0.32310922    0.0042690455
      7192.98      0.32550361    0.0045232426
      7200.17      0.33362617    0.0048219440
      7207.38      0.34178032    0.0051670147
      7214.58      0.34909792    0.0055252555
      7221.80      0.35063251    0.0059866947
      7229.02      0.34063059    0.0065058103
      7236.25      0.33261013    0.0070994159
      7243.49      0.32468602    0.0077775095
      7250.73      0.31814979    0.0085417439
      7257.98      0.31077728    0.0093059522
      7265.24      0.31501860     0.010182122
      7272.51      0.30675072     0.011053821
      7279.78      0.29957854     0.011824825
      7287.06      0.29220717     0.012385897
      7294.35      0.29380853     0.012616284
      7301.64      0.29331488     0.012583250
      7308.94      0.29149462     0.012412143
      7316.25      0.28755447     0.012203106
      7323.57      0.28666978     0.011942966
      7330.89      0.28819171     0.011704732
      7338.22      0.29503872     0.011533086
      7345.56      0.30114153     0.011396686
      7352.91      0.29569639     0.011252705
      7360.26      0.29537680     0.011111491
      7367.62      0.29323741     0.010921247
      7374.99      0.29307154     0.010689949
      7382.37      0.28862412     0.010419383
      7389.75      0.29183609     0.010127358
      7397.14      0.29922679    0.0097806544
      7404.53      0.31349251    0.0094624538
      7411.94      0.31673507    0.0091310059
      7419.35      0.31957634    0.0088260931
      7426.77      0.32041890    0.0085322806
      7434.20      0.31756536    0.0082755430
      7441.63      0.31568668    0.0080039587
      7449.07      0.31366331    0.0077375341
      7456.52      0.32498285    0.0074910288
      7463.98      0.31909641    0.0072782038
      7471.45      0.31752971    0.0071069293
      7478.92      0.30769536    0.0069310990
      7486.40      0.31030400    0.0067825283
      7493.88      0.30597730    0.0066469468
      7501.38      0.29837506    0.0065222917
      7508.88      0.29196404    0.0064153524
      7516.39      0.28277088    0.0063324676
      7523.91      0.27737628    0.0062798552
      7531.43      0.26829901    0.0062563250
      7538.96      0.25867398    0.0062578413
      7546.50      0.25449494    0.0062962862
      7554.05      0.24992948    0.0063506794
      7561.60      0.24296367    0.0064395774
      7569.16      0.23833739    0.0065452598
      7576.73      0.23369331    0.0066836246
      7584.31      0.23240972    0.0068294575
      7591.89      0.23709715    0.0070010124
      7599.49      0.24102770    0.0071821253
      7607.09      0.24598813    0.0073772701
      7614.70      0.24467929    0.0075950483
      7622.31      0.23902215    0.0077937564
      7629.93      0.23887650    0.0080231370
      7637.56      0.23820977    0.0082496622
      7645.20      0.24117991    0.0084718896
      7652.85      0.23872009    0.0086797298
      7660.50      0.24005999    0.0088453374
      7668.16      0.24463006    0.0090126302
      7675.83      0.25587457    0.0091645943
      7683.50      0.24168398    0.0092927440
      7691.19      0.23159149    0.0095226809
      7698.88      0.23152033    0.0097703738
      7706.58      0.22879067     0.010012523
      7714.29      0.23176068     0.010307419
      7722.00      0.23681485     0.010629134
      7729.73      0.22528485     0.010998865
      7737.45      0.21284419     0.011407609
      7745.19      0.20984567     0.011919173
      7752.94      0.20548203     0.012505964
      7760.69      0.19600385     0.013313676
      7768.45      0.19449361     0.014283412
      7776.22      0.19373327     0.015572342
      7784.00      0.19116054     0.017341486
      7791.78      0.19421170     0.019417159
      7799.57      0.20010713     0.022383639
      7807.37      0.20792181     0.025869739
      7815.18      0.22036620     0.030705626
