# starting wavelength =        2961.0051
# ending wavelength =        9159.6400
# O2 telluric scale =        0
# O2 telluric shift =        0
# H2O telluric scale =        0
# H2O telluric shift =        0
      2963.90      0.87073523     0.054788572
      2966.87      0.88025120     0.052532441
      2969.84      0.88715896     0.051460434
      2972.81      0.89431113     0.050415082
      2975.78      0.91607548     0.049535318
      2978.76      0.92055452     0.047439029
      2981.73      0.91453534     0.046448573
      2984.72      0.91956245     0.045605987
      2987.70      0.92842027     0.044661851
      2990.69      0.92233150     0.042717233
      2993.68      0.92842975     0.041913560
      2996.67      0.93932649     0.041022347
      2999.67      0.94584412     0.040155761
      3002.67      0.94553574     0.038451974
      3005.67      0.93768057     0.037611464
      3008.68      0.93033331     0.036796646
      3011.69      0.92409567     0.036009644
      3014.70      0.90718415     0.034425757
      3017.71      0.90770773     0.033659565
      3020.73      0.90825237     0.032926057
      3023.75      0.90379560     0.032173060
      3026.78      0.90867162     0.030739031
      3029.80      0.91390837     0.030057031
      3032.83      0.91885445     0.029353172
      3035.87      0.92074912     0.028672480
      3038.90      0.89453838     0.027394010
      3041.94      0.88683009     0.026739214
      3044.98      0.89639071     0.026105619
      3048.03      0.89966944     0.025551137
      3051.08      0.90695281     0.024322895
      3054.13      0.91713281     0.023737179
      3057.18      0.92186552     0.023221738
      3060.24      0.91867167     0.022097186
      3063.30      0.90789909     0.021604603
      3066.36      0.89373978     0.021082800
      3069.43      0.89773610     0.020580191
      3072.50      0.90811753     0.019604357
      3075.57      0.90564701     0.019126599
      3078.65      0.90064757     0.018668160
      3081.73      0.89966826     0.018207471
      3084.81      0.89185031     0.017348231
      3087.89      0.89571106     0.016931525
      3090.98      0.90261728     0.016514350
      3094.07      0.89730128     0.015739312
      3097.17      0.89937389     0.015367398
      3100.26      0.90118297     0.014989101
      3103.36      0.90319029     0.014627213
      3106.47      0.89570915     0.013960864
      3109.58      0.89328248     0.013622838
      3112.68      0.88746305     0.013300291
      3115.80      0.88251325     0.012708105
      3118.91      0.87668462     0.012408161
      3122.03      0.87302862     0.012155939
      3125.15      0.86986901     0.011885129
      3128.28      0.86511188     0.011338453
      3131.41      0.86565561     0.011121000
      3134.54      0.86684530     0.010884859
      3137.67      0.86751648     0.010437398
      3140.81      0.87413039     0.010221431
      3143.95      0.88007029     0.010018459
      3147.10      0.88435933    0.0096324185
      3150.24      0.89045128    0.0094484779
      3153.39      0.89796816    0.0092983575
      3156.55      0.90652711    0.0089486236
      3159.70      0.90702096    0.0089668047
      3162.86      0.90756871    0.0090375688
      3166.03      0.91123710    0.0091485203
      3169.19      0.91793343    0.0092779249
      3172.36      0.91856854    0.0093606359
      3175.54      0.91509045    0.0085081100
      3178.71      0.91618469    0.0079646749
      3181.89      0.91632898    0.0079440546
      3185.07      0.91966354    0.0080163418
      3188.26      0.92140758    0.0079451284
      3191.45      0.92398636    0.0080359272
      3194.64      0.92726377    0.0082047164
      3197.83      0.93132824    0.0082074805
      3201.03      0.92635209    0.0083887411
      3204.23      0.92410036    0.0085022766
      3207.44      0.92169759    0.0085290556
      3210.64      0.91844225    0.0085948034
      3213.85      0.91740758    0.0086455823
      3217.07      0.91605210    0.0085059877
      3220.28      0.91151062    0.0083706489
      3223.51      0.90794057    0.0083313196
      3226.73      0.91483615    0.0080505206
      3229.96      0.92182785    0.0079904978
      3233.19      0.93110904    0.0078046532
      3236.42      0.94224293    0.0075681499
      3239.66      0.94786244    0.0075511126
      3242.90      0.95598665    0.0074244872
      3246.14      0.96276356    0.0075150384
      3249.39      0.96772197    0.0075242339
      3252.64      0.96751903    0.0084804933
      3255.89      0.97139424    0.0082263621
      3259.14      0.97982204    0.0080973550
      3262.40      0.98796487    0.0079411509
      3265.67      0.99420737    0.0077913244
      3268.93       1.0028032    0.0078525633
      3272.20       1.0088485    0.0079212783
      3275.47       1.0223100    0.0080608561
      3278.75       1.0356900    0.0081348552
      3282.03       1.0514698    0.0083566606
      3285.31       1.0597246    0.0083699277
      3288.60       1.0689793    0.0086088736
      3291.88       1.0742803    0.0086902996
      3295.18       1.0831805    0.0088789648
      3298.47       1.0911043    0.0089623492
      3301.77       1.1012152    0.0091642363
      3305.07       1.1092633    0.0092488539
      3308.38       1.1126996    0.0095237112
      3311.69       1.1250499    0.0095458700
      3315.00       1.1466726    0.0098270622
      3318.31       1.1569925    0.0099287649
      3321.63       1.1655880    0.0099422168
      3324.95       1.1713129     0.010236436
      3328.28       1.1733503     0.010249864
      3331.61       1.1732704     0.010546896
      3334.94       1.1734576     0.010651886
      3338.27       1.1750866     0.010855492
      3341.61       1.1831164     0.010956971
      3344.95       1.1932858     0.011261587
      3348.30       1.1937943     0.011256887
      3351.65       1.1982400     0.011691254
      3355.00       1.2049729     0.011928305
      3358.35       1.2132743     0.012448041
      3361.71       1.2208488     0.012960457
      3365.07       1.2234584     0.011663079
      3368.44       1.2259729     0.011905908
      3371.81       1.2290135     0.012161438
      3375.18       1.2312086     0.012625444
      3378.56       1.2367245     0.012910522
      3381.94       1.2452079     0.013452465
      3385.32       1.2508448     0.013736905
      3388.70       1.2483859     0.014297508
      3392.09       1.2480138     0.014466279
      3395.48       1.2492074     0.014698852
      3398.88       1.2443417     0.014878812
      3402.28       1.2463048     0.014779728
      3405.68       1.2473626     0.014760665
      3409.09       1.2489150     0.014542657
      3412.49       1.2453318     0.014368857
      3415.91       1.2487244     0.014093563
      3419.32       1.2536819     0.013716739
      3422.74       1.2538311     0.013646106
      3426.17       1.2585417     0.013337403
      3429.59       1.2599354     0.013466907
      3433.02       1.2546279     0.013368063
      3436.45       1.2563553     0.014845133
      3439.89       1.2558951     0.014319569
      3443.33       1.2556381     0.013973012
      3446.78       1.2567783     0.013607356
      3450.22       1.2605952     0.013622880
      3453.67       1.2612148     0.013483570
      3457.13       1.2660592     0.013688054
      3460.58       1.2649045     0.013542840
      3464.04       1.2613161     0.013549033
      3467.51       1.2533597     0.013588292
      3470.98       1.2493774     0.013589665
      3474.45       1.2481541     0.013622035
      3477.92       1.2449590     0.013618914
      3481.40       1.2435262     0.013812726
      3484.88       1.2427383     0.014000879
      3488.37       1.2414155     0.014423414
      3491.86       1.2438755     0.014849075
      3495.35       1.2448460     0.015466128
      3498.84       1.2534055     0.014306608
      3502.34       1.2640575     0.013843112
      3505.84       1.2709850     0.014099675
      3509.35       1.2742169     0.014356371
      3512.86       1.2780792     0.014762502
      3516.37       1.2852340     0.015199221
      3519.89       1.2879427     0.015643032
      3523.41       1.2955257     0.016078035
      3526.93       1.3029065     0.016461473
      3530.46       1.3065288     0.016689320
      3533.99       1.3105752     0.016551060
      3537.53       1.3152281     0.016633528
      3541.06       1.3199973     0.015999518
      3544.60       1.3187783     0.015832089
      3548.15       1.3167886     0.015128003
      3551.70       1.3154000     0.014825947
      3555.25       1.3142834     0.014201545
      3558.80       1.3110229     0.013901014
      3562.36       1.3095568     0.013444143
      3565.92       1.3106184     0.013313792
      3569.49       1.3079829     0.013175508
      3573.06       1.3075988     0.014680676
      3576.64       1.3056240     0.013979339
      3580.21       1.3019338     0.013440738
      3583.79       1.3004534     0.013165737
      3587.38       1.3011693     0.012746058
      3590.96       1.3000622     0.012544557
      3594.55       1.2979114     0.012462166
      3598.15       1.2989403     0.012423118
      3601.75       1.3001766     0.012335873
      3605.35       1.3051609     0.012119880
      3608.96       1.3071816     0.012203898
      3612.56       1.3084408     0.011985952
      3616.18       1.3076788     0.012068133
      3619.79       1.3102194     0.011847366
      3623.41       1.3098118     0.011927491
      3627.04       1.3089997     0.011831494
      3630.66       1.3098214     0.011615482
      3634.29       1.3077252     0.011682700
      3637.93       1.3043266     0.011800871
      3641.57       1.3030278     0.012077305
      3645.21       1.2989852     0.012369032
      3648.86       1.2926725     0.012791184
      3652.50       1.2865430     0.013103944
      3656.16       1.2847067     0.013737043
      3659.81       1.2760414     0.014967789
      3663.47       1.2633774     0.016352915
      3667.14       1.2530544     0.018352935
      3670.80       1.2415897     0.020268165
      3674.48       1.2314777     0.024161507
      3678.15       1.2220466     0.031981612
      3681.83       1.2171567     0.041342754
      3685.51       1.2199773     0.049874930
      3689.20       1.2007977     0.028484342
      3692.88       1.2015195     0.027583256
      3696.58       1.1978937     0.033663510
      3700.27       1.1816250     0.036206807
      3703.98       1.1772630     0.033924557
      3707.68       1.1635069     0.038752885
      3711.39       1.1604137     0.035575725
      3715.10       1.1638413     0.033166798
      3718.81       1.1721811     0.029489316
      3722.53       1.1783476     0.026747878
      3726.26       1.1669289     0.024191352
      3729.98       1.1663722     0.022675867
      3733.71       1.1568500     0.042377428
      3737.45       1.1618719     0.031570175
      3741.18       1.1618460     0.024356609
      3744.93       1.1578151     0.018428908
      3748.67       1.1568939     0.015326460
      3752.42       1.1607291     0.013206260
      3756.17       1.1631697     0.012122931
      3759.93       1.1628598     0.010965699
      3763.69       1.1636265     0.010124117
      3767.45       1.1654087    0.0094531636
      3771.22       1.1693478    0.0090005885
      3774.99       1.1739722    0.0087653142
      3778.77       1.1808071    0.0084344025
      3782.54       1.1892804    0.0081479277
      3786.33       1.1952687    0.0080080579
      3790.11       1.1984720    0.0079151767
      3793.90       1.2101733    0.0077553503
      3797.70       1.2238986    0.0077793845
      3801.50       1.2385695    0.0076212899
      3805.30       1.2491999    0.0075395216
      3809.10       1.2618862    0.0075631442
      3812.91       1.2741038    0.0074121019
      3816.73       1.2873593    0.0075446574
      3820.54       1.2973378    0.0076989761
      3824.36       1.3076507    0.0074051016
      3828.19       1.3222867    0.0071486733
      3832.02       1.3337611    0.0071338427
      3835.85       1.3470284    0.0071126586
      3839.68       1.3600406    0.0071493455
      3843.52       1.3754073    0.0072057510
      3847.37       1.3939288    0.0072682321
      3851.22       1.4106263    0.0073298814
      3855.07       1.4241590    0.0073780189
      3858.92       1.4403075    0.0074022583
      3862.78       1.4526217    0.0072976089
      3866.64       1.4650753    0.0073919533
      3870.51       1.4768265    0.0072813082
      3874.38       1.4904030    0.0070953973
      3878.26       1.5104421    0.0082687259
      3882.13       1.5206721    0.0078680746
      3886.02       1.5317884    0.0077372280
      3889.90       1.5416486    0.0073953419
      3893.79       1.5464814    0.0072324453
      3897.69       1.5514926    0.0072587412
      3901.59       1.5560746    0.0072345259
      3905.49       1.5608399    0.0073747313
      3909.39       1.5676881    0.0072007669
      3913.30       1.5751165    0.0069470077
      3917.22       1.5843066    0.0069045646
      3921.13       1.5917239    0.0069747013
      3925.06       1.6019577    0.0068332268
      3928.98       1.6097750    0.0067946731
      3932.91       1.6205732    0.0067607273
      3936.84       1.6207099    0.0067299730
      3940.78       1.6202430    0.0066949958
      3944.72       1.6154241    0.0066641364
      3948.67       1.6089661    0.0066371295
      3952.61       1.5981701    0.0066051341
      3956.57       1.5887623    0.0065773331
      3960.52       1.5797008    0.0065536431
      3964.48       1.5698277    0.0065246924
      3968.45       1.5539900    0.0064996577
      3972.42       1.5387246    0.0064783031
      3976.39       1.5270146    0.0064535980
      3980.37       1.5127035    0.0064307883
      3984.35       1.4975086    0.0064117236
      3988.33       1.4859346    0.0062990611
      3992.32       1.4795900    0.0063703543
      3996.31       1.4721165    0.0063533033
      4000.31       1.4625915    0.0062468407
      4004.31       1.4540133    0.0062280508
      4008.31       1.4465480    0.0063027571
      4012.32       1.4407448    0.0062905083
      4016.33       1.4375230    0.0061851755
      4020.35       1.4325521    0.0062597545
      4024.37       1.4281625    0.0062488478
      4028.40       1.4254121    0.0061498234
      4032.42       1.4226504    0.0061368480
      4036.46       1.4226226    0.0062142027
      4040.50       1.4214423    0.0062070189
      4044.54       1.4208904    0.0061093462
      4048.58       1.4213099    0.0061003266
      4052.63       1.4193572    0.0061798081
      4056.68       1.4133857    0.0060886116
      4060.74       1.4059931    0.0060797868
      4064.80       1.4040069    0.0062677885
      4068.86       1.4038396    0.0060772787
      4072.93       1.4023608    0.0060739695
      4077.01       1.4034124    0.0060816624
      4081.08       1.4050538    0.0061403388
      4085.17       1.4042570    0.0061422642
      4089.25       1.4031631    0.0062880512
      4093.34       1.4016808    0.0063648102
      4097.43       1.3963368    0.0064231727
      4101.53       1.3866350    0.0063628559
      4105.63       1.3798439    0.0064526937
      4109.74       1.3704546    0.0064208992
      4113.85       1.3624295    0.0063593153
      4117.96       1.3566815    0.0061838161
      4122.08       1.3546681    0.0061076387
      4126.20       1.3456087    0.0061256657
      4130.33       1.3333278    0.0060634119
      4134.46       1.3209136    0.0059438272
      4138.59       1.3075406    0.0059833187
      4142.73       1.3041621    0.0061725024
      4146.88       1.3029541    0.0060453961
      4151.02       1.3050667    0.0060474274
      4155.18       1.3092442    0.0059606767
      4159.33       1.3143420    0.0059652221
      4163.49       1.3168201    0.0059708887
      4167.65       1.3179273    0.0060533265
      4171.82       1.3194638    0.0059657019
      4175.99       1.3182866    0.0059695177
      4180.17       1.3153633    0.0059741131
      4184.35       1.3157755    0.0059796618
      4188.54       1.3157396    0.0059715781
      4192.72       1.3161437    0.0059741556
      4196.92       1.3188473    0.0059773774
      4201.11       1.3143821    0.0059814786
      4205.31       1.3046355    0.0059864900
      4209.52       1.2950844    0.0059009260
      4213.73       1.2859035    0.0059792326
      4217.94       1.2800642    0.0059814357
      4222.16       1.2782473    0.0059839720
      4226.38       1.2722116    0.0059869296
      4230.61       1.2656244    0.0059014167
      4234.84       1.2614976    0.0059008047
      4239.08       1.2561989    0.0059779656
      4243.32       1.2503748    0.0059785984
      4247.56       1.2450155    0.0059793141
      4251.81       1.2389823    0.0058941720
      4256.06       1.2319783    0.0058911768
      4260.32       1.2245259    0.0058884503
      4264.58       1.2199010    0.0059638759
      4268.84       1.2177883    0.0059614946
      4273.11       1.2143539    0.0058780197
      4277.38       1.2096975    0.0058722015
      4281.66       1.2059839    0.0058664981
      4285.94       1.2049694    0.0058609077
      4290.23       1.2006241    0.0058553860
      4294.52       1.1983566    0.0059283083
      4298.81       1.1986036    0.0058440697
      4303.11       1.1965202    0.0058355977
      4307.42       1.1909788    0.0058270525
      4311.72       1.1881277    0.0058188484
      4316.04       1.1879640    0.0058106773
      4320.35       1.1825807    0.0057235029
      4324.67       1.1835611    0.0057972564
      4329.00       1.1864018    0.0057863421
      4333.33       1.1842324    0.0057753298
      4337.66       1.1836642    0.0057643745
      4342.00       1.1839662    0.0057537199
      4346.34       1.1879698    0.0057429447
      4350.69       1.1880441    0.0056549317
      4355.04       1.1879410    0.0056444854
      4359.39       1.1913694    0.0056340558
      4363.75       1.1972594    0.0057000259
      4368.12       1.2005194    0.0056869858
      4372.48       1.2024544    0.0056739442
      4376.86       1.2079736    0.0056607881
      4381.23       1.2183506    0.0055722280
      4385.61       1.2240695    0.0055595752
      4390.00       1.2303264    0.0055468137
      4394.39       1.2421432    0.0055341589
      4398.79       1.2545210    0.0055215854
      4403.18       1.2681972    0.0055089102
      4407.59       1.2867980    0.0055680039
      4412.00       1.3024761    0.0054792323
      4416.41       1.3188276    0.0054645739
      4420.82       1.3367357    0.0054499857
      4425.25       1.3552538    0.0054354203
      4429.67       1.3697277    0.0054208879
      4434.10       1.3840858    0.0054064044
      4438.54       1.3993036    0.0053919760
      4442.97       1.4151866    0.0053775592
      4447.42       1.4291585    0.0053631598
      4451.86       1.4429477    0.0052780841
      4456.32       1.4568941    0.0052622696
      4460.77       1.4698228    0.0052465565
      4465.24       1.4797140    0.0052997800
      4469.70       1.4836460    0.0052840371
      4474.17       1.4890472    0.0052682303
      4478.65       1.4981249    0.0052525901
      4483.12       1.5081939    0.0052370523
      4487.61       1.5218316    0.0052214820
      4492.09       1.5344858    0.0052060418
      4496.59       1.5425553    0.0051262689
      4501.08       1.5539864    0.0051098467
      4505.58       1.5651636    0.0050936667
      4510.09       1.5724454    0.0050774779
      4514.60       1.5798624    0.0050614220
      4519.12       1.5901024    0.0050455991
      4523.63       1.5973952    0.0050297896
      4528.16       1.6041738    0.0050141204
      4532.69       1.6120211    0.0049986834
      4537.22       1.6158234    0.0049832942
      4541.76       1.6166277    0.0049680580
      4546.30       1.6119986    0.0049530528
      4550.85       1.6030625    0.0049381127
      4555.40       1.5929960    0.0048618250
      4559.95       1.5841120    0.0048475180
      4564.51       1.5758364    0.0048331339
      4569.08       1.5684012    0.0048191441
      4573.65       1.5605151    0.0048707640
      4578.22       1.5491175    0.0048561139
      4582.80       1.5331292    0.0048417630
      4587.38       1.5234945    0.0048276916
      4591.97       1.5128009    0.0048137978
      4596.56       1.5020824    0.0048002326
      4601.16       1.4916046    0.0047869569
      4605.76       1.4834695    0.0047738714
      4610.37       1.4714236    0.0047611195
      4614.98       1.4633823    0.0047487719
      4619.59       1.4563793    0.0047364630
      4624.21       1.4498806    0.0047245400
      4628.84       1.4426616    0.0047130552
      4633.47       1.4314740    0.0047016520
      4638.10       1.4205634    0.0046906664
      4642.74       1.4103465    0.0046801407
      4647.38       1.4035929    0.0047301088
      4652.03       1.3950609    0.0048646294
      4656.68       1.3894005    0.0046068885
      4661.34       1.3827488    0.0045359649
      4666.00       1.3744854    0.0045769596
      4670.67       1.3687290    0.0046546431
      4675.33       1.3670238    0.0047494344
      4680.01       1.3640416    0.0048475665
      4684.69       1.3604503    0.0049357265
      4689.38       1.3515824    0.0050011968
      4694.07       1.3461510    0.0050346344
      4698.76       1.3378924    0.0050050473
      4703.46       1.3347788    0.0049386248
      4708.16       1.3320922    0.0048464244
      4712.87       1.3270982    0.0047395114
      4717.58       1.3229868    0.0046305153
      4722.30       1.3182347    0.0045328689
      4727.03       1.3166902    0.0044610798
      4731.75       1.3165610    0.0044398042
      4736.48       1.3183826    0.0045354215
      4741.22       1.3190102    0.0046290124
      4745.96       1.3228278    0.0044900729
      4750.71       1.3267376    0.0044348253
      4755.46       1.3323612    0.0044873887
      4760.22       1.3379105    0.0044864843
      4764.97       1.3407347    0.0044860834
      4769.74       1.3405701    0.0044336907
      4774.51       1.3392677    0.0044339353
      4779.29       1.3374630    0.0044347299
      4784.07       1.3368964    0.0044356786
      4788.85       1.3348936    0.0044369391
      4793.64       1.3312092    0.0044387330
      4798.43       1.3258027    0.0044406774
      4803.23       1.3201382    0.0044429075
      4808.03       1.3142547    0.0044456721
      4812.84       1.3081414    0.0044485871
      4817.66       1.3028214    0.0044517732
      4822.48       1.3029646    0.0044554830
      4827.30       1.3019059    0.0044072246
      4832.12       1.3002430    0.0044104190
      4836.96       1.3035840    0.0044139645
      4841.79       1.3058048    0.0044176398
      4846.63       1.3066091    0.0044216533
      4851.48       1.3075349    0.0044260159
      4856.33       1.3059743    0.0044304902
      4861.19       1.3056609    0.0044352886
      4866.05       1.3042615    0.0044982031
      4870.92       1.3025291    0.0045035249
      4875.79       1.2999775    0.0044595021
      4880.66       1.2975863    0.0044641542
      4885.55       1.2928598    0.0044688897
      4890.43       1.2869169    0.0044741366
      4895.32       1.2807215    0.0044794945
      4900.22       1.2732339    0.0044849229
      4905.12       1.2643708    0.0044908619
      4910.02       1.2590692    0.0044969328
      4914.94       1.2555387    0.0044544916
      4919.85       1.2472832    0.0044610468
      4924.77       1.2393375    0.0044677150
      4929.70       1.2332802    0.0045300708
      4934.62       1.2272913    0.0045358135
      4939.56       1.2183878    0.0045416004
      4944.50       1.2117225    0.0045476667
      4949.44       1.2029208    0.0045048603
      4954.39       1.1961169    0.0045113354
      4959.35       1.1917083    0.0045180190
      4964.31       1.1876167    0.0045249032
      4969.27       1.1895603    0.0045318971
      4974.24       1.1916609    0.0045937550
      4979.22       1.1945216    0.0045995217
      4984.20       1.1965676    0.0045556694
      4989.18       1.1992161    0.0045618744
      4994.17       1.2036039    0.0045681639
      4999.16       1.2054985    0.0045747053
      5004.16       1.2095555    0.0045815286
      5009.17       1.2095812    0.0045884612
      5014.18       1.2084220    0.0045981495
      5019.19       1.2069629    0.0046034785
      5024.21       1.2067092    0.0046089318
      5029.23       1.2053746    0.0046147452
      5034.26       1.2023959    0.0046207580
      5039.30       1.2023197    0.0046269552
      5044.34       1.2027341    0.0045791456
      5049.39       1.2027349    0.0045834822
      5054.43       1.2060152    0.0046449693
      5059.49       1.2112001    0.0046497918
      5064.55       1.2213364    0.0046547304
      5069.61       1.2250442    0.0046070052
      5074.68       1.2264007    0.0046100259
      5079.76       1.2267569    0.0046132187
      5084.84       1.2264459    0.0046736226
      5089.92       1.2259030    0.0046773501
      5095.01       1.2247051    0.0046294416
      5100.11       1.2267911    0.0046315898
      5105.21       1.2275808    0.0046336766
      5110.31       1.2299342    0.0046359864
      5115.42       1.2308259    0.0046465440
      5120.54       1.2300975    0.0046480336
      5125.66       1.2321788    0.0046508647
      5130.79       1.2394885    0.0046547866
      5135.92       1.2478769    0.0046589895
      5141.05       1.2534630    0.0046145545
      5146.20       1.2631975    0.0046746853
      5151.34       1.2757615    0.0046773138
      5156.49       1.2886401    0.0046788888
      5161.65       1.2959438    0.0046291705
      5166.81       1.3011197    0.0046293835
      5171.98       1.3064785    0.0046815060
      5177.15       1.3127189    0.0046779429
      5182.33       1.3194858    0.0046235873
      5187.51       1.3243987    0.0046201188
      5192.70       1.3308068    0.0046173112
      5197.89       1.3390531    0.0046649025
      5203.09       1.3442482    0.0046082148
      5208.29       1.3491232    0.0046026296
      5213.50       1.3539820    0.0045970955
      5218.72       1.3592142    0.0045917496
      5223.93       1.3666114    0.0045819783
      5229.16       1.3753713    0.0045742477
      5234.39       1.3795307    0.0045665027
      5239.62       1.3837345    0.0045593074
      5244.86       1.3891878    0.0045485219
      5250.11       1.3914646    0.0045405554
      5255.36       1.3910701    0.0045326711
      5260.61       1.3916303    0.0045254330
      5265.87       1.3916938    0.0045137518
      5271.14       1.3910246    0.0045056203
      5276.41       1.3899332    0.0044983447
      5281.69       1.3887135    0.0044391946
      5286.97       1.3841192    0.0044797299
      5292.26       1.3819020    0.0044715264
      5297.55       1.3800356    0.0044137316
      5302.85       1.3802693    0.0044038707
      5308.15       1.3818389    0.0044433296
      5313.46       1.3848381    0.0044346572
      5318.77       1.3855411    0.0043754129
      5324.09       1.3878464    0.0043650744
      5329.42       1.3936071    0.0044036304
      5334.75       1.3986844    0.0043449600
      5340.08       1.4038990    0.0043335772
      5345.42       1.4081350    0.0043230478
      5350.77       1.4137855    0.0043124623
      5356.12       1.4180105    0.0043001934
      5361.48       1.4223189    0.0042885993
      5366.83       1.4247074    0.0042313900
      5372.20       1.4275082    0.0042647234
      5377.58       1.4314896    0.0042522192
      5382.95       1.4326895    0.0041945220
      5388.34       1.4328048    0.0043253560
      5393.72       1.4311232    0.0044377603
      5399.12       1.4275724    0.0043020989
      5404.52       1.4253326    0.0041825943
      5409.92       1.4221424    0.0042268158
      5415.33       1.4150334    0.0042673724
      5420.75       1.4078945    0.0043745362
      5426.17       1.4029555    0.0045514936
      5431.60       1.3976567    0.0046037614
      5437.03       1.3901413    0.0046929009
      5442.47       1.3836809    0.0048173149
      5447.91       1.3786790    0.0047032454
      5453.36       1.3722231    0.0046132732
      5458.81       1.3639324    0.0045359852
      5464.27       1.3549371    0.0043537398
      5469.73       1.3506243    0.0042260944
      5475.20       1.3451128    0.0041073835
      5480.68       1.3396183    0.0040245380
      5486.16       1.3323233    0.0039932285
      5491.65       1.3280188    0.0043220299
      5497.14       1.3262505    0.0041564322
      5502.64       1.3240005    0.0040324487
      5508.14       1.3235352    0.0039272300
      5513.65       1.3209576    0.0039098942
      5519.16       1.3199697    0.0038444024
      5524.68       1.3219307    0.0038613839
      5530.20       1.3224066    0.0038411761
      5535.73       1.3214596    0.0037762577
      5541.27       1.3201013    0.0037966462
      5546.81       1.3158763    0.0037367167
      5552.36       1.3115642    0.0037177994
      5557.91       1.3074027    0.0037372219
      5563.47       1.3032673    0.0036782058
      5569.04       1.2988149    0.0036614936
      5574.60       1.2939747    0.0036408248
      5580.18       1.2864257    0.0036240088
      5585.76       1.2765628    0.0036051280
      5591.35       1.2681815    0.0035882009
      5596.94       1.2610412    0.0035728320
      5602.53       1.2541965    0.0035543407
      5608.14       1.2468280    0.0035390893
      5613.75       1.2426165    0.0034873173
      5619.36       1.2346784    0.0035065107
      5624.98       1.2248632    0.0034551862
      5630.60       1.2165904    0.0034762659
      5636.23       1.2071500    0.0034633122
      5641.87       1.1978026    0.0034161512
      5647.51       1.1893708    0.0034384815
      5653.16       1.1837694    0.0033907926
      5658.82       1.1778184    0.0034128246
      5664.47       1.1731201    0.0033647375
      5670.14       1.1683987    0.0033544102
      5675.81       1.1634816    0.0033381874
      5681.48       1.1593406    0.0033265417
      5687.17       1.1561337    0.0033094859
      5692.85       1.1493689    0.0032970451
      5698.55       1.1417971    0.0033158397
      5704.25       1.1359198    0.0032685168
      5709.95       1.1309171    0.0032584332
      5715.66       1.1251040    0.0032431784
      5721.38       1.1190646    0.0032339038
      5727.10       1.1075352    0.0032196033
      5732.83       1.0993579    0.0032101690
      5738.56       1.0949061    0.0031965775
      5744.30       1.0887901    0.0031875244
      5750.04       1.0835517    0.0031446932
      5755.79       1.0795381    0.0031678730
      5761.55       1.0763089    0.0031261921
      5767.31       1.0721859    0.0031494596
      5773.08       1.0690306    0.0031099431
      5778.85       1.0675485    0.0026850512
      5784.63       1.0655378    0.0026995823
      5790.41       1.0654717    0.0026754735
      5796.21       1.0643327    0.0026919480
      5802.00       1.0625086    0.0026694178
      5807.81       1.0630848    0.0026872607
      5813.61       1.0658281    0.0026659820
      5819.43       1.0653011    0.0026851182
      5825.25       1.0647466    0.0026651983
      5831.07       1.0661595    0.0026855607
      5836.90       1.0660491    0.0026670660
      5842.74       1.0647311    0.0026688894
      5848.58       1.0632160    0.0026719391
      5854.43       1.0617516    0.0026750617
      5860.29       1.0593981    0.0026798966
      5866.15       1.0587564    0.0026653746
      5872.01       1.0570003    0.0026909752
      5877.89       1.0531984    0.0026779382
      5883.76       1.0504034    0.0027053504
      5889.65       1.0474261    0.0026937666
      5895.54       1.0442070    0.0027231065
      5901.43       1.0422326    0.0027130294
      5907.34       1.0388378    0.0027444197
      5913.24       1.0363305    0.0027546988
      5919.16       1.0321398    0.0028268158
      5925.08       1.0283089    0.0028903157
      5931.00       1.0253193    0.0030011828
      5936.93       1.0222753    0.0031110683
      5942.87       1.0182260    0.0032451851
      5948.81       1.0126843    0.0034329857
      5954.76       1.0099281    0.0037635834
      5960.72       1.0087271    0.0041752124
      5966.68       1.0051493    0.0046382004
      5972.64       1.0035743    0.0036163312
      5978.62       1.0006759    0.0037674616
      5984.60      0.99718662    0.0039565034
      5990.58      0.99321248    0.0042199266
      5996.57      0.98707315    0.0045149114
      6002.57      0.98348309    0.0048283337
      6008.57      0.97904098    0.0051405701
      6014.58      0.97300166    0.0054591313
      6020.60      0.97101560    0.0058606941
      6026.62      0.96693627    0.0057508043
      6032.65      0.95946942    0.0057009919
      6038.68      0.96293355    0.0055094079
      6044.72      0.96446339    0.0052676216
      6050.76      0.96820200    0.0050898477
      6056.81      0.96849582    0.0049353447
      6062.87      0.96729974    0.0047402143
      6068.93      0.96663985    0.0048241434
      6075.00      0.96523322    0.0055869335
      6081.08      0.96250035    0.0051852914
      6087.16      0.96116302    0.0047375423
      6093.25      0.95874136    0.0044901422
      6099.34      0.95832709    0.0043415420
      6105.44      0.95683328    0.0041764095
      6111.54      0.95458765    0.0040835807
      6117.66      0.95193859    0.0040055078
      6123.78      0.94995802    0.0039302727
      6129.90      0.94850479    0.0039267454
      6136.03      0.94767893    0.0039826459
      6142.17      0.94678343    0.0040009676
      6148.31      0.94738161    0.0040786538
      6154.46      0.94627140    0.0041374721
      6160.61      0.94566637    0.0041546024
      6166.77      0.94398397    0.0042314596
      6172.94      0.94400394    0.0042484309
      6179.11      0.94490109    0.0043055562
      6185.29      0.94772004    0.0043868526
      6191.48      0.95177038    0.0044092774
      6197.67      0.95960248    0.0044737056
      6203.87      0.96472560    0.0044938516
      6210.07      0.97066078    0.0045798745
      6216.28      0.97594234    0.0046436213
      6222.50      0.98045334    0.0046643677
      6228.72      0.98535631    0.0047549361
      6234.95      0.98848634    0.0048311284
      6241.19      0.99237638    0.0048725492
      6247.42      0.99661927    0.0049848819
      6253.67       1.0016197    0.0050859598
      6259.93       1.0073229    0.0051351711
      6266.19       1.0089517    0.0052361256
      6272.46       1.0109113    0.0053568946
      6278.73       1.0152918    0.0054000338
      6285.01       1.0175982    0.0054960460
      6291.29       1.0219616    0.0055858322
      6297.58       1.0248754    0.0056387382
      6303.88       1.0270831    0.0057152356
      6310.19       1.0290046    0.0057832637
      6316.50       1.0317573    0.0057900844
      6322.81       1.0333278    0.0058725086
      6329.14       1.0349559    0.0059183073
      6335.47       1.0372782    0.0059130333
      6341.80       1.0397843    0.0059562654
      6348.14       1.0436742    0.0060390159
      6354.49       1.0464082    0.0060376066
      6360.85       1.0527885    0.0060841346
      6367.21       1.0545411    0.0061212691
      6373.57       1.0554590    0.0061386639
      6379.95       1.0527748    0.0061533299
      6386.33       1.0509809    0.0061574537
      6392.72       1.0485274    0.0061573134
      6399.11       1.0457800    0.0061163674
      6405.51       1.0451733    0.0061678260
      6411.92       1.0476082    0.0061758596
      6418.32       1.0509740    0.0061346861
      6424.74       1.0503993    0.0061353999
      6431.17       1.0482307    0.0061776159
      6437.60       1.0454156    0.0061796079
      6444.04       1.0420022    0.0061396922
      6450.48       1.0387614    0.0061431533
      6456.94       1.0356111    0.0061464396
      6463.39       1.0336036    0.0061470060
      6469.85       1.0323157    0.0061496198
      6476.33       1.0293639    0.0061506097
      6482.80       1.0287183    0.0061485917
      6489.28       1.0289178    0.0061028866
      6495.77       1.0272001    0.0060973684
      6502.27       1.0264876    0.0061330977
      6508.77       1.0270260    0.0061273699
      6515.28       1.0259832    0.0060805705
      6521.80       1.0248851    0.0060720308
      6528.32       1.0236972    0.0060619697
      6534.85       1.0214156    0.0060502643
      6541.38       1.0202538    0.0060800621
      6547.92       1.0194811    0.0060708402
      6554.47       1.0198717    0.0062067718
      6561.03       1.0204825    0.0063503035
      6567.59       1.0218734    0.0065538732
      6574.16       1.0232931    0.0067674875
      6580.73       1.0251969    0.0070263015
      6587.31       1.0226801    0.0075026341
      6593.90       1.0186878    0.0079670309
      6600.50       1.0141424    0.0089311809
      6607.10       1.0110258     0.010182602
      6613.70       1.0096535     0.011605265
      6620.32       1.0092955     0.014597301
      6626.94       1.0007242     0.010652325
      6633.57      0.99936155     0.010780686
      6640.20      0.99613639     0.011667798
      6646.84      0.99242638     0.012455022
      6653.49      0.98904480     0.013337455
      6660.14      0.97759446     0.014162046
      6666.80      0.97042268     0.014670516
      6673.47      0.95684880     0.014368028
      6680.14      0.94787423     0.013928075
      6686.82      0.93479514     0.013101392
      6693.51      0.93381628     0.012142825
      6700.20      0.93199280     0.011230162
      6706.90      0.92858375     0.010291810
      6713.61      0.92588665    0.0096353673
      6720.32      0.92389997    0.0095566455
      6727.05      0.91514761     0.012793074
      6733.77      0.91358120     0.010121515
      6740.51      0.91255519    0.0088181491
      6747.25      0.91053197    0.0075461770
      6754.00      0.90832390    0.0069234073
      6760.75      0.91023808    0.0063068977
      6767.51      0.91020198    0.0059814579
      6774.28      0.90813962    0.0056578245
      6781.05      0.90774304    0.0054608746
      6787.84      0.90545208    0.0052682976
      6794.62      0.90504731    0.0051317044
      6801.42      0.90584766    0.0050047366
      6808.22      0.90404971    0.0049552235
      6815.03      0.90218676    0.0049077496
      6821.85      0.90298696    0.0049235836
      6828.67      0.89958190    0.0049089461
      6835.50      0.89850825    0.0048968412
      6842.33      0.89583538    0.0048874452
      6849.17      0.89325675    0.0048804551
      6856.02      0.88889693    0.0048757114
      6862.88      0.88559301    0.0048739495
      6869.74      0.88302854    0.0048754393
      6876.61      0.87935657    0.0048797454
      6883.49      0.87304876    0.0056009635
      6890.37      0.86798641    0.0056114084
      6897.27      0.86461040    0.0056250168
      6904.16      0.86012695    0.0056396749
      6911.07      0.85684176    0.0056548803
      6917.98      0.85309854    0.0056721160
      6924.89      0.84791185    0.0056919877
      6931.82      0.84439209    0.0057147053
      6938.75      0.84130758    0.0057404167
      6945.69      0.83975945    0.0057689671
      6952.64      0.84187329    0.0058009712
      6959.59      0.83884317    0.0058369865
      6966.55      0.84131854    0.0058382649
      6973.52      0.84307151    0.0058828205
      6980.49      0.84214287    0.0059303174
      6987.47      0.84370339    0.0059810448
      6994.46      0.84374767    0.0060347363
      7001.46      0.84540635    0.0060902480
      7008.46      0.84316413    0.0060856517
      7015.46      0.84670119    0.0061453632
      7022.48      0.84848870    0.0062094082
      7029.51      0.85002051    0.0062772590
      7036.53      0.84950875    0.0063473056
      7043.57      0.84747659    0.0064206273
      7050.62      0.85021033    0.0064995886
      7057.66      0.84768246    0.0065844383
      7064.72      0.84751420    0.0066771666
      7071.79      0.84594185    0.0067790413
      7078.86      0.84187642    0.0068894671
      7085.94      0.83954535    0.0070117936
      7093.03      0.83282454    0.0071502941
      7100.12      0.82570395    0.0073053947
      7107.22      0.81446544    0.0074451676
      7114.33      0.80434358    0.0076265276
      7121.44      0.79502140    0.0079176874
      7128.56      0.78799331    0.0081203235
      7135.69      0.78583863    0.0083047493
      7142.83      0.77647553    0.0084655376
      7149.97      0.77296169    0.0086177951
      7157.12      0.76593883    0.0087643627
      7164.28      0.75996568    0.0089034604
      7171.44      0.76335726    0.0090378838
      7178.62      0.76555955    0.0091689666
      7185.80      0.77540788    0.0092409128
      7192.98      0.77354061    0.0093714035
      7200.17      0.78235904    0.0095122851
      7207.38      0.78736964    0.0096627694
      7214.58      0.78608379    0.0098106082
      7221.80      0.78807306    0.0099544409
      7229.02      0.78170203     0.010097680
      7236.25      0.76902271     0.010238594
      7243.49      0.77379610     0.010323052
      7250.73      0.76855314     0.010468616
      7257.98      0.77276249     0.010769359
      7265.24      0.78227415     0.010967879
      7272.51      0.78698564     0.011125536
      7279.78      0.77838471     0.011255787
      7287.06      0.78035203     0.011336889
      7294.35      0.77680620     0.011490774
      7301.64      0.77711781     0.011650703
      7308.94      0.78427288     0.011823521
      7316.25      0.77862705     0.011998911
      7323.57      0.77485469     0.012173032
      7330.89      0.76597856     0.012413940
      7338.22      0.76879965     0.012605856
      7345.56      0.76703913     0.012809071
      7352.91      0.74984717     0.013016293
      7360.26      0.74554213     0.013226455
      7367.62      0.73558273     0.013443280
      7374.99      0.71805944     0.013592196
      7382.37      0.73060448     0.013819067
      7389.75      0.71667278     0.014205157
      7397.14      0.71124429     0.014443499
      7404.53      0.71449100     0.014686713
      7411.94      0.69661934     0.014855332
      7419.35      0.69977486     0.015102870
      7426.77      0.69025587     0.015354322
      7434.20      0.67429974     0.015779883
      7441.63      0.67705630     0.015957289
      7449.07      0.66421176     0.016211695
      7456.52      0.65904468     0.016465764
      7463.98      0.65479795     0.016719467
      7471.45      0.64842267     0.016885456
      7478.92      0.65932426     0.017321458
      7486.40      0.65445329     0.017571382
      7493.88      0.65567762     0.017822427
      7501.38      0.65636226     0.017978856
      7508.88      0.66020162     0.018229401
      7516.39      0.64871865     0.018479442
      7523.91      0.65108411     0.018916691
      7531.43      0.65330132     0.019060239
      7538.96      0.65441831     0.019309196
      7546.50      0.65370321     0.019559140
      7554.05      0.65326830     0.019807255
      7561.60      0.66236088     0.020132537
      7569.16      0.65853284     0.020372930
      7576.73      0.67445371     0.020611522
      7584.31      0.67478530     0.020847960
      7591.89      0.67794198     0.021153519
      7599.49      0.68504329     0.021376953
      7607.09      0.67885485     0.021597032
      7614.70      0.70444292     0.021677522
      7622.31      0.71376630     0.021882676
      7629.93      0.70771896     0.022297673
      7637.56      0.73401350     0.022361213
      7645.20      0.73412641     0.022553990
      7652.85      0.74474520     0.022744117
      7660.50      0.74872869     0.023002022
      7668.16      0.76329832     0.023177008
      7675.83      0.77760310     0.023349667
      7683.50      0.78620412     0.023587738
      7691.19      0.78502797     0.023741822
      7698.88      0.79178243     0.023892431
      7706.58      0.79711846     0.023884976
      7714.29      0.79866142     0.024235131
      7722.00      0.80521387     0.024362177
      7729.73      0.79128248     0.024326972
      7737.45      0.78152002     0.024447322
      7745.19      0.78634775     0.024761402
      7752.94      0.77929752     0.024708642
      7760.69      0.79335599     0.024821908
      7768.45      0.79590300     0.025130667
      7776.22      0.79566304     0.025074239
      7784.00      0.81015610     0.025201175
      7791.78      0.80087754     0.025557042
      7799.57      0.78563107     0.025566425
      7807.37      0.79950777     0.025770841
      7815.18      0.78280514     0.025883598
      7822.99      0.75079353     0.026402074
      7830.82      0.75161618     0.026709108
      7838.65      0.72705782     0.026888393
      7846.49      0.69207652     0.027433637
      7854.34      0.69981060     0.027503180
      7862.19      0.66864707     0.027634514
      7870.05      0.65057869     0.027889187
      7877.93      0.64520105     0.027514738
      7885.80      0.62156165     0.027531108
      7893.69      0.61627913     0.027044583
      7901.58      0.60680281     0.026837028
      7909.49      0.60614100     0.026660495
      7917.40      0.61171379     0.026539991
      7925.31      0.60037181     0.026442720
      7933.24      0.59328284     0.026418725
      7941.17      0.57671663     0.026408296
      7949.11      0.56814306     0.026190006
      7957.06      0.56086119     0.026355537
      7965.02      0.52389931     0.026057316
      7972.98      0.51116382     0.026117262
      7980.96      0.49299153     0.025746912
      7988.94      0.48222665     0.025577115
      7996.93      0.47046304     0.025539215
      8004.93      0.46862526     0.025103670
      8012.93      0.46752193     0.024999653
      8020.95      0.48761303     0.024452441
      8028.97      0.47616448     0.024126274
      8036.99      0.45353267     0.023717143
      8045.03      0.44636276     0.023434369
      8053.08      0.44250731     0.023092572
      8061.13      0.43096753     0.022895521
      8069.20      0.42409878     0.022715602
      8077.26      0.41172268     0.022638431
      8085.34      0.40418092     0.022478343
      8093.43      0.39047603     0.022745849
      8101.52      0.38052435     0.022818238
      8109.62      0.35804812     0.023358683
      8117.73      0.34008213     0.023879062
      8125.85      0.32461059     0.024866604
      8133.98      0.30340142     0.025816841
      8142.11      0.30590648     0.027176320
      8150.25      0.29917447     0.028291961
      8158.41      0.29372723     0.029160861
      8166.56      0.30692305     0.030364179
      8174.73      0.31483500     0.030563425
      8182.91      0.31105317     0.030814414
      8191.09      0.29948228     0.030096868
      8199.28      0.30671489     0.029565210
      8207.48      0.29754104     0.028532050
      8215.69      0.27294485     0.027884865
      8223.91      0.27794767     0.027159483
      8232.13      0.28239439     0.026940008
      8240.36      0.29009269     0.026557201
      8248.60      0.29016467     0.026601785
      8256.85      0.28416602     0.026648179
      8265.11      0.28453718     0.026673784
      8273.37      0.29071570     0.026717904
      8281.65      0.26745810     0.026631767
      8289.93      0.30757318     0.026142153
      8298.22      0.32093261     0.025970108
      8306.52      0.31872836     0.025532149
      8314.83      0.34150756     0.025497855
      8323.14      0.34211530     0.025051177
      8331.46      0.36366247     0.024831951
      8339.80      0.37605205     0.024794959
      8348.13      0.35234616     0.024395029
      8356.48      0.35429831     0.024342110
      8364.84      0.35152021     0.023909353
      8373.21      0.33566228     0.023614502
      8381.58      0.35220445     0.023358160
      8389.96      0.33566848     0.023008551
      8398.35      0.34101989     0.022519020
      8406.75      0.35070562     0.022382999
      8415.16      0.33062429     0.022014058
      8423.57      0.34293900     0.021501338
      8432.00      0.35995431     0.021297993
      8440.43      0.35723001     0.020797718
      8448.87      0.36924720     0.020359899
      8457.32      0.37341965     0.020119186
      8465.78      0.37726848     0.019683691
      8474.25      0.37719044     0.019408771
      8482.72      0.37916068     0.019239707
      8491.20      0.38872344     0.019085227
      8499.69      0.37653459     0.018996713
      8508.19      0.37175488     0.018959284
      8516.70      0.38414735     0.018943929
      8525.22      0.37484547     0.018791118
      8533.75      0.37073988     0.018864735
      8542.28      0.37881450     0.018480339
      8550.82      0.37412690     0.018207186
      8559.37      0.37863213     0.017920833
      8567.93      0.37763507     0.017612929
      8576.50      0.34969859     0.017388715
      8585.08      0.35046825     0.016932334
      8593.66      0.35888499     0.016622667
      8602.26      0.35114954     0.016312261
      8610.86      0.35342852     0.016012186
      8619.47      0.31907643     0.015583790
      8628.09      0.32201659     0.015282736
      8636.72      0.33420079     0.015040701
      8645.36      0.33383900     0.014733481
      8654.00      0.33187461     0.014313054
      8662.66      0.34535334     0.014009784
      8671.32      0.34395831     0.013697721
      8679.99      0.33463715     0.013263625
      8688.67      0.33907169     0.012977742
      8697.36      0.34523967     0.012644615
      8706.06      0.34133566     0.012305159
      8714.76      0.34620383     0.011848391
      8723.48      0.34309794     0.011492946
      8732.21      0.33301432     0.011132976
      8740.93      0.33607344     0.010677022
      8749.68      0.33237152     0.010303190
      8758.43      0.32432496    0.0099226155
      8767.19      0.31904711    0.0094375608
      8775.96      0.31049721    0.0090561013
      8784.73      0.30243006    0.0086750021
      8793.52      0.30101496    0.0081873430
      8802.31      0.28981188    0.0077956666
      8811.11      0.28086637    0.0074140059
      8819.92      0.27655708    0.0069379064
      8828.75      0.26839178    0.0065557241
      8837.57      0.26873583    0.0060947611
      8846.41      0.26541599    0.0057226143
      8855.26      0.26250405    0.0053746612
      8864.12      0.25560866    0.0049512059
      8872.98      0.25637351    0.0046096080
      8881.85      0.24596033    0.0042362344
      8890.73      0.24104451    0.0039498398
      8899.63      0.23833572    0.0037013491
      8908.52      0.23279673    0.0034020976
      8917.43      0.22631731    0.0031582494
      8926.35      0.22029331    0.0028998751
      8935.28      0.21480410    0.0026911942
      8944.22      0.21180273    0.0024785937
      8953.16      0.20779150    0.0023096071
      8962.11      0.20307498    0.0021415990
      8971.08      0.19983312    0.0020285028
      8980.05      0.19763264    0.0019197945
      8989.03      0.19343244    0.0018217171
      8998.02      0.19003262    0.0017483213
      9007.02      0.18722029    0.0017020886
      9016.02      0.18407692    0.0017045293
      9025.04      0.18074320    0.0017056670
      9034.07      0.17807243    0.0017170744
      9043.10      0.17534447    0.0017616668
      9052.14      0.17250383    0.0017951548
      9061.20      0.16957590    0.0018804642
      9070.26      0.16757196    0.0019555666
      9079.33      0.16533733    0.0020430364
      9088.41      0.16302447    0.0022253331
      9097.50      0.16124582    0.0023973383
      9106.60      0.15994390    0.0025943470
      9115.70      0.15832936    0.0029557655
      9124.82      0.15688252    0.0032761557
      9133.94      0.15442935    0.0037239858
      9143.08      0.15269008    0.0043957479
      9152.22      0.15043032    0.0050208864
