# starting wavelength =        4417.6700
# ending wavelength =        6948.5400
# O2 telluric scale =       0.41561981
# O2 telluric shift =       -2.0576883
# H2O telluric scale =        0.0000000
# H2O telluric shift =       0.99982605
      4420.82      0.86185242     0.045168997
      4425.25      0.86240592     0.037460893
      4429.67      0.86190586     0.029842266
      4434.10      0.87441039     0.026230753
      4438.54      0.88704194     0.022595354
      4442.97      0.90747307     0.020624074
      4447.42      0.92895514     0.019436986
      4451.86      0.94706856     0.018217608
      4456.32      0.97391189     0.017587059
      4460.77      0.99767245     0.016950395
      4465.24       1.0096362     0.016559921
      4469.70       1.0273239     0.016187957
      4474.17       1.0382083     0.015912576
      4478.65       1.0562128     0.015793783
      4483.12       1.0870741     0.015850010
      4487.61       1.0988940     0.015969079
      4492.09       1.1241939     0.016076556
      4496.59       1.1335841     0.016290436
      4501.08       1.1365536     0.016372704
      4505.58       1.1521376     0.016444599
      4510.09       1.1533897     0.016506159
      4514.60       1.1638771     0.016558065
      4519.12       1.1797844     0.016505482
      4523.63       1.2052841     0.016536610
      4528.16       1.2108793     0.016559025
      4532.69       1.2247065     0.016573051
      4537.22       1.2281012     0.016578695
      4541.76       1.2452130     0.016576419
      4546.30       1.2661321     0.016461650
      4550.85       1.2696081     0.016442464
      4555.40       1.2718007     0.016416196
      4559.95       1.2818080     0.016383195
      4564.51       1.2764239     0.016440074
      4569.08       1.2690228     0.016393890
      4573.65       1.2616296     0.016234780
      4578.22       1.2452614     0.016175379
      4582.80       1.2366554     0.016111204
      4587.38       1.2298401     0.016042335
      4591.97       1.2321875     0.015969436
      4596.56       1.2276195     0.015786107
      4601.16       1.2108559     0.015705121
      4605.76       1.1924209     0.015701189
      4610.37       1.1814842     0.015611103
      4614.98       1.1603655     0.015518206
      4619.59       1.1301516     0.015316691
      4624.21       1.1207510     0.015219355
      4628.84       1.1065672     0.015120366
      4633.47       1.1119757     0.015019980
      4638.10       1.1138920     0.014918227
      4642.74       1.0979222     0.014779201
      4647.38       1.0769603     0.014673815
      4652.03       1.0610001     0.014568310
      4656.68       1.0373499     0.014463132
      4661.34       1.0181690     0.014255852
      4666.00      0.99382401     0.014152007
      4670.67      0.97656773     0.014116663
      4675.33      0.94824631     0.014012875
      4680.01      0.93376836     0.013811298
      4684.69      0.93737184     0.013709480
      4689.38      0.92795020     0.013611923
      4694.07      0.92632848     0.013519054
      4698.76      0.92950414     0.013402815
      4703.46      0.92621622     0.013314554
      4708.16      0.93229482     0.013231547
      4712.87      0.92358895     0.013067565
      4717.58      0.92456529     0.012991700
      4722.30      0.93050005     0.012980354
      4727.03      0.93431787     0.012907135
      4731.75      0.93648623     0.012753821
      4736.48      0.93869030     0.012687279
      4741.22      0.94940144     0.012622673
      4745.96      0.96925867     0.012538290
      4750.71      0.98303122     0.012475691
      4755.46      0.99603181     0.012414687
      4760.22      0.99695874     0.012355402
      4764.97      0.99414676     0.012215902
      4769.74      0.99048340     0.012220878
      4774.51      0.98118229     0.012166780
      4779.29      0.97699692     0.012037182
      4784.07      0.97932041     0.011987465
      4788.85      0.97661245     0.012002124
      4793.64      0.98646273     0.011880560
      4798.43      0.98731618     0.011834060
      4803.23      0.99724135     0.011789456
      4808.03      0.99977750     0.011735948
      4812.84      0.99056743     0.011695019
      4817.66      0.99571974     0.011656046
      4822.48      0.99874465     0.011549482
      4827.30      0.99092917     0.011574091
      4832.12      0.98766339     0.011473451
      4836.96      0.97849421     0.011443487
      4841.79      0.98428954     0.011472778
      4846.63      0.98702972     0.011375628
      4851.48      0.98268485     0.011348806
      4856.33      0.97792406     0.011323866
      4861.19      0.98903749     0.011290236
      4866.05      0.99498851     0.011265548
      4870.92       1.0013331     0.011174914
      4875.79       1.0041944     0.011209953
      4880.66       1.0043941     0.011186007
      4885.55       1.0040414     0.011095456
      4890.43       1.0010150     0.011129960
      4895.32      0.99097165     0.011040464
      4900.22      0.97857534     0.011014218
      4905.12      0.97269314     0.010988410
      4910.02      0.96782495     0.010955673
      4914.94      0.96759843     0.010927609
      4919.85      0.95738328     0.010835750
      4924.77      0.94351878     0.010862652
      4929.70      0.94020263     0.010831845
      4934.62      0.93077667     0.010736699
      4939.56      0.91929807     0.010758047
      4944.50      0.90929752     0.010659158
      4949.44      0.89477767     0.010677184
      4954.39      0.87634326     0.010574045
      4959.35      0.87254797     0.010534717
      4964.31      0.85993687     0.010480446
      4969.27      0.85786165     0.010437660
      4974.24      0.85520708     0.010396880
      4979.22      0.84759501     0.010339746
      4984.20      0.84170791     0.010289987
      4989.18      0.83617285     0.010168672
      4994.17      0.83278079     0.010163987
      4999.16      0.82581092     0.010044739
      5004.16      0.81455174     0.010039049
      5009.17      0.80474835    0.0099233107
      5014.18      0.80102937    0.0098706588
      5019.19      0.79564914    0.0098023906
      5024.21      0.78896676    0.0097476859
      5029.23      0.78373498    0.0096751552
      5034.26      0.78679671    0.0096148819
      5039.30      0.79459965    0.0094895112
      5044.34      0.79847574    0.0094649411
      5049.39      0.80644633    0.0093305533
      5054.43      0.81526913    0.0092948854
      5059.49      0.82504277    0.0091519529
      5064.55      0.82889849    0.0091061475
      5069.61      0.84081341    0.0089575150
      5074.68      0.84899076    0.0088711566
      5079.76      0.85734402    0.0087533465
      5084.84      0.85793206    0.0086030766
      5089.92      0.86547321    0.0085494672
      5095.01      0.85829125    0.0084043563
      5100.11      0.86243150    0.0083558858
      5105.21      0.85493683    0.0082196328
      5110.31      0.85308900    0.0081734665
      5115.42      0.85255493    0.0080388003
      5120.54      0.84940671    0.0079943836
      5125.66      0.85223008    0.0078667882
      5130.79      0.84652454    0.0077954623
      5135.92      0.85546364    0.0077045137
      5141.05      0.85541136    0.0075871852
      5146.20      0.85507866    0.0075511146
      5151.34      0.85872294    0.0074402011
      5156.49      0.86903769    0.0074098555
      5161.65      0.87710793    0.0073086977
      5166.81      0.89072724    0.0072419124
      5171.98      0.90610957    0.0071939369
      5177.15      0.92237048    0.0071331991
      5182.33      0.94254649    0.0070915047
      5187.51      0.95862580    0.0070399150
      5192.70      0.97384150    0.0069629871
      5197.89      0.99744205    0.0069615323
      5203.09       1.0151793    0.0069228378
      5208.29       1.0311845    0.0068966095
      5213.50       1.0445341    0.0068657322
      5218.72       1.0575352    0.0068079686
      5223.93       1.0675287    0.0068242315
      5229.16       1.0742211    0.0067751261
      5234.39       1.0852090    0.0067657274
      5239.62       1.0896710    0.0067608116
      5244.86       1.0962542    0.0067626477
      5250.11       1.0983991    0.0067360052
      5255.36       1.0982033    0.0067815704
      5260.61       1.1000179    0.0068040970
      5265.87       1.0981305    0.0067943542
      5271.14       1.0949679    0.0068581543
      5276.41       1.0858982    0.0068583865
      5281.69       1.0831599    0.0069042938
      5286.97       1.0841198    0.0069432069
      5292.26       1.0806969    0.0070017902
      5297.55       1.0749573    0.0070689149
      5302.85       1.0710535    0.0071226741
      5308.15       1.0687165    0.0071990412
      5313.46       1.0695054    0.0072351264
      5318.77       1.0707171    0.0073492242
      5324.09       1.0735436    0.0074440727
      5329.42       1.0780395    0.0074934741
      5334.75       1.0907600    0.0075978601
      5340.08       1.0951579    0.0076766925
      5345.42       1.1076316    0.0077880721
      5350.77       1.1193770    0.0079035127
      5356.12       1.1343766    0.0079897607
      5361.48       1.1511824    0.0081102461
      5366.83       1.1662832    0.0082341101
      5372.20       1.1852904    0.0082992997
      5377.58       1.2035351    0.0084531808
      5382.95       1.2282663    0.0085207637
      5388.34       1.2562407    0.0086487563
      5393.72       1.2727115    0.0087777335
      5399.12       1.2926672    0.0088743927
      5404.52       1.3089566    0.0090028131
      5409.92       1.3211326    0.0091311384
      5415.33       1.3323773    0.0091946416
      5420.75       1.3452121    0.0093526160
      5426.17       1.3491454    0.0094767494
      5431.60       1.3507067    0.0095338426
      5437.03       1.3437662    0.0096563594
      5442.47       1.3369103    0.0097901436
      5447.91       1.3367737    0.0098928660
      5453.36       1.3277103     0.010011267
      5458.81       1.3180995     0.010107515
      5464.27       1.3058288     0.010212187
      5469.73       1.2931569     0.010295534
      5475.20       1.2823115     0.010421164
      5480.68       1.2720476     0.010563493
      5486.16       1.2702911     0.010646041
      5491.65       1.2603889     0.010815853
      5497.14       1.2682049     0.010994238
      5502.64       1.2790823     0.011212913
      5508.14       1.2821916     0.011299193
      5513.65       1.2922264     0.011451686
      5519.16       1.3127460     0.011577060
      5524.68       1.3279830     0.011666532
      5530.20       1.3339785     0.011645406
      5535.73       1.3386402     0.011726932
      5541.27       1.3497053     0.011704122
      5546.81       1.3471356     0.011637781
      5552.36       1.3440803     0.011480245
      5557.91       1.3406484     0.011350865
      5563.47       1.3373015     0.011203283
      5569.04       1.3259327     0.011049789
      5574.60       1.3152233     0.010869533
      5580.18       1.2972079     0.010804636
      5585.76       1.2770436     0.010703260
      5591.35       1.2631085     0.010597798
      5596.94       1.2455220     0.010465789
      5602.53       1.2323529     0.010303004
      5608.14       1.2178010     0.010185704
      5613.75       1.2065361     0.010064439
      5619.36       1.1829922    0.0099395823
      5624.98       1.1677191    0.0098143891
      5630.60       1.1502616    0.0096562122
      5636.23       1.1458317    0.0095954293
      5641.87       1.1335962    0.0094695525
      5647.51       1.1289273    0.0093420475
      5653.16       1.1216874    0.0092123597
      5658.82       1.1242379    0.0090518920
      5664.47       1.1167276    0.0089220190
      5670.14       1.1131151    0.0087938256
      5675.81       1.1073348    0.0086712128
      5681.48       1.1010935    0.0085587752
      5687.17       1.0953437    0.0084545855
      5692.85       1.0825569    0.0083521457
      5698.55       1.0721426    0.0082267128
      5704.25       1.0578770    0.0081262998
      5709.95       1.0487942    0.0080307872
      5715.66       1.0405261    0.0079423610
      5721.38       1.0347769    0.0078699300
      5727.10       1.0259795    0.0078236336
      5732.83       1.0333452    0.0078017808
      5738.56       1.0289413    0.0077943118
      5744.30       1.0142802    0.0077571182
      5750.04       1.0091758    0.0077549445
      5755.79       1.0115271    0.0077569825
      5761.55       1.0134696    0.0077643715
      5767.31       1.0008968    0.0077768109
      5773.08      0.99434683    0.0077908743
      5778.85      0.99227489    0.0078074606
      5784.63      0.98936203    0.0078273160
      5790.41      0.98333527    0.0078502511
      5796.21      0.98672593    0.0078770329
      5802.00      0.98442270    0.0079079666
      5807.81      0.98150927    0.0079060745
      5813.61      0.97973578    0.0079531020
      5819.43      0.98622563    0.0080142763
      5825.25      0.99260300    0.0080940928
      5831.07      0.99234532    0.0081957864
      5836.90      0.98978883    0.0083136340
      5842.74      0.98587540    0.0084381397
      5848.58      0.98861008    0.0085638294
      5854.43      0.98801560    0.0086864142
      5860.29      0.99560766    0.0088071705
      5866.15      0.99475859    0.0089047785
      5872.01      0.99860074    0.0090395253
      5877.89       1.0033076    0.0091976168
      5883.76       1.0102895    0.0093732540
      5889.65      0.99544515    0.0095528109
      5895.54      0.99128267    0.0097322965
      5901.43       1.0076726    0.0099196576
      5907.34       1.0183238     0.010118423
      5913.24       1.0096530     0.010330307
      5919.16      0.99715788     0.010552255
      5925.08      0.98357011     0.010756456
      5931.00      0.98210651     0.010994430
      5936.93      0.96736209     0.011240900
      5942.87      0.95895166     0.011492088
      5948.81      0.95765096     0.011745004
      5954.76      0.95289007     0.011997234
      5960.72      0.94771606     0.012251743
      5966.68      0.95113638     0.012485272
      5972.64      0.95136605     0.012746947
      5978.62      0.94198311     0.013011935
      5984.60      0.92700715     0.013277994
      5990.58      0.91647328     0.013543038
      5996.57      0.91461619     0.013805355
      6002.57      0.89652792     0.014133081
      6008.57      0.88102256     0.014390466
      6014.58      0.86068435     0.014654492
      6020.60      0.85888222     0.014950290
      6026.62      0.86668575     0.015278389
      6032.65      0.86971447     0.015588990
      6038.68      0.87144534     0.015785403
      6044.72      0.87142657     0.015987085
      6050.76      0.88325399     0.016247782
      6056.81      0.89485735     0.016569927
      6062.87      0.90440042     0.016977437
      6068.93      0.91002173     0.017645551
      6075.00      0.90914897     0.018308317
      6081.08      0.91467848     0.019069002
      6087.16      0.93197362     0.019908085
      6093.25      0.93733927     0.020837104
      6099.34      0.94681272     0.021727637
      6105.44      0.95845976     0.022579609
      6111.54      0.95549663     0.023327353
      6117.66      0.94083537     0.024008190
      6123.78      0.93777703     0.024267126
      6129.90      0.92345414     0.024235888
      6136.03      0.90483956     0.023923595
      6142.17      0.89664144     0.023175108
      6148.31      0.86998034     0.022473717
      6154.46      0.83502022     0.021688987
      6160.61      0.80536083     0.020682272
      6166.77      0.79701516     0.019913992
      6172.94      0.79184783     0.019232012
      6179.11      0.79107523     0.018703248
      6185.29      0.77951787     0.018213426
      6191.48      0.77138635     0.017891550
      6197.67      0.77959062     0.017584198
      6203.87      0.78387721     0.017285363
      6210.07      0.77424312     0.017113904
      6216.28      0.75197355     0.016922062
      6222.50      0.75984523     0.016679654
      6228.72      0.75851280     0.016492657
      6234.95      0.77716765     0.016319728
      6241.19      0.78975301     0.016069132
      6247.42      0.80248119     0.015969510
      6253.67      0.80987877     0.015820860
      6259.93      0.83205287     0.015589626
      6266.19      0.85429158     0.015444416
      6272.46      0.87604837     0.015299420
      6278.73      0.88078903     0.015118867
      6285.01      0.91599251     0.014976046
      6291.29      0.95638599     0.014751051
      6297.58      0.98238565     0.014659511
      6303.88       1.0065123     0.014524391
      6310.19       1.0321492     0.014315500
      6316.50       1.0551652     0.014185316
      6322.81       1.0681406     0.014101500
      6329.14       1.0882205     0.013895783
      6335.47       1.1110381     0.013771026
      6341.80       1.1343731     0.013579754
      6348.14       1.1383602     0.013507675
      6354.49       1.1396099     0.013325670
      6360.85       1.1367911     0.013218184
      6367.21       1.1244476     0.013157078
      6373.57       1.1127453     0.012992978
      6379.95       1.1116994     0.012901221
      6386.33       1.1189463     0.012794198
      6392.72       1.1201178     0.012716496
      6399.11       1.1226444     0.012585343
      6405.51       1.1139053     0.012567738
      6411.92       1.1185601     0.012454466
      6418.32       1.1211183     0.012404872
      6424.74       1.1192067     0.012407904
      6431.17       1.1138855     0.012312828
      6437.60       1.1181723     0.012278970
      6444.04       1.1193772     0.012247833
      6450.48       1.1367632     0.012228923
      6456.94       1.1330273     0.012215271
      6463.39       1.1331976     0.012210563
      6469.85       1.1404364     0.012170435
      6476.33       1.1320197     0.012231260
      6482.80       1.1267053     0.012202155
      6489.28       1.1271223     0.012230679
      6495.77       1.1340811     0.012287747
      6502.27       1.1332413     0.012351533
      6508.77       1.1276468     0.012452749
      6515.28       1.1142246     0.012557827
      6521.80       1.1087597     0.012717912
      6528.32       1.0997746     0.012811465
      6534.85       1.0987714     0.012919747
      6541.38       1.0976421     0.013056171
      6547.92       1.0884029     0.013167256
      6554.47       1.0765579     0.013307518
      6561.03       1.0646626     0.013414622
      6567.59       1.0591252     0.013536888
      6574.16       1.0423566     0.013614828
      6580.73       1.0376817     0.013629737
      6587.31       1.0196565     0.013693896
      6593.90       1.0041164     0.013739435
      6600.50       1.0045434     0.013790883
      6607.10       1.0117377     0.013830929
      6613.70       1.0100257     0.013887040
      6620.32       1.0097683     0.013886480
      6626.94       1.0005403     0.014009525
      6633.57       1.0061284     0.014019793
      6640.20      0.99694186     0.014143928
      6646.84      0.98052366     0.014139199
      6653.49      0.99031211     0.014189275
      6660.14      0.99276774     0.014221495
      6666.80       1.0017894     0.014256985
      6673.47       1.0099061     0.014224841
      6680.14       1.0190917     0.014316485
      6686.82       1.0252135     0.014304666
      6693.51       1.0158598     0.014352037
      6700.20       1.0012795     0.014352022
      6706.90      0.98057881     0.014328104
      6713.61      0.94928090     0.014315389
      6720.32      0.92775624     0.014306464
      6727.05      0.90279072     0.014291447
      6733.77      0.88770651     0.014213075
      6740.51      0.86494920     0.014238110
      6747.25      0.82923097     0.014128124
      6754.00      0.82467973     0.014058305
      6760.75      0.80561353     0.014041172
      6767.51      0.79636430     0.013890208
      6774.28      0.78599394     0.013765646
      6781.05      0.77346785     0.013566379
      6787.84      0.75435122     0.013467951
      6794.62      0.74195028     0.013221745
      6801.42      0.72265235     0.012984283
      6808.22      0.71039622     0.012799692
      6815.03      0.69181782     0.012453771
      6821.85      0.68709072     0.012092455
      6828.67      0.66346026     0.011675492
      6835.50      0.64449964     0.011294739
      6842.33      0.62873552     0.010748080
      6849.17      0.62685357     0.010207175
      6856.02      0.62337294    0.0096825041
      6862.88      0.61511118    0.0095707270
      6869.74      0.59528455    0.0095940266
      6876.61      0.57722413    0.0096655079
      6883.49      0.55849143    0.0097245918
      6890.37      0.54123104    0.0099000525
      6897.27      0.52493907     0.010227602
      6904.16      0.50257173     0.010519740
      6911.07      0.48338581     0.011174370
      6917.98      0.45632792     0.012313471
      6924.89      0.43697049     0.013421027
      6931.82      0.41322664     0.015819847
      6938.75      0.38262388     0.018900749
      6945.69      0.34734434     0.022453791
