# starting wavelength =        3025.0682
# ending wavelength =        7652.5900
# O2 telluric scale =        0
# O2 telluric shift =        0
# H2O telluric scale =        0
# H2O telluric shift =        0
      3026.78      0.95356912     0.095361895
      3029.80      0.91972686     0.093020594
      3032.83      0.90803240     0.090921231
      3035.87      0.89735537     0.090669319
      3038.90      0.86773948     0.088677667
      3041.94      0.85362599     0.086510916
      3044.98      0.84360439     0.086305616
      3048.03      0.85138456     0.084412726
      3051.08      0.87461150     0.082423160
      3054.13      0.87306922     0.082410341
      3057.18      0.90743716     0.080469788
      3060.24      0.90759293     0.080496947
      3063.30      0.95982703     0.078610571
      3066.36      0.98200698     0.076841213
      3069.43      0.98138841     0.076839003
      3072.50      0.96886436     0.075121606
      3075.57      0.96135952     0.073394597
      3078.65      0.96174557     0.073487540
      3081.73      0.93938974     0.071930840
      3084.81      0.95799973     0.070348956
      3087.89      0.95853894     0.070428805
      3090.98      0.99759910     0.068891221
      3094.07      0.99888359     0.069010582
      3097.17       1.0323909     0.067647286
      3100.26       1.0293318     0.066240148
      3103.36       1.0273057     0.066350777
      3106.47       1.0364687     0.064978788
      3109.58       1.0350119     0.063838655
      3112.68       1.0420625     0.063945030
      3115.80       1.0737033     0.062689307
      3118.91       1.0841042     0.061670724
      3122.03       1.0859340     0.061610613
      3125.15       1.0957731     0.060626528
      3128.28       1.1076252     0.059720725
      3131.41       1.1099116     0.059649049
      3134.54       1.1256230     0.058775082
      3137.67       1.1297211     0.057790272
      3140.81       1.1366037     0.057892415
      3143.95       1.1287931     0.057120441
      3147.10       1.1215179     0.056184789
      3150.24       1.1241546     0.056326494
      3153.39       1.1162321     0.055446392
      3156.55       1.1218509     0.055587931
      3159.70       1.1116828     0.054937698
      3162.86       1.1113369     0.054100079
      3166.03       1.1096726     0.054278623
      3169.19       1.1048754     0.053492374
      3172.36       1.1045199     0.052914169
      3175.54       1.1030347     0.053127317
      3178.71       1.0952284     0.052377199
      3181.89       1.0863263     0.051875874
      3185.07       1.0848755     0.051885467
      3188.26       1.1050985     0.051404066
      3191.45       1.0813681     0.050972865
      3194.64       1.0804144     0.050974467
      3197.83       1.0760703     0.050560806
      3201.03       1.0712670     0.050193350
      3204.23       1.0709831     0.050188030
      3207.44       1.0720985     0.049835845
      3210.64       1.0626202     0.049231859
      3213.85       1.0501525     0.049514863
      3217.07       1.0323293     0.049218189
      3220.28       1.0138124     0.048648478
      3223.51      0.99330143     0.048944025
      3226.73      0.99281862     0.048377214
      3229.96      0.96338845     0.048156260
      3233.19      0.95664021     0.048464631
      3236.42      0.95317510     0.047924852
      3239.66      0.95361846     0.047744651
      3242.90      0.94642461     0.048065768
      3246.14      0.94770553     0.047548024
      3249.39      0.92974235     0.047403009
      3252.64      0.92739790     0.047376623
      3255.89      0.91474983     0.047236110
      3259.14      0.92854419     0.047120838
      3262.40      0.92667721     0.047091868
      3265.67      0.92920376     0.046978724
      3268.93      0.94113831     0.046887876
      3272.20      0.94084299     0.046377489
      3275.47      0.93158431     0.046765760
      3278.75      0.92191324     0.046279478
      3282.03      0.93504224     0.046189985
      3285.31      0.93468215     0.046587609
      3288.60      0.92864862     0.046106323
      3291.88      0.96144742     0.046030870
      3295.18      0.97183452     0.046435315
      3298.47      0.98206906     0.045957516
      3301.77       1.0027949     0.045891857
      3305.07       1.0033278     0.045897448
      3308.38      0.98074303     0.064172255
      3311.69      0.99679748     0.065303788
      3315.00       1.0116081     0.065333034
      3318.31       1.0117304     0.064084464
      3321.63       1.0588157     0.064051465
      3324.95       1.0584337     0.065237925
      3328.28       1.0737065     0.063984021
      3331.61       1.0953140     0.063942690
      3334.94       1.1111512     0.065121996
      3338.27       1.1044949     0.063864310
      3341.61       1.0890191     0.063811615
      3344.95       1.1025257     0.064981207
      3348.30       1.1134784     0.063721934
      3351.65       1.1125645     0.063656308
      3355.00       1.1197707     0.063679519
      3358.35       1.1544741     0.063555993
      3361.71       1.1653912     0.063476667
      3365.07       1.1658906     0.063504261
      3368.44       1.1675454     0.063367082
      3371.81       1.1456471     0.063273701
      3375.18       1.1420181     0.063307560
      3378.56       1.1101218     0.063156446
      3381.94       1.0735484     0.063048693
      3385.32       1.0609293     0.061815010
      3388.70       1.0628255     0.062925483
      3392.09       1.0678304     0.062803392
      3395.48       1.0462226     0.061565343
      3398.88       1.0353455     0.062676165
      3402.28       1.0183916     0.062539876
      3405.68       1.0305866     0.061297450
      3409.09       1.0137093     0.062410695
      3412.49      0.98976075     0.062260346
      3415.91       1.0098163     0.061013687
      3419.32       1.0175537     0.062131250
      3422.74       1.0019257     0.061967072
      3426.17      0.98290785     0.060716182
      3429.59       1.0153513     0.060633649
      3433.02       1.0255215     0.061662342
      3436.45       1.0447009     0.060407209
      3439.89       1.0464290     0.060310959
      3443.33       1.0502455     0.061348516
      3446.78       1.0584953     0.060089025
      3450.22       1.0592916     0.059979428
      3453.67       1.0901173     0.061027957
      3457.13       1.1056695     0.060864927
      3460.58       1.1252955     0.059641429
      3464.04       1.1242473     0.059559438
      3467.51       1.1082473     0.060526968
      3470.98       1.0850830     0.059299269
      3474.45       1.0805015     0.059204016
      3477.92       1.1060174     0.060187493
      3481.40       1.1062437     0.058955528
      3484.88       1.1171554     0.058847512
      3488.37       1.1302794     0.058774753
      3491.86       1.1324024     0.058612556
      3495.35       1.1072474     0.058492282
      3498.84       1.0887988     0.058406849
      3502.34       1.0861477     0.058272846
      3505.84       1.0456097     0.058140809
      3509.35       1.0249784     0.058043171
      3512.86       1.0283510     0.056920251
      3516.37       1.0357590     0.057795617
      3519.89       1.0322144     0.057686503
      3523.41       1.0227352     0.056601501
      3526.93       1.0246263     0.057459240
      3530.46       1.0128392     0.057339258
      3533.99       1.0354863     0.057258399
      3537.53       1.0443127     0.056132711
      3541.06       1.0416018     0.057003968
      3544.60       1.0382007     0.056912212
      3548.15       1.0338787     0.055829746
      3551.70       1.0485594     0.056683318
      3555.25       1.0257067     0.056581235
      3558.80       1.0174856     0.055542980
      3562.36       1.0244794     0.055399068
      3565.92       1.0530194     0.056267975
      3569.49       1.0733678     0.056189553
      3573.06       1.0770370     0.055123675
      3576.64       1.0936807     0.055004547
      3580.21       1.1038560     0.055887070
      3583.79       1.1132791     0.054869779
      3587.38       1.1306842     0.054743338
      3590.96       1.1598423     0.055607735
      3594.55       1.1682164     0.054639287
      3598.15       1.1715301     0.054505786
      3601.75       1.1761643     0.054404088
      3605.35       1.1766050     0.055284229
      3608.96       1.1761001     0.054293368
      3612.56       1.1971943     0.054184207
      3616.18       1.1987647     0.054105746
      3619.79       1.2001476     0.054107037
      3623.41       1.2037950     0.053989887
      3627.04       1.1874444     0.053902640
      3630.66       1.1842890     0.053844928
      3634.29       1.1817278     0.053821356
      3637.93       1.1637401     0.053724495
      3641.57       1.1441662     0.053656588
      3645.21       1.1410645     0.053678542
      3648.86       1.1399157     0.054491590
      3652.50       1.1441942     0.055688161
      3656.16       1.1281032     0.053949652
      3659.81       1.1316533     0.052546674
      3663.47       1.1243677     0.053467758
      3667.14       1.1152394     0.053219486
      3670.80       1.1204700     0.052618039
      3674.48       1.1060180     0.052895985
      3678.15       1.0937039     0.053803347
      3681.83       1.0898041     0.054174416
      3685.51       1.0749460     0.053834344
      3689.20       1.0677585     0.054310636
      3692.88       1.0559435     0.055327919
      3696.58       1.0599146     0.054874816
      3700.27       1.0534425     0.055275904
      3703.98       1.0580024     0.055620887
      3707.68       1.0599000     0.056710056
      3711.39       1.0524717     0.055959623
      3715.10       1.0504130     0.056067773
      3718.81       1.0692307     0.056099353
      3722.53       1.0689217     0.057085054
      3726.26       1.0742254     0.055616431
      3729.98       1.1086100     0.055418812
      3733.71       1.1143010     0.055142792
      3737.45       1.1136274     0.054745748
      3741.18       1.1049522     0.054335251
      3744.93       1.1055634     0.053894845
      3748.67       1.0923380     0.053458300
      3752.42       1.0925846     0.053041972
      3756.17       1.0876867     0.052554228
      3759.93       1.0708666     0.052131990
      3763.69       1.0510782     0.051810317
      3767.45       1.0560050     0.051380993
      3771.22       1.0613219     0.051121532
      3774.99       1.0591078     0.051061806
      3778.77       1.0680308     0.051297858
      3782.54       1.0721265     0.050227437
      3786.33       1.0741969     0.051478821
      3790.11       1.0823707     0.052916672
      3793.90       1.0788966     0.051661576
      3797.70       1.1061466     0.050746469
      3801.50       1.1151439     0.050590619
      3805.30       1.1349592     0.050523140
      3809.10       1.1331567     0.049664744
      3812.91       1.1408308     0.049556164
      3816.73       1.1731970     0.049458436
      3820.54       1.1784103     0.050201397
      3824.36       1.1909687     0.049349880
      3828.19       1.2219756     0.049223236
      3832.02       1.2373481     0.049105972
      3835.85       1.2686544     0.049830356
      3839.68       1.2839727     0.048990206
      3843.52       1.3008293     0.048842867
      3847.37       1.3118972     0.048704043
      3851.22       1.3371683     0.048572790
      3855.07       1.3595187     0.049288765
      3858.92       1.3654150     0.048410090
      3862.78       1.3772154     0.048246838
      3866.64       1.3890907     0.048090774
      3870.51       1.4086817     0.048783482
      3874.38       1.4266840     0.047920167
      3878.26       1.4447883     0.047730782
      3882.13       1.4198395     0.047547304
      3886.02       1.4288706     0.047370046
      3889.90       1.4412721     0.047370069
      3893.79       1.4645271     0.047153189
      3897.69       1.4752551     0.046942099
      3901.59       1.5064000     0.046735965
      3905.49       1.5192306     0.045852492
      3909.39       1.5233004     0.046514900
      3913.30       1.5372405     0.046275843
      3917.22       1.5507567     0.046042395
      3921.13       1.5654699     0.045152417
      3925.06       1.5738632     0.044935216
      3928.98       1.5816875     0.045553814
      3932.91       1.5666781     0.045293666
      3936.84       1.5670462     0.045039426
      3940.78       1.5743247     0.044156959
      3944.72       1.5680595     0.043919310
      3948.67       1.5811658     0.044497942
      3952.61       1.5720211     0.044219271
      3956.57       1.5842598     0.043336546
      3960.52       1.5797740     0.043074673
      3964.48       1.5920180     0.042819428
      3968.45       1.5903035     0.043362610
      3972.42       1.5728943     0.043068471
      3976.39       1.5510778     0.042198367
      3980.37       1.5481732     0.041921604
      3984.35       1.5337314     0.041652003
      3988.33       1.5092131     0.041386490
      3992.32       1.4993169     0.041296008
      3996.31       1.4823666     0.041003054
      4000.31       1.4608795     0.040714834
      4004.31       1.4485319     0.040434264
      4008.31       1.4276137     0.040158333
      4012.32       1.4110133     0.040069607
      4016.33       1.3989955     0.039768214
      4020.35       1.3744118     0.039472142
      4024.37       1.3646091     0.039184122
      4028.40       1.3375230     0.038407633
      4032.42       1.3144380     0.038098465
      4036.46       1.2927440     0.038511628
      4040.50       1.2819217     0.038211354
      4044.54       1.2695076     0.037919635
      4048.58       1.2453417     0.037168970
      4052.63       1.2174931     0.036858798
      4056.68       1.2056667     0.037251322
      4060.74       1.1851856     0.036950677
      4064.80       1.1481104     0.036659064
      4068.86       1.1195215     0.035939143
      4072.93       1.0993717     0.035631875
      4077.01       1.0914682     0.035332216
      4081.08       1.0743769     0.035708186
      4085.17       1.0607870     0.035420543
      4089.25       1.0582460     0.034736110
      4093.34       1.0600273     0.034435479
      4097.43       1.0615154     0.034143102
      4101.53       1.0637397     0.033859798
      4105.63       1.0670939     0.034222386
      4109.74       1.0834170     0.033577484
      4113.85       1.0948035     0.033287311
      4117.96       1.0864830     0.033006026
      4122.08       1.0923031     0.032734519
      4126.20       1.0811121     0.032472260
      4130.33       1.0787457     0.032480600
      4134.46       1.0859169     0.032204629
      4138.59       1.0879181     0.031938123
      4142.73       1.0892406     0.031682136
      4146.88       1.1010891     0.031435947
      4151.02       1.1148170     0.031200133
      4155.18       1.1207600     0.030601122
      4159.33       1.1303862     0.030955902
      4163.49       1.1416077     0.030718881
      4167.65       1.1312046     0.030492149
      4171.82       1.1252559     0.030276367
      4175.99       1.1186492     0.029702546
      4180.17       1.1133186     0.029508188
      4184.35       1.1199266     0.029323001
      4188.54       1.1125520     0.029654349
      4192.72       1.1049813     0.029461037
      4196.92       1.0713239     0.029278454
      4201.11       1.0665907     0.028739618
      4205.31       1.0630258     0.028577172
      4209.52       1.0592768     0.028426211
      4213.73       1.0496839     0.028284757
      4217.94       1.0450814     0.028604850
      4222.16       1.0382329     0.028088241
      4226.38       1.0180317     0.027949650
      4230.61       1.0229860     0.027822695
      4234.84       1.0281211     0.027705114
      4239.08       1.0299673     0.027598980
      4243.32       1.0275014     0.027502415
      4247.56       1.0281810     0.027445433
      4251.81       1.0381433     0.027343225
      4256.06       1.0419474     0.027744978
      4260.32       1.0479386     0.028079915
      4264.58       1.0558502     0.028631647
      4268.84       1.0620202     0.028995577
      4273.11       1.0654327     0.029258614
      4277.38       1.0595768     0.030245877
      4281.66       1.0586306     0.030661368
      4285.94       1.0677483     0.032116166
      4290.23       1.0653928     0.032637866
      4294.52       1.0793972     0.034894259
      4298.81       1.0845656     0.036931379
      4303.11       1.0921307     0.043069772
      4307.42       1.0963328     0.046210375
      4311.72       1.0968300     0.046958365
      4316.04       1.0973227     0.050561258
      4320.35       1.1007029     0.052906688
      4324.67       1.1068086     0.053916961
      4329.00       1.1112807     0.058265180
      4333.33       1.1183467       1.1183467
      4337.66       1.1190891       1.1190891
      4342.00       1.1236166       1.1236166
      4346.34       1.1161485       1.1161485
      4350.69       1.1193489       1.1193489
      4355.04       1.1162907       1.1162907
      4359.39       1.1025113       1.1025113
      4363.75       1.1041168       1.1041168
      4368.12       1.0900123       1.0900123
      4372.48       1.0806750       1.0806750
      4376.86       1.0872734       1.0872734
      4381.23       1.0988363       1.0988363
      4385.61       1.1178432       1.1178432
      4390.00       1.0973340       1.0973340
      4394.39       1.1046568       1.1046568
      4398.79       1.0942464       1.0942464
      4403.18       1.1018256       1.1018256
      4407.59       1.0976751       1.0976751
      4412.00       1.1004950       1.1004950
      4416.41       1.1003178       1.1003178
      4420.82       1.0900063       1.0900063
      4425.25       1.0880652       1.0880652
      4429.67       1.0930304       1.0930304
      4434.10       1.0744720       1.0744720
      4438.54       1.0778499       1.0778499
      4442.97       1.0924229       1.0924229
      4447.42       1.1170352       1.1170352
      4451.86       1.1350536       1.1350536
      4456.32       1.1496886       1.1496886
      4460.77       1.1640169       1.1640169
      4465.24       1.1590384       1.1590384
      4469.70       1.1730795       1.1730795
      4474.17       1.2012808       1.2012808
      4478.65       1.2210350       1.2210350
      4483.12       1.2423816       1.2423816
      4487.61       1.2355694       1.2355694
      4492.09       1.2297801       1.2297801
      4496.59       1.2116400       1.2116400
      4501.08       1.2266733       1.2266733
      4505.58       1.2194242       1.2194242
      4510.09       1.2337164       1.2337164
      4514.60       1.2387408       1.2387408
      4519.12       1.2445431       1.2445431
      4523.63       1.2707567       1.2707567
      4528.16       1.2632385       1.2632385
      4532.69       1.2650117       1.2650117
      4537.22       1.2473259       1.2473259
      4541.76       1.2579057       1.2579057
      4546.30       1.2492571       1.2492571
      4550.85       1.2587764       1.2587764
      4555.40       1.2720383       1.2720383
      4559.95       1.2748139       1.2748139
      4564.51       1.2756100       1.2756100
      4569.08       1.2770878       1.2770878
      4573.65       1.2799864       1.2799864
      4578.22       1.2810691       1.2810691
      4582.80       1.2901033       1.2901033
      4587.38       1.2985633       1.2985633
      4591.97       1.2996440       1.2996440
      4596.56       1.2960878       1.2960878
      4601.16       1.2841058       1.2841058
      4605.76       1.2792002       1.2792002
      4610.37       1.2858418       1.2858418
      4614.98       1.2818032       1.2818032
      4619.59       1.2742065       1.2742065
      4624.21       1.2783807       1.2783807
      4628.84       1.2818187       1.2818187
      4633.47       1.2882418       1.2882418
      4638.10       1.2839747       1.2839747
      4642.74       1.3194128       1.3194128
      4647.38       1.3236396       1.3236396
      4652.03       1.3223130       1.3223130
      4656.68       1.3223148       1.3223148
      4661.34       1.3056137       1.3056137
      4666.00       1.3142240       1.3142240
      4670.67       1.3081156       1.3081156
      4675.33       1.3046720       1.3046720
      4680.01       1.3039498     0.048893431
      4684.69       1.3032339     0.046649374
      4689.38       1.3034910     0.043983083
      4694.07       1.3078093     0.042275529
      4698.76       1.3075630     0.040447764
      4703.46       1.3177862     0.043017872
      4708.16       1.3115557     0.039066210
      4712.87       1.2943636     0.037004459
      4717.58       1.2837819     0.034750719
      4722.30       1.2833244     0.033280737
      4727.03       1.2801923     0.032282568
      4731.75       1.2830584     0.031213488
      4736.48       1.2857594     0.030537086
      4741.22       1.2901697     0.029839173
      4745.96       1.2861955     0.029340782
      4750.71       1.2884306     0.028856884
      4755.46       1.2807161     0.028466213
      4760.22       1.2933965     0.028149134
      4764.97       1.2902576     0.028254076
      4769.74       1.2846748     0.028353737
      4774.51       1.2831810     0.028696503
      4779.29       1.2849500     0.029187855
      4784.07       1.2917554     0.029507952
      4788.85       1.3030865     0.029115283
      4793.64       1.3120972     0.028796298
      4798.43       1.3135801     0.028847837
      4803.23       1.3075728     0.028984931
      4808.03       1.3135854     0.029181704
      4812.84       1.3171848     0.029419769
      4817.66       1.3197662     0.029684948
      4822.48       1.3039240     0.029835859
      4827.30       1.3058964     0.030113485
      4832.12       1.3037264     0.030383448
      4836.96       1.2867711     0.030636288
      4841.79       1.2833322     0.030862990
      4846.63       1.2868174     0.030922210
      4851.48       1.2971541     0.031057845
      4856.33       1.2930896     0.031283564
      4861.19       1.3023432     0.031321130
      4866.05       1.2753745     0.031249675
      4870.92       1.2694253     0.031127477
      4875.79       1.2621554     0.031446143
      4880.66       1.2665969     0.031383918
      4885.55       1.2818807     0.030704303
      4890.43       1.2795586     0.030251504
      4895.32       1.2803756     0.029784182
      4900.22       1.2847420     0.029577287
      4905.12       1.2790638     0.029510811
      4910.02       1.2777131     0.029409592
      4914.94       1.2785019     0.029245002
      4919.85       1.2699971     0.029455848
      4924.77       1.2814833     0.029855766
      4929.70       1.2815069     0.030424612
      4934.62       1.2851554     0.030066869
      4939.56       1.2947291     0.030101817
      4944.50       1.2894841     0.029907044
      4949.44       1.2758574     0.029674642
      4954.39       1.2626561     0.029460028
      4959.35       1.2572120     0.029655949
      4964.31       1.2560140     0.029870372
      4969.27       1.2554122     0.030311237
      4974.24       1.2542340     0.030498740
      4979.22       1.2378285     0.030597034
      4984.20       1.2294564     0.030633268
      4989.18       1.2316065     0.030438322
      4994.17       1.2330205     0.030319381
      4999.16       1.2354463     0.030132021
      5004.16       1.2388195     0.029977315
      5009.17       1.2418956     0.029068919
      5014.18       1.2406862     0.028642503
      5019.19       1.2498193     0.028200168
      5024.21       1.2438920     0.027624616
      5029.23       1.2430040     0.027324929
      5034.26       1.2240056     0.026951423
      5039.30       1.2283510     0.026517023
      5044.34       1.2286827     0.026333940
      5049.39       1.2224477     0.025581080
      5054.43       1.2251318     0.024865522
      5059.49       1.2202730     0.024434453
      5064.55       1.2197785     0.024033705
      5069.61       1.2238670     0.023538623
      5074.68       1.2238221     0.023338094
      5079.76       1.2321407     0.023129661
      5084.84       1.2219918     0.022936105
      5089.92       1.2170421     0.023028439
      5095.01       1.2302185     0.023041828
      5100.11       1.2324602     0.022406754
      5105.21       1.2395807     0.021958089
      5110.31       1.2429420     0.021604158
      5115.42       1.2531004     0.021253932
      5120.54       1.2514203     0.021090449
      5125.66       1.2639680     0.020742119
      5130.79       1.2917097     0.020521883
      5135.92       1.3055817     0.020356315
      5141.05       1.3241433     0.020014174
      5146.20       1.3252112     0.019797608
      5151.34       1.3304370     0.019581484
      5156.49       1.3447036     0.019293948
      5161.65       1.3558670     0.019080054
      5166.81       1.3684413     0.018749420
      5171.98       1.3894821     0.018538517
      5177.15       1.4063173     0.018377818
      5182.33       1.4166890     0.018055878
      5187.51       1.4235599     0.017850800
      5192.70       1.4319689     0.017583933
      5197.89       1.4344503     0.017383058
      5203.09       1.4454887     0.022873491
      5208.29       1.4563924     0.022399658
      5213.50       1.4714621     0.022136600
      5218.72       1.4706106     0.022007777
      5223.93       1.4691324     0.021552411
      5229.16       1.4714318     0.021303736
      5234.39       1.4619764     0.020992386
      5239.62       1.4575120     0.020752373
      5244.86       1.4694560     0.020520794
      5250.11       1.4785974     0.020228113
      5255.36       1.4791452     0.020007311
      5260.61       1.4884606     0.019734724
      5265.87       1.4905702     0.019525888
      5271.14       1.4765666     0.019159297
      5276.41       1.4692180     0.019079071
      5281.69       1.4566509     0.018734587
      5286.97       1.4401818     0.018570847
      5292.26       1.4375702     0.018518786
      5297.55       1.4379272     0.018209231
      5302.85       1.4327463     0.018164133
      5308.15       1.4354590     0.017885618
      5313.46       1.4484509     0.017775675
      5318.77       1.4252615     0.017648258
      5324.09       1.4159162     0.017571120
      5329.42       1.3917280     0.017484231
      5334.75       1.3766096     0.017428094
      5340.08       1.3642821     0.017361137
      5345.42       1.3561044     0.017311181
      5350.77       1.3516989     0.017126879
      5356.12       1.3576494     0.017190657
      5361.48       1.3535130     0.017001107
      5366.83       1.3443116     0.017059865
      5372.20       1.3392775     0.016873018
      5377.58       1.3443362     0.016938585
      5382.95       1.3480272     0.016774607
      5388.34       1.3476416     0.016872154
      5393.72       1.3497053     0.016743547
      5399.12       1.3591660     0.016734982
      5404.52       1.3617449     0.016739269
      5409.92       1.3837049     0.016749097
      5415.33       1.3956893     0.016779348
      5420.75       1.3817855     0.016694134
      5426.17       1.3947158     0.016851235
      5431.60       1.3920553     0.016780639
      5437.03       1.3806814     0.016952528
      5442.47       1.3834794     0.016895508
      5447.91       1.3812801     0.017081853
      5453.36       1.3736715     0.017037547
      5458.81       1.3726074     0.017236132
      5464.27       1.3585795     0.017201039
      5469.73       1.3402249     0.017303503
      5475.20       1.3364949     0.017383921
      5480.68       1.3129708     0.017499551
      5486.16       1.3136690     0.017593426
      5491.65       1.3010183     0.017724490
      5497.14       1.2884169     0.017715711
      5502.64       1.2915084     0.017954706
      5508.14       1.2885919     0.017942282
      5513.65       1.3008635     0.018185301
      5519.16       1.2798510     0.018167506
      5524.68       1.2830439     0.018294523
      5530.20       1.2871017     0.018526025
      5535.73       1.2747976     0.018493819
      5541.27       1.2630730     0.018721800
      5546.81       1.2545301     0.018683079
      5552.36       1.2323161     0.018796148
      5557.91       1.2204666     0.018871972
      5563.47       1.2093038     0.018982053
      5569.04       1.2004995     0.018938203
      5574.60       1.1921404     0.019150756
      5580.18       1.1780096     0.019242369
      5585.76       1.1683188     0.019178271
      5591.35       1.1802473     0.019381038
      5596.94       1.1751278     0.019313326
      5602.53       1.1717751     0.019379831
      5608.14       1.1799452     0.019564432
      5613.75       1.1796825     0.019475908
      5619.36       1.1762953     0.019527319
      5624.98       1.1582832     0.019560985
      5630.60       1.1510291     0.019600864
      5636.23       1.1380588     0.019636151
      5641.87       1.1259649     0.019654954
      5647.51       1.1031884     0.019675221
      5653.16       1.0871522     0.019549847
      5658.82       1.0722855     0.019691728
      5664.47       1.0573626     0.019691116
      5670.14       1.0507669     0.019548957
      5675.81       1.0381124     0.019674622
      5681.48       1.0314035     0.019655730
      5687.17       1.0096398     0.019497402
      5692.85       1.0013759     0.019469790
      5698.55      0.98498555     0.019569526
      5704.25      0.98175965     0.019396510
      5709.95      0.96670563     0.019351744
      5715.66      0.96981888     0.019173897
      5721.38      0.96872028     0.019250286
      5727.10      0.96155158     0.019188502
      5732.83      0.96722392     0.018999575
      5738.56      0.96849238     0.018925987
      5744.30      0.97836382     0.018983720
      5750.04      0.97256932     0.018903773
      5755.79      0.98691613     0.018699351
      5761.55       1.0048521     0.018609069
      5767.31       1.0246325     0.018650022
      5773.08       1.0335832     0.018439564
      5778.85       1.0483484     0.018343455
      5784.63       1.0508010     0.018284505
      5790.41       1.0635262     0.018269288
      5796.21       1.0737078     0.018190101
      5802.00       1.0728138     0.018044105
      5807.81       1.0644362     0.017968542
      5813.61       1.0597732     0.017861706
      5819.43       1.0391953     0.018025167
      5825.25       1.0266555     0.018140918
      5831.07       1.0044326     0.018297508
      5836.90      0.99129769     0.018328963
      5842.74      0.97754408     0.018464629
      5848.58      0.96627336     0.018537311
      5854.43      0.95226148     0.018522818
      5860.29      0.94468011     0.018415847
      5866.15      0.96252060     0.018203281
      5872.01      0.96551171     0.017900057
      5877.89      0.97301930     0.017542396
      5883.76      0.96770262     0.017113045
      5889.65      0.97501952     0.016897933
      5895.54      0.99010901     0.016597348
      5901.43       1.0075970     0.016356768
      5907.34       1.0162361     0.016023876
      5913.24       1.0182356     0.015759505
      5919.16       1.0244959     0.015539681
      5925.08       1.0247830     0.015344209
      5931.00       1.0276675     0.015276080
      5936.93       1.0250616     0.015023230
      5942.87       1.0273626     0.014857751
      5948.81       1.0153880     0.014705223
      5954.76       1.0075913     0.014561838
      5960.72       1.0098394     0.014424326
      5966.68      0.99719625     0.014211221
      5972.64      0.99649453     0.014074304
      5978.62      0.98918224     0.013935902
      5984.60      0.97101308     0.013795900
      5990.58      0.96449893     0.013763382
      5996.57      0.95871593     0.013631217
      6002.57      0.95269855     0.013506059
      6008.57      0.96663836     0.013312191
      6014.58      0.96849973     0.013197168
      6020.60      0.96529279     0.013088878
      6026.62      0.96810444     0.012988336
      6032.65      0.97936117     0.012896214
      6038.68      0.97648673     0.012817593
      6044.72      0.98367918     0.012753956
      6050.76      0.98230439     0.012627579
      6056.81      0.98034550     0.012578150
      6062.87      0.97696164     0.012538706
      6068.93      0.98544607     0.012519324
      6075.00      0.97773144     0.012526958
      6081.08      0.96615139     0.012570821
      6087.16      0.96268561     0.012659134
      6093.25      0.95116712     0.012780688
      6099.34      0.94704013     0.012911574
      6105.44      0.93279056     0.013025475
      6111.54      0.92213698     0.013016248
      6117.66      0.91637905     0.013082799
      6123.78      0.91897600     0.013131791
      6129.90      0.90790693     0.013166763
      6136.03      0.89893519     0.013187235
      6142.17      0.89145203     0.013203239
      6148.31      0.89568008     0.013231521
      6154.46      0.88334103     0.013286417
      6160.61      0.88394965     0.013375694
      6166.77      0.88669524     0.013486636
      6172.94      0.89190060     0.013608557
      6179.11      0.91012304     0.013730269
      6185.29      0.91500067     0.013841705
      6191.48      0.89947834     0.013936437
      6197.67      0.90807173     0.014023124
      6203.87      0.92244366     0.014125148
      6210.07      0.92439515     0.014247545
      6216.28      0.93163097     0.014376393
      6222.50      0.92617973     0.014496290
      6228.72      0.93964716     0.014615358
      6234.95      0.95173453     0.014743532
      6241.19      0.95804441     0.014886413
      6247.42      0.96584362     0.014978504
      6253.67      0.97488431     0.013128837
      6259.93      0.97870765     0.013282595
      6266.19      0.98436903     0.013449667
      6272.46      0.99108291     0.013625891
      6278.73      0.98974328     0.013766856
      6285.01      0.98866373     0.013959680
      6291.29      0.99745564     0.014159973
      6297.58      0.99812630     0.014364177
      6303.88       1.0068672     0.014569148
      6310.19       1.0033878     0.014772939
      6316.50       1.0103843     0.014979253
      6322.81       1.0095409     0.015147713
      6329.14      0.99626695     0.015362159
      6335.47      0.99812164     0.015580422
      6341.80      0.99601721     0.015800065
      6348.14      0.99671057     0.016019042
      6354.49      0.99588875     0.016339922
      6360.85      0.99336442     0.016556051
      6367.21      0.98873877     0.016722517
      6373.57      0.98789563     0.016951801
      6379.95      0.99170919     0.017349922
      6386.33      0.98885533     0.017852955
      6392.72      0.99570397     0.018443629
      6399.11      0.99981417     0.019154272
      6405.51       1.0014446     0.020039421
      6411.92       1.0127323     0.021188046
      6418.32       1.0106254     0.022734850
      6424.74       1.0051789     0.016399799
      6431.17       1.0050462     0.017126875
      6437.60       1.0088848     0.018146743
      6444.04       1.0128302     0.018880798
      6450.48       1.0119708     0.019484984
      6456.94       1.0177751     0.020190267
      6463.39       1.0060582     0.020713429
      6469.85       1.0044010     0.021509064
      6476.33       1.0024774     0.022307998
      6482.80      0.99977775     0.023011606
      6489.28      0.99370320     0.023683450
      6495.77      0.99433120     0.024237083
      6502.27      0.99196479     0.024297312
      6508.77      0.97019136     0.023989910
      6515.28      0.96682741     0.023604738
      6521.80      0.97811654     0.023058441
      6528.32      0.98338477     0.022821259
      6534.85      0.97185952     0.022145500
      6541.38      0.96665582     0.021352141
      6547.92      0.97446126     0.020582847
      6554.47      0.96696218     0.019831524
      6561.03      0.97012986     0.019130543
      6567.59      0.98026680     0.018355076
      6574.16      0.97947601     0.018085975
      6580.73      0.97771366     0.017768138
      6587.31      0.96933942     0.017927561
      6593.90      0.96800323     0.019632639
      6600.50      0.96767594     0.019475688
      6607.10      0.97324571     0.018675948
      6613.70      0.97752583     0.017955675
      6620.32      0.97790326     0.017476944
      6626.94      0.97057953     0.017325318
      6633.57      0.96573390     0.017154122
      6640.20      0.96454425     0.017255054
      6646.84      0.95815400     0.017179883
      6653.49      0.95599776     0.016639264
      6660.14      0.94068833     0.016360262
      6666.80      0.93088028     0.016193749
      6673.47      0.92310070     0.015936653
      6680.14      0.91684036     0.015826383
      6686.82      0.91275116     0.015580970
      6693.51      0.90598659     0.015420611
      6700.20      0.89629374     0.015307269
      6706.90      0.88085113     0.015059640
      6713.61      0.86739707     0.014900924
      6720.32      0.86090220     0.014664707
      6727.05      0.85403994     0.014557385
      6733.77      0.84993897     0.014405821
      6740.51      0.83733487     0.016448716
      6747.25      0.83366209     0.016162518
      6754.00      0.83426290     0.016068449
      6760.75      0.82671666     0.015907450
      6767.51      0.82410779     0.015644921
      6774.28      0.81297793     0.015574167
      6781.05      0.79809779     0.015336044
      6787.84      0.78813045     0.015206482
      6794.62      0.78712587     0.015060216
      6801.42      0.77216885     0.014944464
      6808.22      0.77498775     0.014740770
      6815.03      0.76915858     0.014707080
      6821.85      0.76319836     0.014605990
      6828.67      0.76462275     0.014423492
      6835.50      0.77332538     0.014408739
      6842.33      0.77895187     0.014242719
      6849.17      0.77453387     0.014240697
      6856.02      0.77710365     0.014099161
      6862.88      0.77590701     0.014052314
      6869.74      0.77650043     0.014009712
      6876.61      0.79448227     0.013993317
      6883.49      0.79505464     0.013991511
      6890.37      0.79715715     0.014006194
      6897.27      0.80333682     0.013976737
      6904.16      0.78715914     0.014128006
      6911.07      0.78327388     0.014156180
      6917.98      0.77772003     0.014348225
      6924.89      0.77997371     0.014411726
      6931.82      0.77471224     0.014642225
      6938.75      0.78314751     0.014685587
      6945.69      0.77745140     0.014737664
      6952.64      0.77716511     0.014772534
      6959.59      0.78504138     0.014717187
      6966.55      0.79196972     0.014816203
      6973.52      0.79083492     0.014749674
      6980.49      0.78783728     0.014830680
      6987.47      0.78539377     0.014747998
      6994.46      0.77855099     0.014821720
      7001.46      0.77355796     0.014746822
      7008.46      0.77261331     0.014772517
      7015.46      0.76059042     0.014795786
      7022.48      0.75296856     0.014816070
      7029.51      0.74811743     0.014831739
      7036.53      0.75090906     0.014848012
      7043.57      0.74283517     0.014783681
      7050.62      0.73511163     0.014880417
      7057.66      0.72635960     0.014842302
      7064.72      0.72673365     0.015003206
      7071.79      0.71904832     0.014974062
      7078.86      0.73271887     0.014978989
      7085.94      0.74089498     0.014975424
      7093.03      0.75189906     0.014992993
      7100.12      0.74805361     0.015020466
      7107.22      0.74483247     0.015047292
      7114.33      0.74131387     0.015095004
      7121.44      0.73848707     0.015124996
      7128.56      0.72503576     0.015171332
      7135.69      0.72944326     0.015140788
      7142.83      0.72770395     0.015282016
      7149.97      0.73651584     0.015357787
      7157.12      0.75003290     0.015339871
      7164.28      0.75484837     0.015325633
      7171.44      0.77041351     0.015316086
      7178.62      0.77028787     0.015238420
      7185.80      0.76825899     0.015236264
      7192.98      0.77426102     0.015170526
      7200.17      0.77761936     0.015170297
      7207.38      0.78794986     0.015171018
      7214.58      0.79774419     0.015109923
      7221.80      0.80656439     0.015112648
      7229.02      0.81217878     0.015054243
      7236.25      0.80648745     0.015057582
      7243.49      0.79993813     0.014979390
      7250.73      0.78032237     0.014918420
      7257.98      0.77410644     0.014916465
      7265.24      0.76904432     0.014851598
      7272.51      0.76406713     0.014842405
      7279.78      0.76148291     0.014775063
      7287.06      0.74808594     0.014763250
      7294.35      0.75378745     0.014690956
      7301.64      0.75814177     0.014673133
      7308.94      0.76134941     0.014599676
      7316.25      0.76138802     0.014579345
      7323.57      0.76087138     0.014503000
      7330.89      0.76772000     0.014478198
      7338.22      0.75875643     0.014398655
      7345.56      0.75483401     0.014368950
      7352.91      0.74824894     0.014505028
      7360.26      0.74437850     0.014424910
      7367.62      0.73034261     0.014182835
      7374.99      0.72614811     0.014120490
      7382.37      0.71207814     0.014060605
      7389.75      0.69876625     0.014087599
      7397.14      0.68076227     0.014081479
      7404.53      0.66893534     0.014079686
      7411.94      0.65240083     0.014110191
      7419.35      0.64534632     0.014092243
      7426.77      0.62812854     0.014112082
      7434.20      0.60746051     0.014061153
      7441.63      0.58966889     0.013989810
      7449.07      0.56618708     0.013948803
      7456.52      0.55634696     0.013836263
      7463.98      0.54327011     0.013707993
      7471.45      0.53618996     0.013611507
      7478.92      0.53334083     0.013465000
      7486.40      0.53270831     0.013314475
      7493.88      0.53061259     0.013213523
      7501.38      0.54449057     0.013066874
      7508.88      0.55271197     0.012920223
      7516.39      0.56005837     0.012810444
      7523.91      0.56057988     0.012721812
      7531.43      0.56345966     0.012827586
      7538.96      0.56822492     0.012962609
      7546.50      0.57371046     0.013136267
      7554.05      0.58058029     0.013357268
      7561.60      0.58404471     0.013645695
      7569.16      0.58344549     0.014033775
      7576.73      0.59647413     0.014567811
      7584.31      0.60135352     0.015323130
      7591.89      0.61413222     0.016431091
      7599.49      0.61695014     0.017663853
      7607.09      0.62001158     0.019303513
      7614.70      0.62113121     0.021404460
      7622.31      0.62302082     0.024120771
      7629.93      0.62126834     0.027602857
      7637.56      0.61656904     0.032020347
      7645.20      0.60577488     0.037582943
