# starting wavelength =        3026.6174
# ending wavelength =        8213.6989
# O2 telluric scale =        0
# O2 telluric shift =        0
# H2O telluric scale =        0
# H2O telluric shift =        0
      3026.78      0.82622839      0.26658315
      3029.80      0.79764811      0.26122194
      3032.83      0.77842865      0.23492383
      3035.87      0.77046132      0.20183584
      3038.90      0.75984563      0.19597880
      3041.94      0.74931791      0.18358252
      3044.98      0.74991018      0.16786057
      3048.03      0.74163592      0.16452691
      3051.08      0.72837375      0.15449196
      3054.13      0.72484752      0.15121646
      3057.18      0.68738184      0.14786442
      3060.24      0.71481487      0.14209382
      3063.30      0.71790113      0.14087125
      3066.36      0.74043569      0.13754640
      3069.43      0.78941211      0.13362794
      3072.50      0.79421726      0.13345325
      3075.57      0.81937220      0.13049205
      3078.65      0.78890936      0.12928319
      3081.73      0.81378229      0.12856757
      3084.81      0.81382576      0.12827275
      3087.89      0.84842018      0.12724993
      3090.98      0.82820377      0.12616846
      3094.07      0.82602445      0.12799309
      3097.17      0.84149250      0.12436103
      3100.26      0.82486083      0.12278285
      3103.36      0.92634242      0.12124865
      3106.47      0.93149607      0.12086968
      3109.58      0.94492965      0.11977580
      3112.68      0.88612504      0.11899923
      3115.80      0.89723803      0.11870060
      3118.91      0.90311877      0.11824670
      3122.03      0.94099983      0.11814917
      3125.15      0.96442645      0.11597925
      3128.28      0.96822918      0.11764801
      3131.41      0.92255594      0.11749300
      3134.54      0.91904457      0.11508921
      3137.67      0.92079640      0.11691050
      3140.81      0.87407859      0.11628027
      3143.95      0.84703291      0.11625897
      3147.10      0.87540823      0.11367676
      3150.24      0.87443418      0.11572641
      3153.39      0.93856681      0.11477097
      3156.55      0.91330589      0.11223147
      3159.70      0.93636070      0.11094942
      3162.86      0.93439428      0.11228893
      3166.03      0.95399068      0.10985287
      3169.19      0.88514042      0.10856996
      3172.36      0.88379590      0.10953990
      3175.54      0.88886473      0.10801912
      3178.71      0.91571090      0.10575369
      3181.89      0.96441983      0.10474145
      3185.07      0.97866229      0.10559847
      3188.26      0.99232783      0.10364106
      3191.45       1.0168442      0.10271971
      3194.64       1.0236011      0.10221638
      3197.83       1.0273835      0.10221934
      3201.03      0.98311349      0.10183367
      3204.23       1.0403268      0.10176883
      3207.44       1.0232459      0.10162176
      3210.64       1.0253218      0.10157017
      3213.85       1.0198337      0.10138355
      3217.07       1.0036781      0.10111052
      3220.28       1.0064344      0.10114190
      3223.51       1.0169319      0.10044978
      3226.73       1.0721289     0.099462802
      3229.96       1.0158070     0.098787830
      3233.19       1.0090509     0.098778374
      3236.42      0.99013384     0.097505737
      3239.66       1.0341009     0.096193270
      3242.90       1.0057713     0.094038783
      3246.14       1.0272561     0.095458807
      3249.39      0.97275262     0.094325544
      3252.64      0.96725155     0.093229772
      3255.89      0.90685202     0.090974662
      3259.14      0.89220169     0.091957149
      3262.40      0.89564019     0.090418390
      3265.67      0.88091380     0.088300390
      3268.93      0.87559011     0.087408865
      3272.20      0.89751579     0.088500363
      3275.47      0.88639998     0.087542657
      3278.75      0.91369094     0.085512079
      3282.03      0.89595313     0.084900594
      3285.31      0.90496181     0.085887919
      3288.60      0.90270393     0.085254001
      3291.88      0.84376687     0.083445762
      3295.18      0.82280682     0.082651664
      3298.47      0.85448463     0.083673580
      3301.77      0.89062568     0.081785546
      3305.07      0.89532561     0.081368707
      3308.38      0.93775292     0.081220168
      3311.69      0.94079361     0.082219002
      3315.00      0.95094684     0.080814948
      3318.31      0.95820337     0.080583187
      3321.63      0.99445568     0.080368008
      3324.95       1.0122309     0.080176584
      3328.28       1.0155835     0.079963894
      3331.61       1.0459523     0.079982315
      3334.94       1.0405546     0.080147076
      3338.27       1.0711488     0.078648909
      3341.61       1.0896138     0.080119835
      3344.95       1.1200288     0.080261076
      3348.30       1.1271420     0.080167563
      3351.65       1.1365087     0.078547198
      3355.00       1.1438410     0.079659753
      3358.35       1.1066739     0.079181110
      3361.71       1.0949478     0.078656949
      3365.07       1.0772149     0.076989451
      3368.44       1.0704629     0.076411593
      3371.81       1.0410488     0.077434497
      3375.18       1.0358335     0.076672140
      3378.56      0.99589278     0.075056118
      3381.94      0.97287288     0.074387847
      3385.32      0.94197849     0.075081174
      3388.70      0.95727329     0.074396106
      3392.09      0.95401927     0.073074598
      3395.48      0.92553524     0.072531396
      3398.88      0.95143550     0.071986559
      3402.28      0.94179131     0.072706002
      3405.68      0.93686447     0.071474749
      3409.09      0.92283673     0.070827227
      3412.49      0.90367177     0.070334202
      3415.91      0.87799368     0.071285042
      3419.32      0.86535000     0.069706033
      3422.74      0.84038202     0.069219365
      3426.17      0.86408666     0.069279892
      3429.59      0.86764586     0.069552205
      3433.02      0.86434797     0.069562170
      3436.45      0.82058079     0.069774556
      3439.89      0.84969314     0.069891923
      3443.33      0.82053816     0.069664457
      3446.78      0.82627967     0.067983442
      3450.22      0.83666375     0.068946177
      3453.67      0.84226598     0.068179406
      3457.13      0.86823729     0.068007581
      3460.58      0.88990743     0.068036025
      3464.04      0.91458924     0.066802656
      3467.51      0.94226464     0.067811566
      3470.98      0.97505934     0.067463351
      3474.45      0.97426589     0.067072918
      3477.92      0.97465549     0.065547693
      3481.40      0.95652207     0.065026539
      3484.88      0.97688705     0.065832967
      3488.37      0.97096482     0.065261081
      3491.86      0.99569180     0.063901691
      3495.35      0.99455108     0.063646576
      3498.84       1.0142133     0.063440214
      3502.34       1.0292400     0.064261794
      3505.84       1.0312400     0.064205236
      3509.35       1.0502131     0.063388079
      3512.86       1.0517587     0.063796330
      3516.37       1.0692807     0.064464090
      3519.89       1.0963017     0.065696294
      3523.41       1.1074754     0.065206747
      3526.93       1.0998015     0.066116710
      3530.46       1.1096070     0.067077595
      3533.99       1.1190220     0.068032888
      3537.53       1.0972779     0.069201341
      3541.06       1.0892161     0.068580521
      3544.60       1.0762197     0.068950179
      3548.15       1.0701524     0.069291535
      3551.70       1.0546773     0.069550999
      3555.25       1.0405713     0.068607578
      3558.80       1.0307116     0.069930952
      3562.36       1.0138606     0.070893455
      3565.92      0.96983648     0.071402869
      3569.49      0.92082337     0.071541922
      3573.06      0.94842241     0.070324079
      3576.64      0.96465022     0.071254763
      3580.21      0.94953994     0.070873561
      3583.79      0.95690452     0.070314786
      3587.38      0.99291783     0.069982830
      3590.96      0.99739129     0.068791009
      3594.55       1.0376801     0.068736273
      3598.15       1.0303455     0.069706697
      3601.75       1.0217914     0.069360287
      3605.35      0.98349225     0.068996894
      3608.96      0.94288647     0.067758630
      3612.56      0.93159852     0.067367598
      3616.18      0.91501210     0.067079843
      3619.79      0.90680572     0.067894714
      3623.41      0.90318749     0.067682843
      3627.04      0.90238440     0.066495739
      3630.66      0.91669545     0.066126944
      3634.29      0.90090413     0.065824289
      3637.93      0.94358083     0.065527156
      3641.57      0.94927509     0.066341800
      3645.21      0.96036101     0.065264331
      3648.86      0.96315414     0.065074538
      3652.50      0.96031808     0.064935272
      3656.16      0.93606107     0.064821101
      3659.81      0.94624563     0.064742736
      3663.47      0.94681064     0.064741074
      3667.14      0.92272636     0.064561385
      3670.80      0.92564922     0.064420631
      3674.48      0.93811585     0.064202302
      3678.15      0.96066161     0.064110187
      3681.83      0.95603841     0.063063531
      3685.51      0.97092805     0.062926465
      3689.20      0.97153456     0.063821074
      3692.88      0.95885626     0.063661834
      3696.58      0.96380507     0.063424556
      3700.27      0.96500040     0.063132322
      3703.98      0.96399005     0.061987454
      3707.68      0.93558024     0.061738292
      3711.39      0.94932821     0.062627502
      3715.10      0.98008482     0.062333660
      3718.81      0.98255104     0.062056044
      3722.53      0.99644997     0.060950382
      3726.26       1.0152124     0.060653462
      3729.98       1.0171936     0.060376785
      3733.71      0.98467868     0.060105205
      3737.45      0.97450142     0.060858266
      3741.18      0.96759517     0.060467065
      3744.93      0.95001307     0.059390071
      3748.67      0.91801674     0.059177044
      3752.42      0.91534000     0.059149655
      3756.17      0.94579937     0.059051048
      3759.93      0.93477424     0.058829188
      3763.69      0.92839448     0.059571841
      3767.45      0.93079663     0.058487535
      3771.22      0.92788255     0.058107298
      3774.99      0.94659175     0.057666684
      3778.77      0.95267016     0.057377370
      3782.54      0.95034939     0.057076094
      3786.33      0.91394187     0.056874846
      3790.11      0.90432981     0.055962114
      3793.90      0.89389191     0.056537421
      3797.70      0.92831279     0.056302213
      3801.50      0.90828246     0.056131577
      3805.30      0.91254653     0.055948740
      3809.10      0.91382334     0.055784743
      3812.91      0.92843161     0.054912325
      3816.73      0.94717719     0.054870103
      3820.54      0.97252738     0.054872401
      3824.36      0.96979906     0.055687530
      3828.19      0.96948204     0.055839521
      3832.02      0.94502616     0.056055777
      3835.85      0.94600116     0.055367190
      3839.68      0.90955081     0.055574077
      3843.52      0.89612434     0.055774570
      3847.37      0.90377988     0.055971188
      3851.22      0.90466703     0.056140663
      3855.07      0.91643425     0.056310935
      3858.92      0.94049780     0.057178073
      3862.78      0.96036776     0.056410963
      3866.64      0.98470375     0.056556593
      3870.51      0.99138164     0.056667138
      3874.38      0.99281412     0.056684419
      3878.26       1.0188061     0.056706851
      3882.13       1.0463472     0.056750171
      3886.02       1.0911204     0.056770108
      3889.90       1.1181222     0.055998078
      3893.79       1.1190918     0.056911725
      3897.69       1.1500252     0.057076442
      3901.59       1.1726630     0.057340500
      3905.49       1.1873683     0.057411553
      3909.39       1.1923251     0.057453181
      3913.30       1.2030308     0.057596924
      3917.22       1.2088379     0.056808763
      3921.13       1.1953071     0.056860264
      3925.06       1.2214976     0.056921315
      3928.98       1.2104111     0.057112394
      3932.91       1.2094677     0.058006583
      3936.84       1.2349869     0.058108115
      3940.78       1.2767838     0.058141571
      3944.72       1.3027601     0.058169237
      3948.67       1.3109568     0.057366304
      3952.61       1.2854077     0.057383965
      3956.57       1.2816029     0.057371382
      3960.52       1.2994157     0.057353499
      3964.48       1.3065665     0.057387538
      3968.45       1.3182096     0.057485080
      3972.42       1.3193879     0.057572769
      3976.39       1.2993465     0.058380545
      3980.37       1.2931486     0.057553216
      3984.35       1.2689906     0.057640368
      3988.33       1.2597487     0.057745303
      3992.32       1.2365157     0.057815841
      3996.31       1.2531642     0.057868229
      4000.31       1.2863712     0.057865674
      4004.31       1.2818176     0.057894159
      4008.31       1.2959040     0.057919579
      4012.32       1.2924640     0.057091179
      4016.33       1.2963904     0.057104297
      4020.35       1.3319248     0.057177885
      4024.37       1.3400918     0.057860627
      4028.40       1.3671859     0.057766811
      4032.42       1.3905595     0.057666496
      4036.46       1.3872150     0.057633082
      4040.50       1.3753936     0.057600111
      4044.54       1.3472332     0.057594121
      4048.58       1.3305351     0.057601820
      4052.63       1.3285570     0.056840839
      4056.68       1.3102720     0.056857714
      4060.74       1.3170984     0.056862207
      4064.80       1.2990163     0.056928446
      4068.86       1.2645209     0.056988083
      4072.93       1.2546420     0.057026038
      4077.01       1.2435373     0.057031236
      4081.08       1.2406838     0.057023074
      4085.17       1.2302741     0.057774341
      4089.25       1.2335170     0.057708859
      4093.34       1.2184312     0.056910134
      4097.43       1.1823863     0.056888518
      4101.53       1.1591402     0.056889404
      4105.63       1.1384834     0.056860589
      4109.74       1.1151424     0.056773751
      4113.85       1.1153072     0.056645695
      4117.96       1.1411099     0.056528671
      4122.08       1.1239789     0.056429540
      4126.20       1.1035722     0.056308130
      4130.33       1.1047949     0.056176245
      4134.46       1.1122304     0.055298399
      4138.59       1.0876958     0.055167988
      4142.73       1.0726330     0.055017444
      4146.88       1.0610544     0.054915617
      4151.02       1.0808890     0.054820388
      4155.18       1.0779151     0.054736958
      4159.33       1.0700782     0.054652232
      4163.49       1.0719588     0.055355508
      4167.65       1.0973460     0.055314092
      4171.82       1.0976050     0.055318859
      4175.99       1.1451855     0.055282478
      4180.17       1.1547272     0.055266667
      4184.35       1.1347344     0.055112699
      4188.54       1.1521270     0.054344827
      4192.72       1.1475975     0.054265757
      4196.92       1.1568321     0.054227418
      4201.11       1.1664497     0.054207337
      4205.31       1.1803998     0.054213115
      4209.52       1.1980446     0.054213586
      4213.73       1.2202412     0.054204776
      4217.94       1.2287443     0.054174585
      4222.16       1.2454597     0.054157559
      4226.38       1.2180851     0.054166667
      4230.61       1.2255625     0.054171247
      4234.84       1.2324364     0.054185524
      4239.08       1.2343332     0.054199082
      4243.32       1.2459229     0.054214567
      4247.56       1.2492864     0.054192447
      4251.81       1.2499208     0.053423902
      4256.06       1.2458854     0.053409680
      4260.32       1.2378635     0.053375717
      4264.58       1.2438232     0.053311886
      4268.84       1.2442038     0.053195874
      4273.11       1.2597846     0.053039356
      4277.38       1.2579077     0.052863148
      4281.66       1.2594253     0.052749890
      4285.94       1.2585678     0.052648255
      4290.23       1.2904912     0.052518996
      4294.52       1.3132150     0.052416054
      4298.81       1.3208068     0.052326596
      4303.11       1.3104668     0.052233286
      4307.42       1.3064584     0.052120034
      4311.72       1.3170264     0.052045210
      4316.04       1.3022220     0.052014173
      4320.35       1.3027083     0.051994189
      4324.67       1.2824666     0.052004099
      4329.00       1.2837034     0.052030557
      4333.33       1.2895178     0.051382206
      4337.66       1.3576945     0.063719615
      4342.00       1.3387375     0.063871710
      4346.34       1.3188524     0.064039403
      4350.69       1.3327183     0.064197388
      4355.04       1.2670814     0.064348604
      4359.39       1.2343683     0.064383247
      4363.75       1.2117847     0.064475038
      4368.12       1.1791951     0.064651922
      4372.48       1.1535182     0.064794945
      4376.86       1.1769888     0.064884284
      4381.23       1.1692938     0.064973022
      4385.61       1.1637275     0.065007680
      4390.00       1.1624775     0.064992713
      4394.39       1.1387194     0.065033732
      4398.79       1.1302935     0.064998833
      4403.18       1.1226053     0.064886728
      4407.59       1.1533567     0.064672151
      4412.00       1.1827381     0.063299635
      4416.41       1.2038433     0.063103195
      4420.82       1.1988165     0.062900241
      4425.25       1.2744911     0.062729727
      4429.67       1.3009647     0.062563263
      4434.10       1.3196784     0.062373790
      4438.54       1.3122540     0.062249035
      4442.97       1.3297007     0.062104045
      4447.42       1.3105330     0.061932849
      4451.86       1.3131252     0.061802616
      4456.32       1.3508058     0.061753973
      4460.77       1.3643820     0.061744199
      4465.24       1.3905558     0.061700811
      4469.70       1.4030328     0.061695128
      4474.17       1.4515818     0.061674542
      4478.65       1.4513917     0.061742392
      4483.12       1.4622008     0.061839346
      4487.61       1.5094227     0.061833365
      4492.09       1.5509322     0.061805798
      4496.59       1.5641990     0.061795559
      4501.08       1.6209525     0.061752095
      4505.58       1.6237594     0.061742696
      4510.09       1.6319547     0.061786753
      4514.60       1.6918536     0.061797801
      4519.12       1.7533957     0.060532715
      4523.63       1.8019094     0.060406656
      4528.16       1.8391841     0.060359073
      4532.69       1.8501167     0.060402580
      4537.22       1.8874434     0.060334493
      4541.76       1.9005321     0.060327571
      4546.30       1.8801942     0.060424382
      4550.85       1.8757450     0.060524885
      4555.40       1.8589295     0.060090283
      4559.95       1.8362551     0.059653447
      4564.51       1.8336474     0.059394668
      4569.08       1.8386769     0.059342812
      4573.65       1.8446255     0.059385368
      4578.22       1.7998321     0.059505752
      4582.80       1.7808367     0.060899364
      4587.38       1.7166801     0.061300283
      4591.97       1.6565823     0.061706970
      4596.56       1.6579958     0.062084290
      4601.16       1.6005898     0.062476299
      4605.76       1.5656091     0.062807776
      4610.37       1.5406676     0.062988370
      4614.98       1.5293906     0.063173222
      4619.59       1.5063061     0.063425860
      4624.21       1.5050177     0.062330339
      4628.84       1.4728253     0.062213617
      4633.47       1.4414987     0.061951944
      4638.10       1.4534081     0.061536851
      4642.74       1.4218811     0.061190857
      4647.38       1.4139037     0.060964985
      4652.03       1.3924200     0.060778810
      4656.68       1.3766955     0.060676672
      4661.34       1.3415574     0.060890458
      4666.00       1.3366627     0.061301389
      4670.67       1.3220335     0.061480635
      4675.33       1.3180927     0.061155351
      4680.01       1.3381487     0.061164170
      4684.69       1.3668659     0.061328511
      4689.38       1.3501905     0.061549613
      4694.07       1.3176122     0.060800591
      4698.76       1.2751318     0.060999762
      4703.46       1.2564320     0.061290307
      4708.16       1.2275830     0.061558083
      4712.87       1.2141959     0.061745665
      4717.58       1.1950915     0.063215319
      4722.30       1.2054606     0.063212461
      4727.03       1.1612801     0.063213787
      4731.75       1.1345148     0.063320094
      4736.48       1.1081948     0.063481364
      4741.22       1.0548009     0.063568671
      4745.96       1.0057857     0.063634436
      4750.71      0.98074674     0.063727914
      4755.46       1.0153608     0.062723450
      4760.22       1.0548884     0.062733194
      4764.97       1.0731351     0.062751648
      4769.74       1.0959241     0.062773766
      4774.51       1.0963355     0.062784563
      4779.29       1.1318589     0.062784213
      4784.07       1.1502261     0.062747030
      4788.85       1.1409786     0.062768887
      4793.64       1.1696625     0.062765272
      4798.43       1.1817331     0.062800989
      4803.23       1.2125958     0.063947902
      4808.03       1.2067072     0.062980066
      4812.84       1.2045262     0.063018690
      4817.66       1.1897771     0.063044407
      4822.48       1.1867987     0.063099714
      4827.30       1.1989137     0.063208466
      4832.12       1.2191017     0.063300039
      4836.96       1.2076501     0.063369177
      4841.79       1.2105551     0.063440087
      4846.63       1.1964074     0.063561911
      4851.48       1.1432760     0.063763266
      4856.33       1.1499897     0.062862324
      4861.19       1.1470613     0.063073476
      4866.05       1.1630557     0.064679810
      4870.92       1.2092044     0.065076879
      4875.79       1.2359623     0.065755968
      4880.66       1.2725346     0.066803855
      4885.55       1.3235877     0.067358764
      4890.43       1.3052580     0.067520303
      4895.32       1.2822472     0.067556313
      4900.22       1.2991310     0.068877253
      4905.12       1.3528399     0.070517582
      4910.02       1.3495926     0.072308111
      4914.94       1.3584477     0.074266286
      4919.85       1.4261317     0.078618546
      4924.77       1.5081025     0.080843429
      4929.70       1.5437157     0.082950163
      4934.62       1.5671830     0.084878115
      4939.56       1.5662828     0.085191226
      4944.50       1.6055988     0.085909890
      4949.44       1.6513820     0.086175791
      4954.39       1.6968491     0.086055693
      4959.35       1.6706980     0.085603874
      4964.31       1.6734344     0.084755712
      4969.27       1.6736659     0.084995985
      4974.24       1.6612077     0.081551066
      4979.22       1.6746780     0.080308925
      4984.20       1.6412136     0.079204114
      4989.18       1.6113124     0.078404061
      4994.17       1.5810474     0.078119877
      4999.16       1.5559793     0.078437283
      5004.16       1.4555737     0.079578434
      5009.17       1.4335837     0.078447140
      5014.18       1.3592331     0.078536703
      5019.19       1.3546866     0.078046397
      5024.21       1.3629160     0.077600954
      5029.23       1.3523809     0.077321154
      5034.26       1.3374292     0.077121174
      5039.30       1.2781691     0.076855964
      5044.34       1.2517291     0.075395792
      5049.39       1.2582968     0.075287692
      5054.43       1.1985545     0.074893760
      5059.49       1.1516748     0.075498418
      5064.55       1.0956795     0.075026571
      5069.61       1.0848098     0.074605037
      5074.68       1.0999432     0.072876517
      5079.76       1.0922853     0.072525264
      5084.84       1.0979381     0.072214341
      5089.92       1.0686769     0.071955252
      5095.01       1.0766274     0.072685197
      5100.11       1.0781688     0.072353637
      5105.21       1.0807027     0.072037108
      5110.31       1.0972835     0.070470910
      5115.42       1.0828057     0.070190413
      5120.54       1.1474865     0.069878689
      5125.66       1.1889314     0.069609093
      5130.79       1.2192759     0.069402383
      5135.92       1.2963156     0.069260234
      5141.05       1.3341227     0.068912120
      5146.20       1.3725221     0.068597177
      5151.34       1.4427899     0.068637777
      5156.49       1.4580467     0.069084089
      5161.65       1.4854495     0.069256429
      5166.81       1.5137131     0.067341271
      5171.98       1.5236820     0.068626333
      5177.15       1.5235392     0.069107314
      5182.33       1.5293841     0.069613805
      5187.51       1.5249947     0.070098711
      5192.70       1.5322048     0.070784943
      5197.89       1.5198192     0.070629308
      5203.09       1.5307430     0.072659879
      5208.29       1.5090077     0.073272362
      5213.50       1.4899513     0.073812187
      5218.72       1.4731997     0.074037371
      5223.93       1.3941687     0.072893902
      5229.16       1.3754686     0.072849549
      5234.39       1.3810699     0.073859884
      5239.62       1.3924495     0.073294790
      5244.86       1.4401314     0.072665284
      5250.11       1.4517311     0.070481253
      5255.36       1.4852435     0.069761059
      5260.61       1.4679249     0.069026340
      5265.87       1.4832309     0.069353714
      5271.14       1.4429179     0.068702262
      5276.41       1.4331985     0.066902635
      5281.69       1.4393441     0.066652667
      5286.97       1.4444339     0.066780132
      5292.26       1.4614824     0.066762546
      5297.55       1.4835880     0.066540517
      5302.85       1.5238716     0.064865072
      5308.15       1.5092628     0.064564663
      5313.46       1.5066723     0.064300423
      5318.77       1.5059836     0.063904050
      5324.09       1.5040487     0.062605553
      5329.42       1.4712319     0.063276207
      5334.75       1.4154175     0.062930587
      5340.08       1.4058830     0.062767263
      5345.42       1.3655995     0.062613084
      5350.77       1.3367369     0.061423430
      5356.12       1.3223398     0.062087643
      5361.48       1.2930927     0.061931527
      5366.83       1.3002598     0.061751340
      5372.20       1.2934689     0.060632062
      5377.58       1.2592756     0.060459486
      5382.95       1.2276381     0.061151738
      5388.34       1.2176630     0.060918835
      5393.72       1.1869328     0.060669901
      5399.12       1.1387620     0.059590440
      5404.52       1.1246162     0.059447522
      5409.92       1.1162841     0.060130424
      5415.33       1.1413655     0.059952675
      5420.75       1.1563406     0.058882962
      5426.17       1.1513821     0.058804465
      5431.60       1.1838179     0.058738859
      5437.03       1.1939860     0.059445071
      5442.47       1.2041866     0.058474526
      5447.91       1.2097732     0.058381158
      5453.36       1.1993645     0.058292028
      5458.81       1.2050007     0.058473886
      5464.27       1.1945870     0.058249256
      5469.73       1.1809084     0.058015402
      5475.20       1.1655298     0.058094470
      5480.68       1.1664394     0.058234182
      5486.16       1.1276270     0.058167443
      5491.65       1.1217169     0.058152843
      5497.14       1.1235631     0.058338251
      5502.64       1.1183657     0.058619088
      5508.14       1.1247060     0.058293331
      5513.65       1.1276045     0.060350122
      5519.16       1.1199479     0.060704717
      5524.68       1.1484153     0.060218780
      5530.20       1.1621643     0.059402685
      5535.73       1.1592985     0.061001201
      5541.27       1.1458441     0.061833874
      5546.81       1.1527314     0.062317744
      5552.36       1.1545319     0.062301202
      5557.91       1.1556532     0.064055765
      5563.47       1.1420780     0.064625342
      5569.04       1.1221079     0.065221720
      5574.60       1.1374884     0.064482805
      5580.18       1.1392082     0.063651103
      5585.76       1.1175503     0.064365275
      5591.35       1.0895678     0.062807978
      5596.94       1.0920107     0.062482240
      5602.53       1.0730621     0.062295068
      5608.14       1.0417787     0.062378506
      5613.75       1.0096970     0.060693415
      5619.36      0.99223990     0.060265224
      5624.98      0.94315593     0.059620466
      5630.60      0.91031992     0.058161375
      5636.23      0.90071835     0.057496070
      5641.87      0.91498667     0.056999495
      5647.51      0.92150974     0.056544435
      5653.16      0.90138717     0.056132371
      5658.82      0.89843079     0.055870895
      5664.47      0.90135217     0.054644880
      5670.14      0.89429178     0.052574489
      5675.81      0.91089946     0.051842000
      5681.48      0.90271875     0.051251983
      5687.17      0.89629581     0.050424711
      5692.85      0.91935136     0.050445233
      5698.55      0.95823930     0.050263385
      5704.25      0.96272173     0.050377533
      5709.95      0.95542458     0.050163379
      5715.66      0.94642238     0.051647500
      5721.38      0.93363084     0.051141304
      5727.10      0.93263180     0.050447989
      5732.83      0.92185887     0.050725607
      5738.56      0.91546698     0.051791879
      5744.30      0.90910944     0.051210462
      5750.04      0.86192819     0.051235711
      5755.79      0.83971377     0.052220791
      5761.55      0.83207893     0.051506559
      5767.31      0.80924340     0.051546652
      5773.08      0.78426056     0.051669912
      5778.85      0.78614401     0.052571971
      5784.63      0.75950890     0.051985867
      5790.41      0.75760271     0.052020594
      5796.21      0.74653014     0.052986999
      5802.00      0.73573692     0.052338402
      5807.81      0.74357564     0.052416022
      5813.61      0.75980068     0.052176024
      5819.43      0.79375357     0.051513856
      5825.25      0.82318189     0.051245590
      5831.07      0.85182718     0.051070643
      5836.90      0.91280070     0.050628019
      5842.74      0.93336668     0.050062316
      5848.58      0.95171466     0.049587248
      5854.43      0.95914825     0.048891916
      5860.29      0.96155071     0.048635139
      5866.15      0.98287564     0.048590731
      5872.01       1.0059673     0.047332130
      5877.89       1.0389344     0.047615071
      5883.76       1.0404869     0.047553229
      5889.65       1.0363744     0.046773260
      5895.54       1.0396921     0.047188837
      5901.43       1.0413664     0.047081209
      5907.34       1.0434967     0.046464778
      5913.24       1.0591329     0.046892544
      5919.16       1.0316963     0.046315521
      5925.08       1.0107596     0.046329754
      5931.00      0.96055084     0.046981360
      5936.93      0.95316854     0.046135200
      5942.87      0.96059817     0.045983023
      5948.81      0.93416434     0.046546785
      5954.76      0.92900712     0.045617236
      5960.72      0.91667276     0.045366488
      5966.68      0.89553305     0.045693011
      5972.64      0.88386357     0.044842235
      5978.62      0.88076807     0.044832128
      5984.60      0.86451586     0.044382892
      5990.58      0.82936378     0.043896198
      5996.57      0.82411775     0.043532977
      6002.57      0.84244212     0.043614593
      6008.57      0.84671490     0.043884697
      6014.58      0.84521132     0.044256169
      6020.60      0.87006181     0.044627635
      6026.62      0.88722079     0.044558307
      6032.65      0.88129536     0.044895608
      6038.68      0.87084452     0.045861931
      6044.72      0.87254703     0.046252640
      6050.76      0.87395080     0.046598040
      6056.81      0.86335466     0.048585239
      6062.87      0.87688580     0.049449656
      6068.93      0.86948466     0.049857540
      6075.00      0.84715186     0.052271257
      6081.08      0.82750852     0.052886432
      6087.16      0.85034104     0.053505292
      6093.25      0.86894462     0.055232708
      6099.34      0.88945843     0.054907638
      6105.44      0.89260257     0.055213450
      6111.54      0.89370021     0.055001254
      6117.66      0.89541699     0.054503176
      6123.78      0.89911247     0.054028639
      6129.90      0.92338000     0.053184380
      6136.03      0.93297973     0.052564508
      6142.17      0.93774457     0.050273236
      6148.31      0.95837345     0.049179530
      6154.46      0.97433573     0.048250499
      6160.61       1.0047272     0.046881353
      6166.77      0.99396006     0.046418030
      6172.94      0.99128953     0.044851338
      6179.11      0.99995881     0.044313256
      6185.29      0.99776802     0.043748408
      6191.48      0.99896399     0.042845065
      6197.67       1.0211382     0.042443059
      6203.87       1.0406191     0.041377730
      6210.07       1.0778172     0.041456275
      6216.28       1.1112972     0.041214713
      6222.50       1.1860751     0.040340465
      6228.72       1.2333723     0.040558345
      6234.95       1.2759595     0.040136738
      6241.19       1.3278611     0.040512336
      6247.42       1.4051482     0.039783024
      6253.67       1.4664690     0.039739488
      6259.93       1.5655281     0.040445453
      6266.19       1.6689768     0.039879502
      6272.46       1.7505848     0.040181340
      6278.73       1.8141167     0.039686692
      6285.01       1.8717529     0.039736476
      6291.29       1.9462906     0.039879855
      6297.58       1.9885889     0.039801977
      6303.88       2.0051903     0.040189718
      6310.19       2.0070030     0.039639091
      6316.50       1.9936020     0.039648758
      6322.81       1.9654565     0.040019499
      6329.14       1.9341028     0.040235824
      6335.47       1.9209679     0.041008900
      6341.80       1.8892042     0.041378284
      6348.14       1.8543053     0.041034917
      6354.49       1.7914732     0.041612135
      6360.85       1.7464648     0.041331727
      6367.21       1.7024198     0.042543152
      6373.57       1.6506582     0.042941867
      6379.95       1.5749733     0.043504406
      6386.33       1.5122118     0.043715123
      6392.72       1.4243978     0.043775303
      6399.11       1.3520947     0.045083944
      6405.51       1.3018248     0.045422798
      6411.92       1.2777805     0.046711111
      6418.32       1.2248654     0.046825115
      6424.74       1.1951822     0.047454423
      6431.17       1.1524013     0.048239786
      6437.60       1.1332054     0.048749505
      6444.04       1.1017067     0.050274629
      6450.48       1.0874678     0.050971748
      6456.94       1.0521249     0.052220522
      6463.39       1.0567967     0.051398358
      6469.85       1.0321655     0.052390267
      6476.33       1.0270424     0.051968309
      6482.80       1.0184139     0.051948890
      6489.28       1.0287855     0.051402910
      6495.77       1.0414409     0.051338685
      6502.27       1.1076777     0.051771711
      6508.77       1.0982448     0.051353044
      6515.28       1.0668920     0.049909853
      6521.80       1.0367634     0.049030000
      6528.32       1.0421419     0.048137761
      6534.85       1.0132473     0.047969470
      6541.38      0.95769032     0.046574230
      6547.92      0.93006327     0.046094245
      6554.47      0.87398838     0.044183762
      6561.03      0.82429791     0.043833919
      6567.59      0.81266967     0.042329754
      6574.16      0.78156908     0.042264053
      6580.73      0.76871144     0.041664181
      6587.31      0.72707332     0.042294271
      6593.90      0.70924088     0.041719736
      6600.50      0.72958253     0.041536274
      6607.10      0.75130962     0.041008678
      6613.70      0.75489145     0.041730974
      6620.32      0.76543551     0.041466858
      6626.94      0.76168805     0.041457026
      6633.57      0.77624333     0.041722209
      6640.20      0.78513791     0.042062910
      6646.84      0.79093606     0.042599741
      6653.49      0.79867298     0.042765201
      6660.14      0.81154488     0.043102827
      6666.80      0.83155437     0.043302009
      6673.47      0.84634918     0.043632038
      6680.14      0.84290570     0.043789498
      6686.82      0.84154373     0.044032120
      6693.51      0.84677908     0.044293666
      6700.20      0.84238269     0.046487623
      6706.90      0.81354080     0.047826062
      6713.61      0.80571914     0.050985043
      6720.32      0.81862432     0.052344832
      6727.05      0.79822717     0.055137798
      6733.77      0.81979277     0.056430935
      6740.51      0.82242058     0.059946169
      6747.25      0.82517002     0.061576779
      6754.00      0.82796154     0.067848331
      6760.75      0.74777933     0.067926234
      6767.51      0.74920507     0.067638628
      6774.28      0.69186820     0.064868660
      6781.05      0.67590031     0.064335135
      6787.84      0.65664933     0.063908736
      6794.62      0.61262709     0.061108647
      6801.42      0.59843835     0.059677923
      6808.22      0.61324429     0.057139158
      6815.03      0.61589887     0.056003390
      6821.85      0.66808075     0.055372430
      6828.67      0.67969344     0.055716870
      6835.50      0.67647586     0.055549798
      6842.33      0.63764802     0.055695751
      6849.17      0.61312871     0.056760621
      6856.02      0.62967014     0.056293117
      6862.88      0.63052640     0.056881399
      6869.74      0.60093920     0.057587811
      6876.61      0.59800436     0.057956467
      6883.49      0.61725539     0.057842740
      6890.37      0.65098301     0.056681603
      6897.27      0.64295805     0.057239694
      6904.16      0.63940600     0.056502684
      6911.07      0.63978206     0.056983762
      6917.98      0.59135138     0.055871139
      6924.89      0.56177926     0.057755270
      6931.82      0.51364185     0.058177968
      6938.75      0.51957446     0.057471692
      6945.69      0.52297006     0.057070339
      6952.64      0.50237797     0.057230112
      6959.59      0.50486357     0.059079142
      6966.55      0.48475223     0.058489926
      6973.52      0.46125697     0.058556150
      6980.49      0.47282602     0.058389653
      6987.47      0.50989770     0.057941449
      6994.46      0.51410720     0.057816823
      7001.46      0.47781378     0.057672464
      7008.46      0.48411302     0.055501771
      7015.46      0.46367350     0.055683594
      7022.48      0.44394960     0.055698240
      7029.51      0.46796279     0.055251984
      7036.53      0.53591698     0.054081170
      7043.57      0.57532329     0.053532135
      7050.62      0.60402765     0.054857064
      7057.66      0.67310617     0.054539333
      7064.72      0.73446475     0.054892733
      7071.79      0.79092132     0.053642783
      7078.86      0.85204796     0.053141487
      7085.94      0.89815463     0.053528156
      7093.03      0.93590048     0.052372320
      7100.12      0.96205169     0.052472600
      7107.22      0.99341332     0.051493869
      7114.33       1.0285235     0.050076236
      7121.44       1.0442982     0.049447026
      7128.56       1.0447764     0.047958602
      7135.69       1.0210076     0.046729697
      7142.83      0.99640611     0.045985253
      7149.97      0.95173514     0.045031563
      7157.12      0.94977981     0.043833434
      7164.28      0.96155852     0.043551383
      7171.44      0.95026057     0.042755121
      7178.62      0.93104150     0.042485151
      7185.80      0.94697354     0.041283746
      7192.98      0.97422946     0.040249221
      7200.17      0.96059954     0.040611538
      7207.38      0.96552481     0.040778641
      7214.58      0.98036048     0.040138940
      7221.80      0.99586377     0.040278958
      7229.02       1.0150644     0.040009066
      7236.25       1.0423903     0.040472731
      7243.49       1.0690436     0.041093126
      7250.73       1.0831208     0.041056713
      7257.98       1.1013592     0.041434943
      7265.24       1.1399996     0.042385794
      7272.51       1.1424711     0.041705522
      7279.78       1.1668510     0.041472204
      7287.06       1.1832757     0.041397096
      7294.35       1.2101623     0.041897847
      7301.64       1.2205970     0.043115485
      7308.94       1.2096857     0.043718877
      7316.25       1.1974515     0.044945167
      7323.57       1.1387808     0.046135581
      7330.89       1.1224203     0.046703068
      7338.22       1.1442384     0.048803176
      7345.56       1.1326794     0.049550260
      7352.91       1.1193068     0.052122885
      7360.26       1.0713473     0.053787781
      7367.62       1.0151493     0.053852422
      7374.99      0.96441066     0.055195560
      7382.37      0.89197439     0.056653770
      7389.75      0.79057542     0.056451466
      7397.14      0.70741498     0.057753419
      7404.53      0.64693977     0.058132239
      7411.94      0.61577650     0.058198501
      7419.35      0.59253718     0.059022510
      7426.77      0.56420018     0.058751844
      7434.20      0.54343272     0.060960278
      7441.63      0.52677037     0.063683924
      7449.07      0.50398779     0.063985988
      7456.52      0.56475326     0.063328559
      7463.98      0.62275448     0.062284383
      7471.45      0.66119935     0.061921161
      7478.92      0.69237465     0.061311778
      7486.40      0.75588572     0.060901710
      7493.88      0.75709654     0.059338775
      7501.38      0.76445398     0.058701369
      7508.88      0.75927559     0.056454944
      7516.39      0.78071177     0.054364685
      7523.91      0.77327921     0.053789851
      7531.43      0.73460438     0.052032471
      7538.96      0.69467966     0.050022591
      7546.50      0.69489955     0.049009838
      7554.05      0.67202248     0.048545899
      7561.60      0.64825904     0.047378584
      7569.16      0.59223445     0.046041639
      7576.73      0.56598162     0.045841119
      7584.31      0.54443427     0.045156066
      7591.89      0.52771040     0.044360227
      7599.49      0.51913697     0.044310191
      7607.09      0.50966228     0.044587415
      7614.70      0.48919247     0.044480891
      7622.31      0.51325132     0.045184913
      7629.93      0.49644039     0.046685300
      7637.56      0.48690399     0.047224740
      7645.20      0.49091354     0.047869739
      7652.85      0.52121899     0.048410152
      7660.50      0.52967206     0.049378286
      7668.16      0.55655827     0.050151631
      7675.83      0.56546355     0.051286602
      7683.50      0.56965077     0.051213068
      7691.19      0.56729582     0.050096494
      7698.88      0.59143419     0.049678543
      7706.58      0.63026948     0.048719289
      7714.29      0.69686342     0.048200155
      7722.00      0.70503289     0.048689784
      7729.73      0.75118755     0.049436872
      7737.45      0.81316133     0.050577227
      7745.19      0.87243161     0.051072029
      7752.94      0.91225368     0.052665109
      7760.69      0.90367801     0.054819920
      7768.45      0.91928277     0.057471766
      7776.22      0.95752186     0.058709910
      7784.00      0.93529594     0.060960002
      7791.78      0.90569716     0.062431476
      7799.57      0.87993728     0.063062858
      7807.37      0.86086429     0.064799519
      7815.18      0.84325881     0.066220246
      7822.99      0.82572659     0.066974129
      7830.82      0.77732912     0.066742668
      7838.65      0.71104419     0.068148135
      7846.49      0.67634649     0.068978851
      7854.34      0.63833062     0.069722357
      7862.19      0.62069604     0.070016576
      7870.05      0.60025557     0.073938560
      7877.93      0.50894198     0.075746980
      7885.80      0.48086137     0.075864683
      7893.69      0.48416219     0.074052800
      7901.58      0.53292635     0.073162348
      7909.49      0.55839072     0.072896722
      7917.40      0.59107015     0.074063852
      7925.31      0.60256793     0.073873864
      7933.24      0.62126097     0.073442574
      7941.17      0.56187882     0.070995892
      7949.11      0.57404078     0.068704293
      7957.06      0.54031209     0.068143974
      7965.02      0.47911110     0.066223325
      7972.98      0.46577130     0.064232316
      7980.96      0.45670956     0.062164786
      7988.94      0.43702628     0.059710445
      7996.93      0.42998494     0.058732106
      8004.93      0.41943487     0.056799720
      8012.93      0.41868619     0.055420049
      8020.95      0.38006259     0.053661264
      8028.97      0.35935400     0.051910728
      8036.99      0.34481627     0.050223282
      8045.03      0.31659981     0.049711810
      8053.08      0.33509454     0.048271860
      8061.13      0.34715581     0.047131576
      8069.20      0.37286438     0.046131760
      8077.26      0.38635156     0.045670361
      8085.34      0.39443126     0.044839856
      8093.43      0.39722070     0.043878030
      8101.52      0.38803482     0.043646202
      8109.62      0.38548168     0.043315793
      8117.73      0.37884003     0.043996669
      8125.85      0.39741319     0.044583879
      8133.98      0.38551450     0.044629716
      8142.11      0.38823862     0.044312229
      8150.25      0.38791379     0.044945419
      8158.41      0.39995684     0.046654543
      8166.56      0.37557783     0.048878985
      8174.73      0.39748684     0.051954748
      8182.91      0.41481934     0.055996676
      8191.09      0.40700137     0.062471531
      8199.28      0.39535750     0.071060903
      8207.48      0.37434351     0.086730013
