# starting wavelength =        3002.6800
# ending wavelength =        7438.5800
# O2 telluric scale =        0
# O2 telluric shift =        0
# H2O telluric scale =        0
# H2O telluric shift =        0
      3005.67       7.3773594     0.079218482
      3008.68       7.4636395     0.067495682
      3011.69       7.5182573     0.058365569
      3014.70       7.5499973     0.053101636
      3017.71       7.5635162     0.047106817
      3020.73       7.5623913     0.042462391
      3023.75       7.5501370     0.038854014
      3026.78       7.5289596     0.036044886
      3029.80       7.5030140     0.033898764
      3032.83       7.4793347     0.032147959
      3035.87       7.4595774     0.030590705
      3038.90       7.4453376     0.029540031
      3041.94       7.4346275     0.028664593
      3044.98       7.4066361     0.027923445
      3048.03       7.3584410     0.027287700
      3051.08       7.2944542     0.026735280
      3054.13       7.2212602     0.026240659
      3057.18       7.1673033     0.025993966
      3060.24       7.0960158     0.025747439
      3063.30       7.0167691     0.025667617
      3066.36       6.9366461     0.025591942
      3069.43       6.8570886     0.025514439
      3072.50       6.7782804     0.025436135
      3075.57       6.7008596     0.025361820
      3078.65       6.6311821     0.025280637
      3081.73       6.5804169     0.025392337
      3084.81       6.5321235     0.025318369
      3087.89       6.4883195     0.025239794
      3090.98       6.4500941     0.025325365
      3094.07       6.4194228     0.025250231
      3097.17       6.3910999     0.025172801
      3100.26       6.3732841     0.025097207
      3103.36       6.3569008     0.025020507
      3106.47       6.3389793     0.025134923
      3109.58       6.3279416     0.025058418
      3112.68       6.3089938     0.024982257
      3115.80       6.2927768     0.024905583
      3118.91       6.2749772     0.024828598
      3122.03       6.2688721     0.024917818
      3125.15       6.2638231     0.024840814
      3128.28       6.2688812     0.024762744
      3131.41       6.2797937     0.024688267
      3134.54       6.3018069     0.024612530
      3137.67       6.3276874     0.024729345
      3140.81       6.3601076     0.024655119
      3143.95       6.3914641     0.024578352
      3147.10       6.4137326     0.024501030
      3150.24       6.4163774     0.024596230
      3153.39       6.3950602     0.024516237
      3156.55       6.3688651     0.024440454
      3159.70       6.3560084     0.024368430
      3162.86       6.3496986     0.024289849
      3166.03       6.3469870     0.024215699
      3169.19       6.3354960     0.024139700
      3172.36       6.3211241     0.024233272
      3175.54       6.2995833     0.024358330
      3178.71       6.2724545     0.024283203
      3181.89       6.2469118     0.024206479
      3185.07       6.2274616     0.024132437
      3188.26       6.2160029     0.024058049
      3191.45       6.2039266     0.024150820
      3194.64       6.1915752     0.024073012
      3197.83       6.1794337     0.023995685
      3201.03       6.1715536     0.023921370
      3204.23       6.1679403     0.023845480
      3207.44       6.1660019     0.023770309
      3210.64       6.1534838     0.023868697
      3213.85       6.1477685     0.023795048
      3217.07       6.1442007     0.023721917
      3220.28       6.1559859     0.023645137
      3223.51       6.1718679     0.023572496
      3226.73       6.2001246     0.023674383
      3229.96       6.2209619     0.023801220
      3233.19       6.2492117     0.023729914
      3236.42       6.2646696     0.023653683
      3239.66       6.2631457     0.023578142
      3242.90       6.2597956     0.023509017
      3246.14       6.2548432     0.023601748
      3249.39       6.2456943     0.023528189
      3252.64       6.2348028     0.023453714
      3255.89       6.2317580     0.023375732
      3259.14       6.2208684     0.023488667
      3262.40       6.1886649     0.023416723
      3265.67       6.1444778     0.023341923
      3268.93       6.0935231     0.023266680
      3272.20       6.0303579     0.023192850
      3275.47       5.9685467     0.023298441
      3278.75       5.9137953     0.023222337
      3282.03       5.8740141     0.023147095
      3285.31       5.8325547     0.023071816
      3288.60       5.7848560     0.023188709
      3291.88       5.7319469     0.023111109
      3295.18       5.6722486     0.023036171
      3298.47       5.6109959     0.022966173
      3301.77       5.5525953     0.023077598
      3305.07       5.5060838     0.023001279
      3308.38       5.4715924     0.022930223
      3311.69       5.4456300     0.022850531
      3315.00       5.4170378     0.022974742
      3318.31       5.3793772     0.022896333
      3321.63       5.3348178     0.022820887
      3324.95       5.2929112     0.022753183
      3328.28       5.2588707     0.022870481
      3331.61       5.2344350     0.022794914
      3334.94       5.2021583     0.022717744
      3338.27       5.1693039     0.022841105
      3341.61       5.1365833     0.022767213
      3344.95       5.0954433     0.022695012
      3348.30       5.0566307     0.022620257
      3351.65       5.0338383     0.022748346
      3355.00       5.0080074     0.022674888
      3358.35       4.9953064     0.022595925
      3361.71       4.9920746     0.022730186
      3365.07       4.9751641     0.022657108
      3368.44       4.9486353     0.022580822
      3371.81       4.9206678     0.022511316
      3375.18       4.8921875     0.022639071
      3378.56       4.8788711     0.022559494
      3381.94       4.8678274     0.022488785
      3385.32       4.8619347     0.022629609
      3388.70       4.8665530     0.022555918
      3392.09       4.8549680     0.022487583
      3395.48       4.8396052     0.022619845
      3398.88       4.8275295     0.022542297
      3402.28       4.8118567     0.022468279
      3405.68       4.7958220     0.022623561
      3409.09       4.7713114     0.022549220
      3412.49       4.7574921     0.022217874
      3415.91       4.7321280     0.022366401
      3419.32       4.7123840     0.022292561
      3422.74       4.6959045     0.022219089
      3426.17       4.6915630     0.022372246
      3429.59       4.6785378     0.022296198
      3433.02       4.6793397     0.022215708
      3436.45       4.6733064     0.022378092
      3439.89       4.6655490     0.022302272
      3443.33       4.6720166     0.022226223
      3446.78       4.6927496     0.022387492
      3450.22       4.6981712     0.022302643
      3453.67       4.7109944     0.021969906
      3457.13       4.7175031     0.021899334
      3460.58       4.7071264     0.022054718
      3464.04       4.6955601     0.021981566
      3467.51       4.6793657     0.021646949
      3470.98       4.6480096     0.021574598
      3474.45       4.6188548     0.021512336
      3477.92       4.5951789     0.021656214
      3481.40       4.5752459     0.021335599
      3484.88       4.5397839     0.021254351
      3488.37       4.5210157     0.021184402
      3491.86       4.4948492     0.021124172
      3495.35       4.4610425     0.021009530
      3498.84       4.4275088     0.020940544
      3502.34       4.3946682     0.020868066
      3505.84       4.3763112     0.020803289
      3509.35       4.3471554     0.020701081
      3512.86       4.3164933     0.020625790
      3516.37       4.2929282     0.020562344
      3519.89       4.2678096     0.020249274
      3523.41       4.2508210     0.020393231
      3526.93       4.2254063     0.020321703
      3530.46       4.2056319     0.020250980
      3533.99       4.1782003     0.019945441
      3537.53       4.1416812     0.020082331
      3541.06       4.1171330     0.020013597
      3544.60       4.0946274     0.019718105
      3548.15       4.0743314     0.019641083
      3551.70       4.0545194     0.019786459
      3555.25       4.0366182     0.019488478
      3558.80       4.0043493     0.019414535
      3562.36       3.9711042     0.019346749
      3565.92       3.9469372     0.019483836
      3569.49       3.9306766     0.019194060
      3573.06       3.9162674     0.019118091
      3576.64       3.8910021     0.019052627
      3580.21       3.8795518     0.018971064
      3583.79       3.8791190     0.018897134
      3587.38       3.8724024     0.018832115
      3590.96       3.8669398     0.018752486
      3594.55       3.8614007     0.018681575
      3598.15       3.8539993     0.018608111
      3601.75       3.8431812     0.018338135
      3605.35       3.8247487     0.018460554
      3608.96       3.8153726     0.018387611
      3612.56       3.8060819     0.018118626
      3616.18       3.7966941     0.018240099
      3619.79       3.7930601     0.018172828
      3623.41       3.7826076     0.017908554
      3627.04       3.7714651     0.017848776
      3630.66       3.7677358     0.017962001
      3634.29       3.7724049     0.017697672
      3637.93       3.7720895     0.017641588
      3641.57       3.7843692     0.017548954
      3645.21       3.7833392     0.017486756
      3648.86       3.7864398     0.017429395
      3652.50       3.7923926     0.017338920
      3656.16       3.7887760     0.017276361
      3659.81       3.7821710     0.017222201
      3663.47       3.7940925     0.017134422
      3667.14       3.7869017     0.017074859
      3670.80       3.7811540     0.016821911
      3674.48       3.7701620     0.016930342
      3678.15       3.7681550     0.016872423
      3681.83       3.7565441     0.016619570
      3685.51       3.7431136     0.016726905
      3689.20       3.7268038     0.016670405
      3692.88       3.7007605     0.016418239
      3696.58       3.6820119     0.016526157
      3700.27       3.6585402     0.016282771
      3703.98       3.6405135     0.016223204
      3707.68       3.6264896     0.016331254
      3711.39       3.6175499     0.016086645
      3715.10       3.5937707     0.016189722
      3718.81       3.5798899     0.015952946
      3722.53       3.5703471     0.015892960
      3726.26       3.5578159     0.015823180
      3729.98       3.5480233     0.015758969
      3733.71       3.5349811     0.015701887
      3737.45       3.5261578     0.015629721
      3741.18       3.5186904     0.015568396
      3744.93       3.5081796     0.015501024
      3748.67       3.4940600     0.015438455
      3752.42       3.4810181     0.015380193
      3756.17       3.4734048     0.015308433
      3759.93       3.4643077     0.015249660
      3763.69       3.4494863     0.015031007
      3767.45       3.4416034     0.015119267
      3771.22       3.4304832     0.014899622
      3774.99       3.4332399     0.014991974
      3778.77       3.4320097     0.014773623
      3782.54       3.4242925     0.014725689
      3786.33       3.4059021     0.014648763
      3790.11       3.3999871     0.014597371
      3793.90       3.3985935     0.014683791
      3797.70       3.3886682     0.014471044
      3801.50       3.3753677     0.014425230
      3805.30       3.3587025     0.014345448
      3809.10       3.3490953     0.014299515
      3812.91       3.3314650     0.014220410
      3816.73       3.3173039     0.014172811
      3820.54       3.3004982     0.014100914
      3824.36       3.2978206     0.014051049
      3828.19       3.2958610     0.013849381
      3832.02       3.2901651     0.013929705
      3835.85       3.2731220     0.013731409
      3839.68       3.2703144     0.013809337
      3843.52       3.2703753     0.013613245
      3847.37       3.2699720     0.013690729
      3851.22       3.2630696     0.013494194
      3855.07       3.2621600     0.013574656
      3858.92       3.2588146     0.013377325
      3862.78       3.2527697     0.013328605
      3866.64       3.2500877     0.013261917
      3870.51       3.2444227     0.013212632
      3874.38       3.2333201     0.013148135
      3878.26       3.2255142     0.013097152
      3882.13       3.2176522     0.013035389
      3886.02       3.2150236     0.012984285
      3889.90       3.2179774     0.012924414
      3893.79       3.2096115     0.012871777
      3897.69       3.2114706     0.012815225
      3901.59       3.2045992     0.012760989
      3905.49       3.1946712     0.012704840
      3909.39       3.1812756     0.012651478
      3913.30       3.1780336     0.012593864
      3917.22       3.1711852     0.012542123
      3921.13       3.1740747     0.012482019
      3925.06       3.1754439     0.012303450
      3928.98       3.1875830     0.012371998
      3932.91       3.1862673     0.012199062
      3936.84       3.1892808     0.012265415
      3940.78       3.1907481     0.012096032
      3944.72       3.1906816     0.012158834
      3948.67       3.1886020     0.011990253
      3952.61       3.1892708     0.012053417
      3956.57       3.2032135     0.011886505
      3960.52       3.2213959     0.011824747
      3964.48       3.2265264     0.011782750
      3968.45       3.2306382     0.011721485
      3972.42       3.2299576     0.011680307
      3976.39       3.2304427     0.011621707
      3980.37       3.2304754     0.011581997
      3984.35       3.2242047     0.011523848
      3988.33       3.2173706     0.011358512
      3992.32       3.2054611     0.011423269
      3996.31       3.1960051     0.011259651
      4000.31       3.1755788     0.011324838
      4004.31       3.1583859     0.011264932
      4008.31       3.1256896     0.011108824
      4012.32       3.0923867     0.011168973
      4016.33       3.0477534     0.011010764
      4020.35       3.0063133     0.011073173
      4024.37       2.9674849     0.010914160
      4028.40       2.9261113     0.010864834
      4032.42       2.8884260     0.010819767
      4036.46       2.8410591     0.010767908
      4040.50       2.7981659     0.010719005
      4044.54       2.7558946     0.010675496
      4048.58       2.7114170     0.010623855
      4052.63       2.6740080     0.010581938
      4056.68       2.6349210     0.010530984
      4060.74       2.5937766     0.010386969
      4064.80       2.5499121     0.010439294
      4068.86       2.5097534     0.010389831
      4072.93       2.4732645     0.010246302
      4077.01       2.4341776     0.010297724
      4081.08       2.3970435     0.010157175
      4085.17       2.3614622     0.010106496
      4089.25       2.3303030     0.010159517
      4093.34       2.3107176     0.010020631
      4097.43       2.2945352     0.010072847
      4101.53       2.2787218    0.0099368714
      4105.63       2.2706322    0.0098847236
      4109.74       2.2623480    0.0099358480
      4113.85       2.2618705    0.0098029523
      4117.96       2.2631796    0.0097519370
      4122.08       2.2702999    0.0097209417
      4126.20       2.2742624    0.0096690970
      4130.33       2.2786716    0.0096210422
      4134.46       2.2857217    0.0095889402
      4138.59       2.2901824    0.0095399343
      4142.73       2.2932282    0.0094929275
      4146.88       2.3035610    0.0093638864
      4151.02       2.3087167    0.0094117239
      4155.18       2.3146211    0.0093655645
      4159.33       2.3246798    0.0092385363
      4163.49       2.3310076    0.0092862411
      4167.65       2.3499332    0.0091586888
      4171.82       2.3674988    0.0091149840
      4175.99       2.3820101    0.0091620411
      4180.17       2.3954318    0.0090370513
      4184.35       2.4152617    0.0089930758
      4188.54       2.4285586    0.0089521817
      4192.72       2.4462188    0.0089159626
      4196.92       2.4655556    0.0088746525
      4201.11       2.4882011    0.0088329185
      4205.31       2.4951770    0.0087157790
      4209.52       2.5028500    0.0087578521
      4213.73       2.5167262    0.0087168898
      4217.94       2.5206067    0.0086005180
      4222.16       2.5239312    0.0086413430
      4226.38       2.5234463    0.0086017736
      4230.61       2.5193363    0.0085619603
      4234.84       2.5131389    0.0084462098
      4239.08       2.5065865    0.0084867290
      4243.32       2.4926383    0.0084484419
      4247.56       2.4816403    0.0083360613
      4251.81       2.4635327    0.0082978219
      4256.06       2.4449571    0.0083378867
      4260.32       2.4299666    0.0082311732
      4264.58       2.4123150    0.0081892363
      4268.84       2.3888638    0.0081517744
      4273.11       2.3766910    0.0081916618
      4277.38       2.3664101    0.0080862233
      4281.66       2.3559120    0.0080452781
      4285.94       2.3445653    0.0080082396
      4290.23       2.3368923    0.0079018597
      4294.52       2.3328610    0.0079452061
      4298.81       2.3241857    0.0079057753
      4303.11       2.3170412    0.0078694507
      4307.42       2.3140541    0.0077646983
      4311.72       2.3125281    0.0077316638
      4316.04       2.3084513    0.0077694832
      4320.35       2.3023675    0.0077338891
      4324.67       2.3010585    0.0076314739
      4329.00       2.3003399    0.0075982676
      4333.33       2.2995612    0.0075624448
      4337.66       2.2974986    0.0076017154
      4342.00       2.2988441    0.0075009165
      4346.34       2.2955730    0.0074681431
      4350.69       2.2908771    0.0074331256
      4355.04       2.2898453    0.0074028364
      4359.39       2.2842223    0.0073064158
      4363.75       2.2837313    0.0073427307
      4368.12       2.2877117    0.0073085714
      4372.48       2.2864265    0.0072776352
      4376.86       2.2834773    0.0072443539
      4381.23       2.2843761    0.0071531491
      4385.61       2.2842660    0.0071201590
      4390.00       2.2776224    0.0071558881
      4394.39       2.2721862    0.0071228597
      4398.79       2.2655831    0.0070938403
      4403.18       2.2542810    0.0070032277
      4407.59       2.2470000    0.0069732388
      4412.00       2.2329485    0.0069418850
      4416.41       2.2159520    0.0069124436
      4420.82       2.1993874    0.0069458666
      4425.25       2.1837172    0.0068618691
      4429.67       2.1596557    0.0068306427
      4434.10       2.1305643    0.0068012205
      4438.54       2.1033903    0.0067707878
      4442.97       2.0812809    0.0067428597
      4447.42       2.0660332    0.0066582448
      4451.86       2.0532438    0.0066307450
      4456.32       2.0366697    0.0066655377
      4460.77       2.0251193    0.0066373109
      4465.24       2.0183686    0.0066081837
      4469.70       2.0129770    0.0065814544
      4474.17       2.0033876    0.0065534776
      4478.65       1.9994671    0.0064731682
      4483.12       1.9937287    0.0064458955
      4487.61       1.9889278    0.0064196256
      4492.09       1.9777967    0.0063935467
      4496.59       1.9660801    0.0063685271
      4501.08       1.9516025    0.0063435861
      4505.58       1.9432426    0.0063216295
      4510.09       1.9292540    0.0062961006
      4514.60       1.9096519    0.0062712786
      4519.12       1.8937156    0.0062467395
      4523.63       1.8815761    0.0062220170
      4528.16       1.8724913    0.0061978917
      4532.69       1.8639717    0.0061733297
      4537.22       1.8587956    0.0061501506
      4541.76       1.8516799    0.0060774266
      4546.30       1.8439751    0.0060531347
      4550.85       1.8404968    0.0060295247
      4555.40       1.8407134    0.0060060123
      4559.95       1.8376964    0.0059834042
      4564.51       1.8354835    0.0059605406
      4569.08       1.8317812    0.0059386755
      4573.65       1.8252036    0.0059160552
      4578.22       1.8134767    0.0058942967
      4582.80       1.8056879    0.0058724732
      4587.38       1.8014793    0.0058514423
      4591.97       1.7947346    0.0058363607
      4596.56       1.7871569    0.0058151408
      4601.16       1.7829103    0.0057935208
      4605.76       1.7788007    0.0057729638
      4610.37       1.7738649    0.0057519833
      4614.98       1.7650965    0.0057320872
      4619.59       1.7582609    0.0057113322
      4624.21       1.7542442    0.0056915340
      4628.84       1.7494832    0.0056715626
      4633.47       1.7437475    0.0056525530
      4638.10       1.7377632    0.0056326132
      4642.74       1.7292238    0.0056130082
      4647.38       1.7183494    0.0055938500
      4652.03       1.7070790    0.0055750422
      4656.68       1.6938839    0.0055093071
      4661.34       1.6837580    0.0054907637
      4666.00       1.6728745    0.0054731418
      4670.67       1.6627841    0.0054552591
      4675.33       1.6543110    0.0053944502
      4680.01       1.6466718    0.0054210902
      4684.69       1.6436398    0.0053595350
      4689.38       1.6423958    0.0053426695
      4694.07       1.6339943    0.0053259997
      4698.76       1.6281282    0.0053097550
      4703.46       1.6196123    0.0052931630
      4708.16       1.6221504    0.0052779547
      4712.87       1.6261910    0.0052612612
      4717.58       1.6263799    0.0052466434
      4722.30       1.6288065    0.0052308071
      4727.03       1.6269273    0.0052172881
      4731.75       1.6243551    0.0052019448
      4736.48       1.6207092    0.0051885002
      4741.22       1.6156495    0.0051735408
      4745.96       1.6103074    0.0051606393
      4750.71       1.6005034    0.0051042449
      4755.46       1.5900400    0.0050938672
      4760.22       1.5859285    0.0051259285
      4764.97       1.5747577    0.0051158966
      4769.74       1.5654190    0.0051082770
      4774.51       1.5581029    0.0050996191
      4779.29       1.5501174    0.0050912771
      4784.07       1.5411103    0.0050799866
      4788.85       1.5347263    0.0050694152
      4793.64       1.5263708    0.0050571509
      4798.43       1.5219351    0.0050444832
      4803.23       1.5155270    0.0049889189
      4808.03       1.5071518    0.0049749672
      4812.84       1.5050042    0.0049623530
      4817.66       1.4981853    0.0049491538
      4822.48       1.4910447    0.0049376452
      4827.30       1.4842890    0.0049236729
      4832.12       1.4807040    0.0049117016
      4836.96       1.4775264    0.0048575811
      4841.79       1.4726224    0.0048442393
      4846.63       1.4665434    0.0048691705
      4851.48       1.4636246    0.0048546542
      4856.33       1.4541371    0.0048409123
      4861.19       1.4516488    0.0048273674
      4866.05       1.4511331    0.0048165344
      4870.92       1.4461442    0.0047648841
      4875.79       1.4405140    0.0047535769
      4880.66       1.4315654    0.0047421701
      4885.55       1.4251801    0.0047322802
      4890.43       1.4208243    0.0047228483
      4895.32       1.4169390    0.0047139738
      4900.22       1.4092453    0.0047019736
      4905.12       1.4035559    0.0046932379
      4910.02       1.3979553    0.0046853348
      4914.94       1.3914350    0.0046767305
      4919.85       1.3885516    0.0046694907
      4924.77       1.3810031    0.0046235664
      4929.70       1.3771402    0.0046157529
      4934.62       1.3711585    0.0046082816
      4939.56       1.3580464    0.0046370385
      4944.50       1.3478317    0.0046307662
      4949.44       1.3394585    0.0045871143
      4954.39       1.3319346    0.0045799345
      4959.35       1.3219737    0.0045726602
      4964.31       1.3138674    0.0045663765
      4969.27       1.3055823    0.0045961689
      4974.24       1.2983199    0.0045541907
      4979.22       1.2930283    0.0045478319
      4984.20       1.2819678    0.0045415654
      4989.18       1.2681532    0.0045361814
      4994.17       1.2535825    0.0044963013
      4999.16       1.2418606    0.0045259081
      5004.16       1.2344473    0.0045203901
      5009.17       1.2237637    0.0045148475
      5014.18       1.2144544    0.0044751550
      5019.19       1.2042063    0.0044711289
      5024.21       1.1996283    0.0045015493
      5029.23       1.1914144    0.0044964062
      5034.26       1.1798808    0.0044584101
      5039.30       1.1714963    0.0044556284
      5044.34       1.1681444    0.0044550557
      5049.39       1.1637882    0.0044854863
      5054.43       1.1569443    0.0044474646
      5059.49       1.1535279    0.0044459367
      5064.55       1.1482154    0.0044478005
      5069.61       1.1438684    0.0044189780
      5074.68       1.1367347    0.0044591855
      5079.76       1.1219436    0.0044664359
      5084.84       1.1143942    0.0044737083
      5089.92       1.1072889    0.0044477424
      5095.01       1.1004658    0.0044879230
      5100.11       1.0923706    0.0044902007
      5105.21       1.0839144    0.0044546971
      5110.31       1.0792927    0.0044493714
      5115.42       1.0809272    0.0044771050
      5120.54       1.0784021    0.0044327081
      5125.66       1.0740188    0.0044222188
      5130.79       1.0643019    0.0044131424
      5135.92       1.0545601    0.0044078219
      5141.05       1.0476829    0.0044031027
      5146.20       1.0397048    0.0043972538
      5151.34       1.0331963    0.0043594171
      5156.49       1.0266028    0.0043886993
      5161.65       1.0215110    0.0043845551
      5166.81       1.0200339    0.0043498472
      5171.98       1.0150456    0.0043801251
      5177.15       1.0108543    0.0043780991
      5182.33       1.0070557    0.0043444905
      5187.51       1.0043800    0.0043439509
      5192.70       1.0035394    0.0043761556
      5197.89       1.0066533    0.0043437798
      5203.09       1.0101698    0.0043455235
      5208.29       1.0164612    0.0043467422
      5213.50       1.0244070    0.0043473041
      5218.72       1.0219817    0.0043498121
      5223.93       1.0179185    0.0043536549
      5229.16       1.0126553    0.0043582765
      5234.39       1.0085147    0.0043321903
      5239.62       1.0027164    0.0043699343
      5244.86      0.99950890    0.0043744853
      5250.11      0.99628143    0.0043469773
      5255.36      0.98793675    0.0043852350
      5260.61      0.98352627    0.0043572239
      5265.87      0.97939253    0.0043589533
      5271.14      0.97551369    0.0043947186
      5276.41      0.97386309    0.0043631181
      5281.69      0.96769648    0.0043635827
      5286.97      0.96492243    0.0043667451
      5292.26      0.96477479    0.0043674311
      5297.55      0.96321367    0.0043393132
      5302.85      0.95957259    0.0043742269
      5308.15      0.95864418    0.0043763234
      5313.46      0.96044480    0.0043806945
      5318.77      0.95676103    0.0043809301
      5324.09      0.95470729    0.0043517104
      5329.42      0.95178688    0.0043858568
      5334.75      0.95351326    0.0043578057
      5340.08      0.95260187    0.0043603539
      5345.42      0.95400548    0.0043627159
      5350.77      0.95272389    0.0043651132
      5356.12      0.94878883    0.0043695315
      5361.48      0.94795115    0.0043732481
      5366.83      0.94548583    0.0044099503
      5372.20      0.94657778    0.0043828206
      5377.58      0.94256305    0.0043879528
      5382.95      0.93551130    0.0043941545
      5388.34      0.92893953    0.0043991382
      5393.72      0.92510668    0.0044054516
      5399.12      0.92100819    0.0044103155
      5404.52      0.91691500    0.0043840022
      5409.92      0.91422729    0.0044229796
      5415.33      0.91352633    0.0043968750
      5420.75      0.91021998    0.0044356919
      5426.17      0.90537841    0.0044098530
      5431.60      0.90092272    0.0044189930
      5437.03      0.89971195    0.0044230169
      5442.47      0.89303292    0.0044324637
      5447.91      0.88983287    0.0044368597
      5453.36      0.88502070    0.0044470076
      5458.81      0.87992247    0.0044514954
      5464.27      0.87666438    0.0044612912
      5469.73      0.87085165    0.0044662656
      5475.20      0.86790401    0.0044429128
      5480.68      0.86339284    0.0044810995
      5486.16      0.86287955    0.0044579694
      5491.65      0.86451825    0.0044965683
      5497.14      0.86581927    0.0044740427
      5502.64      0.86667585    0.0044831129
      5508.14      0.86907825    0.0044905610
      5513.65      0.87249772    0.0045082928
      5519.16      0.87328080    0.0045300519
      5524.68      0.87316846    0.0045488110
      5530.20      0.87217864    0.0045173191
      5535.73      0.86853035    0.0045659204
      5541.27      0.86259270    0.0045693706
      5546.81      0.86051918    0.0046483342
      5552.36      0.85796254    0.0047220950
      5557.91      0.85393637    0.0047876862
      5563.47      0.84711088    0.0048830513
      5569.04      0.84056476    0.0049314202
      5574.60      0.83147607    0.0050387733
      5580.18      0.82549302    0.0050545550
      5585.76      0.81879342    0.0050878438
      5591.35      0.81354566    0.0050895492
      5596.94      0.81157473    0.0050656335
      5602.53      0.80420870    0.0050312557
      5608.14      0.80009402    0.0049768142
      5613.75      0.79982549    0.0049243647
      5619.36      0.79707246    0.0048949806
      5624.98      0.79304230    0.0048803868
      5630.60      0.79197644    0.0048278750
      5636.23      0.78821433    0.0048331311
      5641.87      0.77929819    0.0048198446
      5647.51      0.77910452    0.0047805109
      5653.16      0.78166572    0.0048088743
      5658.82      0.78175074    0.0047744738
      5664.47      0.78412955    0.0047761053
      5670.14      0.78110367    0.0047815672
      5675.81      0.78066359    0.0047897523
      5681.48      0.77828659    0.0048009656
      5687.17      0.77637070    0.0048103046
      5692.85      0.77550775    0.0048193047
      5698.55      0.77570514    0.0048276258
      5704.25      0.77763581    0.0048326866
      5709.95      0.77574908    0.0048369964
      5715.66      0.77560944    0.0048092289
      5721.38      0.77768789    0.0048182360
      5727.10      0.77679296    0.0048579329
      5732.83      0.77319547    0.0048310716
      5738.56      0.77142807    0.0048403634
      5744.30      0.76614708    0.0048507420
      5750.04      0.76415076    0.0048566675
      5755.79      0.76369980    0.0048701657
      5761.55      0.76294249    0.0048872276
      5767.31      0.76170443    0.0048995578
      5773.08      0.76061857    0.0049186025
      5778.85      0.75822089    0.0049400708
      5784.63      0.75705900    0.0049312078
      5790.41      0.74851455    0.0049931217
      5796.21      0.74326162    0.0050397454
      5802.00      0.73958354    0.0050587652
      5807.81      0.73791274    0.0051314734
      5813.61      0.73594552    0.0052079281
      5819.43      0.73140546    0.0052595234
      5825.25      0.72920770    0.0053152831
      5831.07      0.72667754    0.0053571022
      5836.90      0.72155202    0.0053865622
      5842.74      0.71334059    0.0054008726
      5848.58      0.71039510    0.0054092930
      5854.43      0.70143165    0.0054102456
      5860.29      0.70063937    0.0053733219
      5866.15      0.69808722    0.0053799334
      5872.01      0.69950113    0.0054301859
      5877.89      0.70016207    0.0054508365
      5883.76      0.70102905    0.0054325773
      5889.65      0.69901680    0.0054498717
      5895.54      0.69562657    0.0054589279
      5901.43      0.69471111    0.0054572887
      5907.34      0.69441985    0.0054467859
      5913.24      0.69430600    0.0054352462
      5919.16      0.70117490    0.0054275106
      5925.08      0.69935044    0.0054198318
      5931.00      0.69788178    0.0053715043
      5936.93      0.69798684    0.0053547967
      5942.87      0.69922363    0.0053736686
      5948.81      0.70192326    0.0053594598
      5954.76      0.70290245    0.0053505779
      5960.72      0.70265466    0.0053106166
      5966.68      0.69886880    0.0053058072
      5972.64      0.70277587    0.0053068121
      5978.62      0.70187169    0.0053106428
      5984.60      0.70165207    0.0053496199
      5990.58      0.70256871    0.0053195491
      5996.57      0.70160718    0.0053239139
      6002.57      0.70201051    0.0053284830
      6008.57      0.69789931    0.0053349917
      6014.58      0.69869475    0.0053431576
      6020.60      0.69658894    0.0053158379
      6026.62      0.69644661    0.0053260383
      6032.65      0.69590193    0.0053375529
      6038.68      0.68750745    0.0053487260
      6044.72      0.68511875    0.0053608844
      6050.76      0.68274875    0.0054061451
      6056.81      0.68152663    0.0054192546
      6062.87      0.68156188    0.0053946218
      6068.93      0.67579469    0.0054081490
      6075.00      0.67047485    0.0054225350
      6081.08      0.66644871    0.0054363021
      6087.16      0.66106448    0.0054507701
      6093.25      0.65711996    0.0054697742
      6099.34      0.65720771    0.0055095364
      6105.44      0.65621409    0.0055487784
      6111.54      0.65480035    0.0056198137
      6117.66      0.65443999    0.0056318539
      6123.78      0.64876432    0.0056340384
      6129.90      0.64844330    0.0057230814
      6136.03      0.64448605    0.0058947552
      6142.17      0.64167639    0.0061499305
      6148.31      0.63360308    0.0064904988
      6154.46      0.62706743    0.0069041957
      6160.61      0.62151026    0.0073659190
      6166.77      0.61723164    0.0077319837
      6172.94      0.60893853    0.0081562040
      6179.11      0.60278530    0.0084653904
      6185.29      0.59496905    0.0085891435
      6191.48      0.59298484    0.0084991158
      6197.67      0.59080081    0.0082239646
      6203.87      0.59156773    0.0078363797
      6210.07      0.60305838    0.0074081745
      6216.28      0.60469790    0.0070066257
      6222.50      0.60690310    0.0066903633
      6228.72      0.61058375    0.0064513234
      6234.95      0.61081129    0.0062429429
      6241.19      0.61108847    0.0060892204
      6247.42      0.60820534    0.0060086920
      6253.67      0.60458055    0.0059570071
      6259.93      0.60081374    0.0059097387
      6266.19      0.59727781    0.0058725921
      6272.46      0.59531499    0.0058480532
      6278.73      0.59166793    0.0058357810
      6285.01      0.58643150    0.0058322798
      6291.29      0.58558190    0.0058010877
      6297.58      0.58083460    0.0058081779
      6303.88      0.57919756    0.0058175961
      6310.19      0.57755251    0.0058280380
      6316.50      0.57857810    0.0058401090
      6322.81      0.58016454    0.0058526932
      6329.14      0.58542043    0.0058650915
      6335.47      0.58367017    0.0058779510
      6341.80      0.58485769    0.0058905851
      6348.14      0.58322685    0.0059037591
      6354.49      0.58560215    0.0058817148
      6360.85      0.58245536    0.0058956350
      6367.21      0.58093167    0.0059101048
      6373.57      0.58274850    0.0059249875
      6379.95      0.58181916    0.0059411596
      6386.33      0.58098583    0.0059582533
      6392.72      0.58090153    0.0059761144
      6399.11      0.58056070    0.0059589596
      6405.51      0.58046061    0.0059731815
      6411.92      0.57949667    0.0059859280
      6418.32      0.57589880    0.0060360649
      6424.74      0.57347642    0.0060468156
      6431.17      0.57221166    0.0060576653
      6437.60      0.57388431    0.0060337435
      6444.04      0.57139133    0.0060435990
      6450.48      0.57398889    0.0060542550
      6456.94      0.57336713    0.0060657998
      6463.39      0.57270610    0.0060786834
      6469.85      0.57309359    0.0060907249
      6476.33      0.57455172    0.0060675565
      6482.80      0.57309690    0.0061180622
      6489.28      0.57324434    0.0061295583
      6495.77      0.57855119    0.0061390434
      6502.27      0.58236068    0.0061124751
      6508.77      0.58081452    0.0061210530
      6515.28      0.57925171    0.0061301472
      6521.80      0.57842667    0.0061389190
      6528.32      0.57723806    0.0061859051
      6534.85      0.58026074    0.0061620963
      6541.38      0.57688785    0.0061747186
      6547.92      0.56998132    0.0061899090
      6554.47      0.56547431    0.0062106466
      6561.03      0.56204236    0.0062056327
      6567.59      0.55587000    0.0062774912
      6574.16      0.55268813    0.0063176736
      6580.73      0.54541252    0.0063689999
      6587.31      0.53941792    0.0063987321
      6593.90      0.53200478    0.0064629992
      6600.50      0.52667828    0.0065330588
      6607.10      0.52602221    0.0066278273
      6613.70      0.52232454    0.0066909100
      6620.32      0.52969103    0.0067249991
      6626.94      0.53060395    0.0067414588
      6633.57      0.52761317    0.0067138803
      6640.20      0.52741522    0.0067629157
      6646.84      0.52465367    0.0067641043
      6653.49      0.52450497    0.0067186717
      6660.14      0.52665300    0.0067074924
      6666.80      0.52266540    0.0067342897
      6673.47      0.51629035    0.0066820132
      6680.14      0.50916068    0.0066762039
      6686.82      0.50516053    0.0066713422
      6693.51      0.49467005    0.0066611576
      6700.20      0.48847967    0.0066487737
      6706.90      0.48254130    0.0066338071
      6713.61      0.47932360    0.0065798060
      6720.32      0.47198983    0.0065991039
      6727.05      0.47058724    0.0065916249
      6733.77      0.46755861    0.0065559175
      6740.51      0.46493919    0.0065926308
      6747.25      0.46375797    0.0065261093
      6754.00      0.46411522    0.0064980854
      6760.75      0.46615856    0.0064753727
      6767.51      0.46553251    0.0064492114
      6774.28      0.46596431    0.0064319468
      6781.05      0.46596714    0.0063795733
      6787.84      0.46268158    0.0063985398
      6794.62      0.46026426    0.0063838496
      6801.42      0.45347006    0.0063348879
      6808.22      0.45233109    0.0063624825
      6815.03      0.45002112    0.0063210792
      6821.85      0.44493651    0.0063138301
      6828.67      0.44647086    0.0063448046
      6835.50      0.44218343    0.0063045621
      6842.33      0.43935229    0.0063013984
      6849.17      0.43770372    0.0063006087
      6856.02      0.43576198    0.0062987901
      6862.88      0.43154735    0.0062635187
      6869.74      0.43057336    0.0062988070
      6876.61      0.43032286    0.0062638562
      6883.49      0.43547565    0.0063010066
      6890.37      0.43437284    0.0063011557
      6897.27      0.43064451    0.0062674323
      6904.16      0.42738438    0.0063031753
      6911.07      0.42283096    0.0062676633
      6917.98      0.42242096    0.0062670214
      6924.89      0.42269135    0.0062645932
      6931.82      0.42576587    0.0062628653
      6938.75      0.42797930    0.0062595027
      6945.69      0.42466552    0.0062564666
      6952.64      0.42035965    0.0062532272
      6959.59      0.41923824    0.0062506485
      6966.55      0.41866909    0.0062122429
      6973.52      0.42136883    0.0062436210
      6980.49      0.42253257    0.0062042568
      6987.47      0.42099680    0.0062365037
      6994.46      0.41531093    0.0061989941
      7001.46      0.41444240    0.0061629956
      7008.46      0.41545568    0.0061261033
      7015.46      0.41386329    0.0060256387
      7022.48      0.41124776    0.0059905233
      7029.51      0.40526897    0.0059555245
      7036.53      0.39982126    0.0058901175
      7043.57      0.39738122    0.0058267243
      7050.62      0.39933910    0.0057924190
      7057.66      0.39434023    0.0057590247
      7064.72      0.39217845    0.0056977481
      7071.79      0.39099832    0.0056384800
      7078.86      0.39050586    0.0056054227
      7085.94      0.38316300    0.0055478111
      7093.03      0.37615850    0.0055163923
      7100.12      0.37229878    0.0054859035
      7107.22      0.36897529    0.0054083339
      7114.33      0.36616763    0.0053785321
      7121.44      0.36030847    0.0053492641
      7128.56      0.36024899    0.0052966823
      7135.69      0.36068736    0.0052467926
      7142.83      0.36423805    0.0051968491
      7149.97      0.36197074    0.0051699914
      7157.12      0.36043751    0.0051440395
      7164.28      0.35899743    0.0050993184
      7171.44      0.35951348    0.0050586369
      7178.62      0.36022850    0.0050168600
      7185.80      0.35917387    0.0049941666
      7192.98      0.35573109    0.0049579559
      7200.17      0.35322206    0.0049383950
      7207.38      0.35194044    0.0049033401
      7214.58      0.34945084    0.0048746496
      7221.80      0.34674120    0.0048670867
      7229.02      0.33993104    0.0048524964
      7236.25      0.33710104    0.0048599948
      7243.49      0.33342895    0.0048631538
      7250.73      0.32947780    0.0048602717
      7257.98      0.32710754    0.0048589997
      7265.24      0.32643451    0.0048655668
      7272.51      0.32113008    0.0048512183
      7279.78      0.31465119    0.0048468493
      7287.06      0.31227067    0.0048102642
      7294.35      0.30885494    0.0048034139
      7301.64      0.30547399    0.0047748720
      7308.94      0.30136721    0.0047591243
      7316.25      0.29728033    0.0047552518
      7323.57      0.29381855    0.0048205804
      7330.89      0.28970756    0.0048872617
      7338.22      0.28853738    0.0049780390
      7345.56      0.29012448    0.0050853858
      7352.91      0.28944954    0.0052174471
      7360.26      0.28793256    0.0053811693
      7367.62      0.28637093    0.0055927844
      7374.99      0.28000931    0.0058702376
      7382.37      0.27825875    0.0062329179
      7389.75      0.27734042    0.0066631747
      7397.14      0.27540733    0.0072954184
      7404.53      0.27330008    0.0081204582
      7411.94      0.26935709    0.0092016556
      7419.35      0.26492914     0.010592638
      7426.77      0.26188348     0.012356575
      7434.20      0.25903236     0.014619285
