# starting wavelength =        4987.6962
# ending wavelength =        7808.7803
# O2 telluric scale =        0
# O2 telluric shift =        0
# H2O telluric scale =        0
# H2O telluric shift =        0
      4989.18       1.3115103      0.12199845
      4994.17       1.2244312      0.11822074
      4999.16       1.1555841      0.11440020
      5004.16       1.0733925      0.10908932
      5009.17       1.0074106      0.10518144
      5014.18      0.98289337      0.10137014
      5019.19      0.99358069     0.097405789
      5024.21       1.0250975     0.092018992
      5029.23       1.0125257     0.088030582
      5034.26      0.94947409     0.084092975
      5039.30      0.85287537     0.078742929
      5044.34      0.74939355     0.074748457
      5049.39      0.66279572     0.070775323
      5054.43      0.65383580     0.065518440
      5059.49      0.72543615     0.061571876
      5064.55      0.82313515     0.056596301
      5069.61      0.85696206     0.052742760
      5074.68      0.89595173     0.048630762
      5079.76      0.88991978     0.043876439
      5084.84      0.90760855     0.040521572
      5089.92      0.87462737     0.037086828
      5095.01      0.87924662     0.033520940
      5100.11      0.92155740     0.030704537
      5105.21      0.93067664     0.028058442
      5110.31      0.89913713     0.024813273
      5115.42      0.87553125     0.022623445
      5120.54      0.93615846     0.019989253
      5125.66       1.0193552     0.018300057
      5130.79       1.0821837     0.016775084
      5135.92       1.1026177     0.015035853
      5141.05       1.1175475     0.013965743
      5146.20       1.1337473     0.012826991
      5151.34       1.1690669     0.012162166
      5156.49       1.1980399     0.011659536
      5161.65       1.2318761     0.011198703
      5166.81       1.2530597     0.010967226
      5171.98       1.2451623     0.010783940
      5177.15       1.2377559     0.010692258
      5182.33       1.2236739     0.010548662
      5187.51       1.2451812     0.010571312
      5192.70       1.2708599     0.010526847
      5197.89       1.2970482     0.010414223
      5203.09       1.3156097     0.010409280
      5208.29       1.3312328     0.010286733
      5213.50       1.3367576     0.010237911
      5218.72       1.3425553     0.010218570
      5223.93       1.3451988     0.010223353
      5229.16       1.3448110     0.010177217
      5234.39       1.3380596     0.010245052
      5239.62       1.3244288     0.010205326
      5244.86       1.3351017     0.010276765
      5250.11       1.3672291     0.010238970
      5255.36       1.3971166     0.010251040
      5260.61       1.4006198     0.010269036
      5265.87       1.3904165     0.010276571
      5271.14       1.3811517     0.010342061
      5276.41       1.3897166     0.010305930
      5281.69       1.3968113     0.010336601
      5286.97       1.4095818     0.010379074
      5292.26       1.4115272     0.010403109
      5297.55       1.4108009     0.010431206
      5302.85       1.3863817     0.010415046
      5308.15       1.3561564     0.010442240
      5313.46       1.3371179     0.010503944
      5318.77       1.3350997     0.010581937
      5324.09       1.3533783     0.010752971
      5329.42       1.3513783     0.010943620
      5334.75       1.3432244     0.011294111
      5340.08       1.3201626     0.011631648
      5345.42       1.2992533     0.012102657
      5350.77       1.2723654     0.012740736
      5356.12       1.2545987     0.013449956
      5361.48       1.2117630     0.014324080
      5366.83       1.1890965     0.015266818
      5372.20       1.1669904     0.016394731
      5377.58       1.1653710     0.017543555
      5382.95       1.1780591     0.019031845
      5388.34       1.1555317     0.020200614
      5393.72       1.1092014     0.021823028
      5399.12       1.0943368     0.023038738
      5404.52       1.1269404     0.024658468
      5409.92       1.1551333     0.025868027
      5415.33       1.1962525     0.027633862
      5420.75       1.2415294     0.028950963
      5426.17       1.3522410     0.030685380
      5431.60       1.4211113     0.031871789
      5437.03       1.4607645     0.033462654
      5442.47       1.4521404     0.034500879
      5447.91       1.4744705     0.035861074
      5453.36       1.5115432     0.036808343
      5458.81       1.5682046     0.037972777
      5464.27       1.5857393     0.038657024
      5469.73       1.5843225     0.039739147
      5475.20       1.5467932     0.040248361
      5480.68       1.5123426     0.041171981
      5486.16       1.4878754     0.041520602
      5491.65       1.4660541     0.042120847
      5497.14       1.4195721     0.042501716
      5502.64       1.3600260     0.042937812
      5508.14       1.3172440     0.043283564
      5513.65       1.3011265     0.043472539
      5519.16       1.3149152     0.043671616
      5524.68       1.3348684     0.043544236
      5530.20       1.3540773     0.043844989
      5535.73       1.3568439     0.043620762
      5541.27       1.3507556     0.043568524
      5546.81       1.3512603     0.043491080
      5552.36       1.3693629     0.043340811
      5557.91       1.3980004     0.043144655
      5563.47       1.4290219     0.042962138
      5569.04       1.4406232     0.042677721
      5574.60       1.4419748     0.042161129
      5580.18       1.4240988     0.042074696
      5585.76       1.4109923     0.041674131
      5591.35       1.3945784     0.041070250
      5596.94       1.3742113     0.040889699
      5602.53       1.3545842     0.040240380
      5608.14       1.3189794     0.039732802
      5613.75       1.2936357     0.039203795
      5619.36       1.2739646     0.038782483
      5624.98       1.2664249     0.038216904
      5630.60       1.2436299     0.037638741
      5636.23       1.2396648     0.036922303
      5641.87       1.2512780     0.036587718
      5647.51       1.3085239     0.035870949
      5653.16       1.3520068     0.035263540
      5658.82       1.3829519     0.034909951
      5664.47       1.3798126     0.034203051
      5670.14       1.3646039     0.033601417
      5675.81       1.3468434     0.033022036
      5681.48       1.3410713     0.032430442
      5687.17       1.3465611     0.032236585
      5692.85       1.3504650     0.031759249
      5698.55       1.3730707     0.031040858
      5704.25       1.4033016     0.030498483
      5709.95       1.4262341     0.030251168
      5715.66       1.4236720     0.029757302
      5721.38       1.3976134     0.029458298
      5727.10       1.3487182     0.029253776
      5732.83       1.3065769     0.029130800
      5738.56       1.2733361     0.029067249
      5744.30       1.2386543     0.029022531
      5750.04       1.2160689     0.028983623
      5755.79       1.1990230     0.028772551
      5761.55       1.1928805     0.028681450
      5767.31       1.1777190     0.028722232
      5773.08       1.1693177     0.028542703
      5778.85       1.1518653     0.028198568
      5784.63       1.1506743     0.027945961
      5790.41       1.1427342     0.027649651
      5796.21       1.1015161     0.027211864
      5802.00       1.0446965     0.027053861
      5807.81       1.0048811     0.026706071
      5813.61      0.99562218     0.026383492
      5819.43       1.0234645     0.026010673
      5825.25       1.0641779     0.025817068
      5831.07       1.1197727     0.025736815
      5836.90       1.1665245     0.025699654
      5842.74       1.2118908     0.025624295
      5848.58       1.2718038     0.025545915
      5854.43       1.3231294     0.025530925
      5860.29       1.3655864     0.025530973
      5866.15       1.3848195     0.025538076
      5872.01       1.3928063     0.025433645
      5877.89       1.3962660     0.025473792
      5883.76       1.4210576     0.025531868
      5889.65       1.4513380     0.025602310
      5895.54       1.4808042     0.025792346
      5901.43       1.4905763     0.025730964
      5907.34       1.5012336     0.025800485
      5913.24       1.4971017     0.025868300
      5919.16       1.4880650     0.025936030
      5925.08       1.4672921     0.026013708
      5931.00       1.4387499     0.025969269
      5936.93       1.3867281     0.026077424
      5942.87       1.3103030     0.026180500
      5948.81       1.2241249     0.026274094
      5954.76       1.1659505     0.026358042
      5960.72       1.1460581     0.026439389
      5966.68       1.1327664     0.026380315
      5972.64       1.1118363     0.026476364
      5978.62       1.0856906     0.026620246
      5984.60       1.0600064     0.026915046
      5990.58       1.0368187     0.027130874
      5996.57       1.0147891     0.027337742
      6002.57       1.0016852     0.027517302
      6008.57      0.98945706     0.027668706
      6014.58      0.98020872     0.027631526
      6020.60      0.94771986     0.027725617
      6026.62      0.92333200     0.027777097
      6032.65      0.92488746     0.027776569
      6038.68      0.93495633     0.027732274
      6044.72      0.93498857     0.027638409
      6050.76      0.91514497     0.027498422
      6056.81      0.90906924     0.027311224
      6062.87      0.90992579     0.027081901
      6068.93      0.91738132     0.026829449
      6075.00      0.91280369     0.026464583
      6081.08      0.90659390     0.026202452
      6087.16      0.89840854     0.025945566
      6093.25      0.86460004     0.025682068
      6099.34      0.82995660     0.025225487
      6105.44      0.80962464     0.024897522
      6111.54      0.81724820     0.024536200
      6117.66      0.82722907     0.024150152
      6123.78      0.83230042     0.023746345
      6129.90      0.82904543     0.023345683
      6136.03      0.84454509     0.022965546
      6142.17      0.87252486     0.022603212
      6148.31      0.89190283     0.022246689
      6154.46      0.88455703     0.021891682
      6160.61      0.87442046     0.021548117
      6166.77      0.86553587     0.021220991
      6172.94      0.85017718     0.020912347
      6179.11      0.83509244     0.020620566
      6185.29      0.84176871     0.020216669
      6191.48      0.86561296     0.019958764
      6197.67      0.89394087     0.019717219
      6203.87      0.89528098     0.019489285
      6210.07      0.88648343     0.019274154
      6216.28      0.87870937     0.019070851
      6222.50      0.88118713     0.018883444
      6228.72      0.88193491     0.018715633
      6234.95      0.87464212     0.018567239
      6241.19      0.86606272     0.018346533
      6247.42      0.86562884     0.018240868
      6253.67      0.86130303     0.018154479
      6259.93      0.86556550     0.018086677
      6266.19      0.87562858     0.018038862
      6272.46      0.90163365     0.018013723
      6278.73      0.92032612     0.018021394
      6285.01      0.94116648     0.018055571
      6291.29      0.96388090     0.018240664
      6297.58      0.98764613     0.018425023
      6303.88       1.0055552     0.018514573
      6310.19       1.0136117     0.018557018
      6316.50       1.0114987     0.018690449
      6322.81       1.0181678     0.018900741
      6329.14       1.0218335     0.019274213
      6335.47       1.0312588     0.019994566
      6341.80       1.0530977     0.020741480
      6348.14       1.0922857     0.021641212
      6354.49       1.1091180     0.022662986
      6360.85       1.0988079     0.023803048
      6367.21       1.0517963     0.025031463
      6373.57       1.0206528     0.026316645
      6379.95       1.0100304     0.027607140
      6386.33      0.98341457     0.028787279
      6392.72      0.91292809     0.030143719
      6399.11      0.85182491     0.030900648
      6405.51      0.81791103     0.031108281
      6411.92      0.79119209     0.031137546
      6418.32      0.77055730     0.030858428
      6424.74      0.78221492     0.030345669
      6431.17      0.83361799     0.029539732
      6437.60      0.89430328     0.028872482
      6444.04      0.92999717     0.028283569
      6450.48      0.96852090     0.028021515
      6456.94       1.0306304     0.027957235
      6463.39       1.1057713     0.027910201
      6469.85       1.1823216     0.027813271
      6476.33       1.2503621     0.027905727
      6482.80       1.3003132     0.028205976
      6489.28       1.3267277     0.028370420
      6495.77       1.3512974     0.028500681
      6502.27       1.3810442     0.028559580
      6508.77       1.4067714     0.028721125
      6515.28       1.4079016     0.029053254
      6521.80       1.3814418     0.029155530
      6528.32       1.3462314     0.029350349
      6534.85       1.3261627     0.029535677
      6541.38       1.2938608     0.029586822
      6547.92       1.2458511     0.029879940
      6554.47       1.1913978     0.029990176
      6561.03       1.1546230     0.029944613
      6567.59       1.1088569     0.029992904
      6574.16       1.0898041     0.030149200
      6580.73       1.1130085     0.029987993
      6587.31       1.1495783     0.029936329
      6593.90       1.1726266     0.029848418
      6600.50       1.1922675     0.029675932
      6607.10       1.2167413     0.029493818
      6613.70       1.2468315     0.029110911
      6620.32       1.2713119     0.028855393
      6626.94       1.3154100     0.028666671
      6633.57       1.3466350     0.028162553
      6640.20       1.3761962     0.027798040
      6646.84       1.3813349     0.027488385
      6653.49       1.3726101     0.026882672
      6660.14       1.3630016     0.026434272
      6666.80       1.3692506     0.025788681
      6673.47       1.3730770     0.025361764
      6680.14       1.3863799     0.024686279
      6686.82       1.3629700     0.024177496
      6693.51       1.3460533     0.023702817
      6700.20       1.3246259     0.023001919
      6706.90       1.3336332     0.022469267
      6713.61       1.3354589     0.021798826
      6720.32       1.3253442     0.021263178
      6727.05       1.2878585     0.020570797
      6733.77       1.2549538     0.020093420
      6740.51       1.2243157     0.019435837
      6747.25       1.2133121     0.018948263
      6754.00       1.1978999     0.018370413
      6760.75       1.1543457     0.017918643
      6767.51       1.1206674     0.017480355
      6774.28       1.1137425     0.016972280
      6781.05       1.0983801     0.016601369
      6787.84       1.0640345     0.016189599
      6794.62       1.0163231     0.015892487
      6801.42      0.97887406     0.015556017
      6808.22      0.94297543     0.015402730
      6815.03      0.91971707     0.015162447
      6821.85      0.90045319     0.014893235
      6828.67      0.88556113     0.014761848
      6835.50      0.87702314     0.014551720
      6842.33      0.87652740     0.014491279
      6849.17      0.88005756     0.014355284
      6856.02      0.88649918     0.014355962
      6862.88      0.89187088     0.014267489
      6869.74      0.89597654     0.014255778
      6876.61      0.89719106     0.014278081
      6883.49      0.89932770     0.014327152
      6890.37      0.88528975     0.014439076
      6897.27      0.86582257     0.014533196
      6904.16      0.84843399     0.014788816
      6911.07      0.84406837     0.014984439
      6917.98      0.83741987     0.015354738
      6924.89      0.83170686     0.015645966
      6931.82      0.81315987     0.015998932
      6938.75      0.80089947     0.016468896
      6945.69      0.80053886     0.016860375
      6952.64      0.79464984     0.017404045
      6959.59      0.75615901     0.017850619
      6966.55      0.71586108     0.018461448
      6973.52      0.68207867     0.018979000
      6980.49      0.65583356     0.019734564
      6987.47      0.62182283     0.020385758
      6994.46      0.61632080     0.021145558
      7001.46      0.59918736     0.021689328
      7008.46      0.56824549     0.022484953
      7015.46      0.54089626     0.023124652
      7022.48      0.53040864     0.023989023
      7029.51      0.50831859     0.024926383
      7036.53      0.48100549     0.025622064
      7043.57      0.45073258     0.026527435
      7050.62      0.41126979     0.027259713
      7057.66      0.38312231     0.028195713
      7064.72      0.36636553     0.028927775
      7071.79      0.35274419     0.029908266
      7078.86      0.36382361     0.030616929
      7085.94      0.39604000     0.031550405
      7093.03      0.42960048     0.032526016
      7100.12      0.45202814     0.033211581
      7107.22      0.48814885     0.034115933
      7114.33      0.53035772     0.034816046
      7121.44      0.58746529     0.035673392
      7128.56      0.64168719     0.036257743
      7135.69      0.70959899     0.037054508
      7142.83      0.76524851     0.037905849
      7149.97      0.81016277     0.038387541
      7157.12      0.82391804     0.039065073
      7164.28      0.83463281     0.039700088
      7171.44      0.86421462     0.040170454
      7178.62      0.89830209     0.040713402
      7185.80      0.86243975     0.040984645
      7192.98      0.78671978     0.041443567
      7200.17      0.74733528     0.041996911
      7207.38      0.71387437     0.042161645
      7214.58      0.66941222     0.042513962
      7221.80      0.64866222     0.042833805
      7229.02      0.64625811     0.043060399
      7236.25      0.62557893     0.043326586
      7243.49      0.62884882     0.043571499
      7250.73      0.66412180     0.043600708
      7257.98      0.68622473     0.043809931
      7265.24      0.69157057     0.044155430
      7272.51      0.73603149     0.044148558
      7279.78      0.77760192     0.044326055
      7287.06      0.73804131     0.044502348
      7294.35      0.67424222     0.044482061
      7301.64      0.64534670     0.044663551
      7308.94      0.64918629     0.045009766
      7316.25      0.67280938     0.045207828
      7323.57      0.71134745     0.045220575
      7330.89      0.69651785     0.045455551
      7338.22      0.68875823     0.045715412
      7345.56      0.73975512     0.046004058
      7352.91      0.76608511     0.046111149
      7360.26      0.76075640     0.046591518
      7367.62      0.75239094     0.046966549
      7374.99      0.66925059     0.047381940
      7382.37      0.59990944     0.047613665
      7389.75      0.65069002     0.048112783
      7397.14      0.73304804     0.048662842
      7404.53      0.75388473     0.049269654
      7411.94      0.79329986     0.049681596
      7419.35      0.86015832     0.050406136
      7426.77      0.92468907     0.051184246
      7434.20      0.99171203     0.052137636
      7441.63       1.0598878     0.053071030
      7449.07       1.1260588     0.053769142
      7456.52       1.2160379     0.054869954
      7463.98       1.2950846     0.056109213
      7471.45       1.2756819     0.057499702
      7478.92       1.2059356     0.059045013
      7486.40       1.1930164     0.060321582
      7493.88       1.2393429     0.062177336
      7501.38       1.2919731     0.064184783
      7508.88       1.3207285     0.066309017
      7516.39       1.2814031     0.068497907
      7523.91       1.2119929     0.070700207
      7531.43       1.2290214     0.072878003
      7538.96       1.2570213     0.074462414
      7546.50       1.1633788     0.076492360
      7554.05       1.0632180     0.078446628
      7561.60      0.93955127     0.080308453
      7569.16      0.81732375     0.082026215
      7576.73      0.95405897     0.083662371
      7584.31       1.1124497     0.085237072
      7591.89       1.0288331     0.086795796
      7599.49      0.96998140     0.087899993
      7607.09      0.95748395     0.089548591
      7614.70      0.91591072     0.091249926
      7622.31      0.85179038     0.092997459
      7629.93      0.84659690     0.094826713
      7637.56      0.88042748     0.096590007
      7645.20      0.90705945     0.098068862
      7652.85      0.90134450     0.099335805
      7660.50      0.92269597      0.10029537
      7668.16      0.97067279      0.10052933
      7675.83      0.96951222      0.10089469
      7683.50      0.98644970      0.10123364
      7691.19       1.0451361      0.10151199
      7698.88       1.0560550      0.10173729
      7706.58       1.0549390      0.10187982
      7714.29       1.0756531      0.10190707
      7722.00       1.1251263      0.10180953
      7729.73       1.1764116      0.10171042
      7737.45       1.1562329      0.10130377
      7745.19       1.1348381      0.10129385
      7752.94       1.2065180      0.10182042
      7760.69       1.2758290      0.10288629
      7768.45       1.3129144      0.10436983
      7776.22       1.4136905      0.10643474
      7784.00       1.5578633      0.10906728
      7791.78       1.5992255      0.11214695
      7799.57       1.5113254      0.11514084
      7807.37       1.4037196      0.11791800
