# starting wavelength =        3434.9590
# ending wavelength =        7429.3452
# O2 telluric scale =        0
# O2 telluric shift =        0
# H2O telluric scale =        0
# H2O telluric shift =        0
      3436.45       1.2922456     0.042590564
      3439.89       1.3107031     0.043006201
      3443.33       1.3475710     0.042826942
      3446.78       1.3713389     0.042650175
      3450.22       1.3759606     0.042474367
      3453.67       1.3756617     0.042299339
      3457.13       1.3767630     0.042126722
      3460.58       1.3751973     0.041955245
      3464.04       1.3998395     0.042378895
      3467.51       1.3877589     0.042192203
      3470.98       1.3690812     0.042006821
      3474.45       1.3379459     0.041822562
      3477.92       1.3223059     0.041639845
      3481.40       1.3157502     0.041459419
      3484.88       1.3209904     0.041279984
      3488.37       1.3377683     0.041719689
      3491.86       1.3424787     0.041541981
      3495.35       1.3433546     0.041365847
      3498.84       1.3492282     0.041191533
      3502.34       1.3635597     0.041020065
      3505.84       1.3715581     0.040850104
      3509.35       1.3801515     0.040682310
      3512.86       1.3801097     0.041102523
      3516.37       1.3697611     0.040914545
      3519.89       1.3718965     0.040729928
      3523.41       1.3815274     0.040548516
      3526.93       1.3815868     0.040367999
      3530.46       1.3851275     0.040191066
      3533.99       1.4107019     0.040664470
      3537.53       1.4200990     0.040488871
      3541.06       1.4103945     0.040317413
      3544.60       1.3964126     0.040148365
      3548.15       1.3962155     0.039981644
      3551.70       1.4021552     0.039819236
      3555.25       1.3960456     0.040235663
      3558.80       1.3934152     0.040049045
      3562.36       1.3998097     0.039865235
      3565.92       1.4151013     0.038955832
      3569.49       1.4150473     0.038783497
      3573.06       1.4248470     0.038614094
      3576.64       1.4381901     0.039102561
      3580.21       1.4472548     0.038906962
      3583.79       1.4552546     0.038715891
      3587.38       1.4655044     0.038528600
      3590.96       1.4802080     0.038344444
      3594.55       1.4897969     0.038836488
      3598.15       1.4919816     0.038655683
      3601.75       1.4950284     0.038480466
      3605.35       1.5109518     0.038310518
      3608.96       1.5302318     0.038142850
      3612.56       1.5432869     0.037980562
      3616.18       1.5419147     0.038445072
      3619.79       1.5323375     0.038252268
      3623.41       1.5174546     0.038066345
      3627.04       1.5010482     0.037884918
      3630.66       1.5033794     0.037708669
      3634.29       1.5125874     0.038257471
      3637.93       1.5150194     0.038088425
      3641.57       1.5201727     0.037926165
      3645.21       1.5110863     0.036921608
      3648.86       1.5041724     0.036733709
      3652.50       1.4788231     0.037252388
      3656.16       1.4628785     0.037071173
      3659.81       1.4564117     0.036897571
      3663.47       1.4575245     0.036727707
      3667.14       1.4575044     0.036565565
      3670.80       1.4568873     0.037079339
      3674.48       1.4584176     0.036879511
      3678.15       1.4715364     0.036688985
      3681.83       1.5051842     0.036504796
      3685.51       1.5384267     0.037095437
      3689.20       1.5550112     0.036922029
      3692.88       1.5671216     0.036757698
      3696.58       1.5848129     0.036600935
      3700.27       1.6071186     0.036452028
      3703.98       1.6352859     0.036098422
      3707.68       1.6626996     0.035914082
      3711.39       1.6890070     0.035738024
      3715.10       1.7073740     0.035569413
      3718.81       1.7216664     0.035411491
      3722.53       1.7344083     0.035261445
      3726.26       1.7392233     0.034219584
      3729.98       1.7286441     0.034757065
      3733.71       1.7156754     0.034578655
      3737.45       1.6880662     0.034411254
      3741.18       1.6544078     0.034252439
      3744.93       1.6204704     0.034102088
      3748.67       1.5730493     0.033106436
      3752.42       1.5254084     0.033618657
      3756.17       1.4637042     0.033443117
      3759.93       1.4012706     0.033276806
      3763.69       1.3427296     0.033119206
      3767.45       1.2820232     0.032195397
      3771.22       1.2344581     0.032007454
      3774.99       1.1921004     0.031830292
      3778.77       1.1544510     0.032327922
      3782.54       1.1196066     0.032164555
      3786.33       1.0915507     0.032013084
      3790.11       1.0754439     0.031107820
      3793.90       1.0554154     0.030926120
      3797.70       1.0397148     0.030754966
      3801.50       1.0320847     0.031232861
      3805.30       1.0240440     0.031077514
      3809.10       1.0280315     0.030222548
      3812.91       1.0360906     0.030037535
      3816.73       1.0445541     0.029863773
      3820.54       1.0476353     0.029698313
      3824.36       1.0410217     0.030162669
      3828.19       1.0393059     0.029348627
      3832.02       1.0439428     0.029161971
      3835.85       1.0491019     0.028987184
      3839.68       1.0559358     0.028821007
      3843.52       1.0693409     0.028666475
      3847.37       1.0917067     0.028484366
      3851.22       1.0972070     0.028297758
      3855.07       1.0972345     0.028123448
      3858.92       1.0945585     0.027958159
      3862.78       1.0980974     0.027804824
      3866.64       1.0968647     0.027629113
      3870.51       1.1113194     0.027444247
      3874.38       1.1296308     0.027271922
      3878.26       1.1534634     0.027110317
      3882.13       1.1849781     0.026959065
      3886.02       1.2266469     0.026783394
      3889.90       1.2649740     0.026601168
      3893.79       1.3010233     0.026432031
      3897.69       1.3364954     0.026274141
      3901.59       1.3773391     0.025572428
      3905.49       1.4284270     0.025945443
      3909.39       1.4775841     0.025768845
      3913.30       1.5235336     0.025605579
      3917.22       1.5711149     0.025453365
      3921.13       1.6141413     0.024774467
      3925.06       1.6422056     0.025120300
      3928.98       1.6642255     0.024950829
      3932.91       1.6861290     0.024794718
      3936.84       1.7085262     0.024124363
      3940.78       1.7313259     0.023994045
      3944.72       1.7479106     0.024307935
      3948.67       1.7622264     0.024146349
      3952.61       1.7751238     0.023486316
      3956.57       1.7890600     0.023353234
      3960.52       1.8010633     0.023230757
      3964.48       1.8096459     0.023510448
      3968.45       1.8196890     0.023358854
      3972.42       1.8286084     0.022725027
      3976.39       1.8364263     0.022601140
      3980.37       1.8472601     0.022882422
      3984.35       1.8557773     0.022731024
      3988.33       1.8641486     0.022107625
      3992.32       1.8706587     0.021983622
      3996.31       1.8751080     0.021870194
      4000.31       1.8743769     0.022111261
      4004.31       1.8713338     0.021501223
      4008.31       1.8668909     0.021376928
      4012.32       1.8582914     0.021264531
      4016.33       1.8477268     0.021501229
      4020.35       1.8263830     0.020904512
      4024.37       1.8046531     0.020781594
      4028.40       1.7795895     0.020669928
      4032.42       1.7489290     0.020449822
      4036.46       1.7200351     0.020317154
      4040.50       1.6913384     0.020196504
      4044.54       1.6640510     0.020087328
      4048.58       1.6315171     0.019506228
      4052.63       1.6012444     0.019739921
      4056.68       1.5775839     0.019621900
      4060.74       1.5558342     0.019516064
      4064.80       1.5400026     0.018945950
      4068.86       1.5263931     0.019172299
      4072.93       1.5178092     0.019058206
      4077.01       1.5112589     0.018955785
      4081.08       1.5095369     0.018394553
      4085.17       1.5087123     0.018614513
      4089.25       1.5054328     0.018505448
      4093.34       1.5025186     0.017978103
      4097.43       1.4982048     0.017853741
      4101.53       1.4939108     0.018067676
      4105.63       1.4858943     0.017963374
      4109.74       1.4797896     0.017440216
      4113.85       1.4754621     0.017641414
      4117.96       1.4738544     0.017531959
      4122.08       1.4727481     0.017037892
      4126.20       1.4674766     0.016914523
      4130.33       1.4630937     0.017112127
      4134.46       1.4647318     0.016642918
      4138.59       1.4570606     0.016515392
      4142.73       1.4473030     0.016399043
      4146.88       1.4392269     0.016592948
      4151.02       1.4233007     0.016123937
      4155.18       1.4052482     0.016003829
      4159.33       1.3847217     0.015895512
      4163.49       1.3558835     0.015739554
      4167.65       1.3260373     0.015616557
      4171.82       1.2930224     0.015504715
      4175.99       1.2508213     0.015362781
      4180.17       1.2188673     0.015236924
      4184.35       1.1888683     0.015122685
      4188.54       1.1632361     0.015020165
      4192.72       1.1347470     0.014862905
      4196.92       1.1152275     0.014746751
      4201.11       1.1039829     0.014641583
      4205.31       1.0992745     0.014495005
      4209.52       1.0945053     0.014376878
      4213.73       1.0932633     0.014270923
      4217.94       1.0960569     0.013883699
      4222.16       1.1017709     0.014013600
      4226.38       1.1122641     0.013906447
      4230.61       1.1275630     0.013525334
      4234.84       1.1449396     0.013655656
      4239.08       1.1592836     0.013547615
      4243.32       1.1701046     0.013173727
      4247.56       1.1788383     0.013302816
      4251.81       1.1872249     0.013195251
      4256.06       1.1976080     0.012827489
      4260.32       1.2036533     0.012955642
      4264.58       1.2063561     0.012848250
      4268.84       1.2070159     0.012487611
      4273.11       1.2071652     0.012404593
      4277.38       1.2094735     0.012506384
      4281.66       1.2083637     0.012153829
      4285.94       1.2028535     0.012070980
      4290.23       1.1927958     0.012170462
      4294.52       1.1856858     0.011824987
      4298.81       1.1816652     0.011741386
      4303.11       1.1779914     0.011839674
      4307.42       1.1752280     0.011502330
      4311.72       1.1683943     0.011422882
      4316.04       1.1628561     0.011513898
      4320.35       1.1582592     0.011185395
      4324.67       1.1534169     0.011107355
      4329.00       1.1488499     0.011194072
      4333.33       1.1437783     0.010873709
      4337.66       1.1383528     0.010797997
      4342.00       1.1319454     0.010651477
      4346.34       1.1273700     0.010568195
      4350.69       1.1227697     0.010495112
      4355.04       1.1142925     0.010348427
      4359.39       1.1081237     0.010268197
      4363.75       1.1009862     0.010197737
      4368.12       1.0945920     0.010051117
      4372.48       1.0922654    0.0099739521
      4376.86       1.0904547    0.0099062481
      4381.23       1.0916997    0.0097596682
      4385.61       1.0915122    0.0096856950
      4390.00       1.0902264    0.0094020468
      4394.39       1.0878165    0.0094740989
      4398.79       1.0895816    0.0094040877
      4403.18       1.0958157    0.0091237094
      4407.59       1.1012560    0.0091950212
      4412.00       1.1041519    0.0091286860
      4416.41       1.1057249    0.0088513579
      4420.82       1.1063835    0.0089218239
      4425.25       1.1037517    0.0086598309
      4429.67       1.1035958    0.0087225642
      4434.10       1.1038053    0.0086547467
      4438.54       1.1019885    0.0083955302
      4442.97       1.1021949    0.0084575829
      4447.42       1.1064138    0.0082122441
      4451.86       1.1122468    0.0081373281
      4456.32       1.1184377    0.0081994566
      4460.77       1.1250319    0.0079557550
      4465.24       1.1303127    0.0078854433
      4469.70       1.1341033    0.0077797651
      4474.17       1.1429923    0.0077057322
      4478.65       1.1548529    0.0077617436
      4483.12       1.1727192    0.0075313534
      4487.61       1.1904173    0.0074625942
      4492.09       1.2097483    0.0073620329
      4496.59       1.2259359    0.0072899486
      4501.08       1.2414233    0.0072261879
      4505.58       1.2559277    0.0071221877
      4510.09       1.2743420    0.0070553976
      4514.60       1.2958793    0.0069589940
      4519.12       1.3151343    0.0068893360
      4523.63       1.3349821    0.0068278579
      4528.16       1.3584293    0.0067277772
      4532.69       1.3770543    0.0066637114
      4537.22       1.3954933    0.0065704436
      4541.76       1.4106823    0.0065039428
      4546.30       1.4212476    0.0063138697
      4550.85       1.4278270    0.0063482879
      4555.40       1.4353400    0.0062877904
      4559.95       1.4446436    0.0061965997
      4564.51       1.4517695    0.0061340303
      4569.08       1.4525893    0.0059545962
      4573.65       1.4536570    0.0059841429
      4578.22       1.4546674    0.0058057683
      4582.80       1.4533178    0.0058379064
      4587.38       1.4526813    0.0057797717
      4591.97       1.4564487    0.0056110268
      4596.56       1.4572596    0.0056354781
      4601.16       1.4542103    0.0054680486
      4605.76       1.4527754    0.0054945804
      4610.37       1.4514320    0.0053285947
      4614.98       1.4481495    0.0052831393
      4619.59       1.4425508    0.0051925817
      4624.21       1.4361887    0.0051460726
      4628.84       1.4297183    0.0051668141
      4633.47       1.4217501    0.0050124650
      4638.10       1.4127024    0.0050358395
      4642.74       1.4038748    0.0048869605
      4647.38       1.3885615    0.0048470497
      4652.03       1.3694274    0.0047660328
      4656.68       1.3457640    0.0047266609
      4661.34       1.3230720    0.0046553102
      4666.00       1.2985598    0.0046200708
      4670.67       1.2679861    0.0045651629
      4675.33       1.2368246    0.0045370557
      4680.01       1.2040781    0.0045184921
      4684.69       1.1603392    0.0044823832
      4689.38       1.1247235    0.0044715930
      4694.07       1.0865556    0.0044535170
      4698.76       1.0566248    0.0044483978
      4703.46       1.0246282    0.0044421912
      4708.16       1.0018389    0.0044393820
      4712.87      0.98210378    0.0044380108
      4717.58      0.97244474    0.0044347485
      4722.30      0.97140580    0.0043564499
      4727.03      0.97481500    0.0044321833
      4731.75      0.98450409    0.0043560595
      4736.48      0.99555995    0.0044322192
      4741.22       1.0128392    0.0043569745
      4745.96       1.0328939    0.0044323534
      4750.71       1.0541362    0.0043579022
      4755.46       1.0763579    0.0044325609
      4760.22       1.0938710    0.0043587909
      4764.97       1.1110936    0.0044328181
      4769.74       1.1253016    0.0043596490
      4774.51       1.1387975    0.0043533581
      4779.29       1.1526254    0.0043604194
      4784.07       1.1650185    0.0043536142
      4788.85       1.1747480    0.0043611293
      4793.64       1.1848228    0.0043538610
      4798.43       1.1947564    0.0043617184
      4803.23       1.2045276    0.0043540776
      4808.03       1.2159822    0.0043622019
      4812.84       1.2249935    0.0043542390
      4817.66       1.2353225    0.0043626512
      4822.48       1.2436034    0.0043544120
      4827.30       1.2548072    0.0043628603
      4832.12       1.2582013    0.0043544407
      4836.96       1.2617540    0.0043628663
      4841.79       1.2576546    0.0043543836
      4846.63       1.2464353    0.0043627496
      4851.48       1.2356048    0.0043542689
      4856.33       1.2171261    0.0043625230
      4861.19       1.2016501    0.0043541425
      4866.05       1.1814199    0.0043621780
      4870.92       1.1668120    0.0043539991
      4875.79       1.1487238    0.0043617427
      4880.66       1.1365575    0.0043538444
      4885.55       1.1258109    0.0043612219
      4890.43       1.1190596    0.0043536636
      4895.32       1.1148351    0.0043605740
      4900.22       1.1113801    0.0043534311
      4905.12       1.1117612    0.0043597390
      4910.02       1.1144649    0.0042867833
      4914.94       1.1241565    0.0043588668
      4919.85       1.1344160    0.0042865646
      4924.77       1.1449801    0.0043579680
      4929.70       1.1548474    0.0042863853
      4934.62       1.1635648    0.0043570414
      4939.56       1.1740240    0.0042862706
      4944.50       1.1870119    0.0043561132
      4949.44       1.2001425    0.0042862492
      4954.39       1.2160565    0.0043552298
      4959.35       1.2378444    0.0042863433
      4964.31       1.2648638    0.0042879439
      4969.27       1.2884154    0.0042865857
      4974.24       1.3181684    0.0042872921
      4979.22       1.3412775    0.0042870073
      4984.20       1.3647530    0.0042867723
      4989.18       1.3807568    0.0042876540
      4994.17       1.3934157    0.0042864233
      4999.16       1.3989290    0.0042885702
      5004.16       1.4020742    0.0042862812
      5009.17       1.4002713    0.0042887271
      5014.18       1.3911421    0.0042863930
      5019.19       1.3728187    0.0042876862
      5024.21       1.3508490    0.0042868083
      5029.23       1.3205890    0.0042868936
      5034.26       1.2905056    0.0042875699
      5039.30       1.2520873    0.0042864061
      5044.34       1.2135734    0.0042177215
      5049.39       1.1784401    0.0042862824
      5054.43       1.1468925    0.0042163211
      5059.49       1.1165062    0.0042865737
      5064.55       1.0891612    0.0042871984
      5069.61       1.0690997    0.0042199129
      5074.68       1.0507048    0.0042864192
      5079.76       1.0361011    0.0042178684
      5084.84       1.0270074    0.0042862582
      5089.92       1.0238250    0.0042162143
      5095.01       1.0258305    0.0042866111
      5100.11       1.0321008    0.0042150250
      5105.21       1.0450942    0.0042192090
      5110.31       1.0583790    0.0042863468
      5115.42       1.0756093    0.0042170183
      5120.54       1.0941986    0.0042863942
      5125.66       1.1134151    0.0042154576
      5130.79       1.1328048    0.0042202838
      5135.92       1.1483354    0.0042145760
      5141.05       1.1632152    0.0042176709
      5146.20       1.1802864    0.0042244497
      5151.34       1.1925955    0.0042157738
      5156.49       1.2035552    0.0042206865
      5161.65       1.2134937    0.0042146099
      5166.81       1.2203310    0.0042178418
      5171.98       1.2217078    0.0042244700
      5177.15       1.2252090    0.0042157098
      5182.33       1.2271119    0.0042204657
      5187.51       1.2311607    0.0042146114
      5192.70       1.2343284    0.0042174050
      5197.89       1.2375567    0.0041539885
      5203.09       1.2404540    0.0042153826
      5208.29       1.2454849    0.0042195469
      5213.50       1.2516199    0.0041540204
      5218.72       1.2558694    0.0042165737
      5223.93       1.2565695    0.0041542864
      5229.16       1.2567877    0.0041543206
      5234.39       1.2595169    0.0042182106
      5239.62       1.2629109    0.0041539088
      5244.86       1.2685534    0.0042156543
      5250.11       1.2742803    0.0042200102
      5255.36       1.2796361    0.0041539572
      5260.61       1.2826459    0.0042166513
      5265.87       1.2870927    0.0041542568
      5271.14       1.2937735    0.0041543092
      5276.41       1.3010843    0.0042176919
      5281.69       1.3113860    0.0041540634
      5286.97       1.3240971    0.0041546442
      5292.26       1.3345080    0.0041554002
      5297.55       1.3468610    0.0041541608
      5302.85       1.3576687    0.0041559584
      5308.15       1.3638598    0.0041560166
      5313.46       1.3680812    0.0041556653
      5318.77       1.3650252    0.0041577084
      5324.09       1.3598560    0.0041570341
      5329.42       1.3511725    0.0041581030
      5334.75       1.3428050    0.0041635286
      5340.08       1.3345082    0.0041642095
      5345.42       1.3213938    0.0041684037
      5350.77       1.3092434    0.0041089039
      5356.12       1.2950981    0.0041762750
      5361.48       1.2791195    0.0041815938
      5366.83       1.2669104    0.0041200734
      5372.20       1.2544021    0.0041858374
      5377.58       1.2410791    0.0041870037
      5382.95       1.2335044    0.0041233455
      5388.34       1.2281541    0.0041871514
      5393.72       1.2252155    0.0041858936
      5399.12       1.2203173    0.0041210404
      5404.52       1.2161453    0.0041847100
      5409.92       1.2113686    0.0041838354
      5415.33       1.2042234    0.0041187078
      5420.75       1.1965140    0.0041205754
      5426.17       1.1901667    0.0041787494
      5431.60       1.1865649    0.0041124787
      5437.03       1.1854328    0.0041132670
      5442.47       1.1830492    0.0041717464
      5447.91       1.1806080    0.0041045296
      5453.36       1.1803885    0.0041040812
      5458.81       1.1804508    0.0041641943
      5464.27       1.1790357    0.0040978586
      5469.73       1.1753937    0.0040978919
      5475.20       1.1704034    0.0040998242
      5480.68       1.1662380    0.0040920176
      5486.16       1.1639996    0.0040928275
      5491.65       1.1600430    0.0040956495
      5497.14       1.1536766    0.0040896906
      5502.64       1.1453265    0.0040904750
      5508.14       1.1350283    0.0040932179
      5513.65       1.1249057    0.0040334950
      5519.16       1.1119572    0.0040893691
      5524.68       1.0991631    0.0040913121
      5530.20       1.0895761    0.0040949800
      5535.73       1.0785872    0.0040332971
      5541.27       1.0683814    0.0040900039
      5546.81       1.0578666    0.0040928350
      5552.36       1.0485694    0.0040331688
      5557.91       1.0392794    0.0040335164
      5563.47       1.0307396    0.0040908370
      5569.04       1.0227184    0.0040336029
      5574.60       1.0131874    0.0040330943
      5580.18       1.0063196    0.0040338554
      5585.76       1.0020871    0.0040917730
      5591.35      0.99774219    0.0040333169
      5596.94      0.99644260    0.0040332315
      5602.53      0.99666760    0.0040343611
      5608.14      0.99697110    0.0040343981
      5613.75      0.99894038    0.0040333188
      5619.36       1.0013147    0.0040333823
      5624.98       1.0053873    0.0040346448
      5630.60       1.0074100    0.0040341983
      5636.23       1.0122274    0.0040338753
      5641.87       1.0133401    0.0040360718
      5647.51       1.0162871    0.0040396044
      5653.16       1.0126625    0.0040405813
      5658.82       1.0077092    0.0040448010
      5664.47      0.99528330    0.0040521338
      5670.14      0.97492843    0.0040620333
      5675.81      0.95061198    0.0040685916
      5681.48      0.91598164    0.0040882571
      5687.17      0.88060292    0.0041192273
      5692.85      0.84505559    0.0040928067
      5698.55      0.80685288    0.0041435705
      5704.25      0.77434869    0.0042417904
      5709.95      0.73983451    0.0043042189
      5715.66      0.71509417    0.0042918489
      5721.38      0.68921227    0.0043584551
      5727.10      0.67099576    0.0044245071
      5732.83      0.66131293    0.0045325717
      5738.56      0.66065206    0.0045911228
      5744.30      0.66934769    0.0045644195
      5750.04      0.68675597    0.0046216167
      5755.79      0.71402039    0.0046798767
      5761.55      0.74396949    0.0047881890
      5767.31      0.77065744    0.0047628978
      5773.08      0.79966001    0.0048272873
      5778.85      0.82532294    0.0048895965
      5784.63      0.84935114    0.0049551991
      5790.41      0.87287096    0.0049788088
      5796.21      0.90058609    0.0050437633
      5802.00      0.92419420    0.0051105321
      5807.81      0.94535531    0.0051794390
      5813.61      0.96413916    0.0052502557
      5819.43      0.97885415    0.0052753020
      5825.25      0.99156427    0.0053449211
      5831.07      0.99960446    0.0054164219
      5836.90       1.0025746    0.0054899823
      5842.74       1.0040503    0.0055652994
      5848.58       1.0040574    0.0055379363
      5854.43       1.0045424    0.0056666254
      5860.29       1.0011546    0.0057429741
      5866.15      0.99678906    0.0058224309
      5872.01      0.99336968    0.0059052168
      5877.89      0.99112989    0.0058803238
      5883.76      0.98704711    0.0059594609
      5889.65      0.98376467    0.0061000502
      5895.54      0.98424747    0.0061824898
      5901.43      0.98804005    0.0062652787
      5907.34      0.99156371    0.0062372100
      5913.24      0.99562466    0.0063139386
      5919.16      0.99841188    0.0063900057
      5925.08       1.0006262    0.0064660658
      5931.00       1.0024397    0.0066098599
      5936.93       1.0006979    0.0065797732
      5942.87      0.99892839    0.0066553752
      5948.81      0.99264019    0.0067331065
      5954.76      0.98853764    0.0068121169
      5960.72      0.97992311    0.0068908756
      5966.68      0.96923645    0.0069696301
      5972.64      0.95749001    0.0070089565
      5978.62      0.94345448    0.0070848247
      5984.60      0.92844887    0.0071631298
      5990.58      0.91502433    0.0072423217
      5996.57      0.90012572    0.0073203571
      6002.57      0.88757731    0.0073997180
      6008.57      0.87733148    0.0073562896
      6014.58      0.86767064    0.0074385940
      6020.60      0.85847824    0.0075227405
      6026.62      0.84900485    0.0076861381
      6032.65      0.84088316    0.0077698383
      6038.68      0.83532738    0.0078544678
      6044.72      0.82989735    0.0079401212
      6050.76      0.82494160    0.0078929786
      6056.81      0.82293244    0.0079789598
      6062.87      0.82215043    0.0080660536
      6068.93      0.82547515    0.0081541633
      6075.00      0.82888682    0.0082431692
      6081.08      0.83252713    0.0084165631
      6087.16      0.83647075    0.0085043533
      6093.25      0.84187401    0.0084507279
      6099.34      0.84820531    0.0085388707
      6105.44      0.85518634    0.0086276839
      6111.54      0.86155071    0.0087173208
      6117.66      0.86962991    0.0088078886
      6123.78      0.87692556    0.0088991896
      6129.90      0.88091851    0.0089911690
      6136.03      0.88355948    0.0090836446
      6142.17      0.88417975    0.0090254773
      6148.31      0.88500216    0.0091147552
      6154.46      0.88291456    0.0092971467
      6160.61      0.87512485    0.0093886536
      6166.77      0.86728481    0.0094809993
      6172.94      0.86081194    0.0095739019
      6179.11      0.85503051    0.0096675258
      6185.29      0.85105831    0.0097657395
      6191.48      0.84619689    0.0098810845
      6197.67      0.83663156     0.010002839
      6203.87      0.82788402    0.0099443943
      6210.07      0.82046467     0.010033250
      6216.28      0.81113591     0.010162452
      6222.50      0.79971035     0.010330347
      6228.72      0.78831647     0.010535699
      6234.95      0.77839145     0.010776298
      6241.19      0.76885964     0.011042823
      6247.42      0.75870110     0.011319599
      6253.67      0.75006002     0.011587195
      6259.93      0.74386031     0.011823178
      6266.19      0.73746817     0.012140685
      6272.46      0.73077751     0.012270463
      6278.73      0.72750232     0.012156379
      6285.01      0.72564558     0.012173906
      6291.29      0.72233661     0.012143819
      6297.58      0.71822891     0.012092256
      6303.88      0.70493436     0.012052614
      6310.19      0.68458370     0.012063037
      6316.50      0.68858151     0.014777535
      6322.81      0.65194780     0.014821099
      6329.14      0.61072326     0.014543953
      6335.47      0.56799711     0.014586994
      6341.80      0.52857008     0.014645174
      6348.14      0.49770051     0.014724168
      6354.49      0.48037296     0.014825755
      6360.85      0.48181835     0.014946645
      6367.21      0.50521184     0.015077443
      6373.57      0.54701341     0.015211878
      6379.95      0.59931638     0.015337190
      6386.33      0.65719848     0.015447387
      6392.72      0.71865054     0.015552648
      6399.11      0.77844588     0.015909406
      6405.51      0.82062801     0.016017270
      6411.92      0.85812320     0.016121605
      6418.32      0.88212817     0.015970839
      6424.74      0.90293718     0.016076360
      6431.17      0.93364393     0.013252879
      6437.60      0.95031120     0.013341851
      6444.04      0.95661106     0.013433082
      6450.48      0.96108594     0.013526848
      6456.94      0.96641726     0.013623470
      6463.39      0.96846683     0.013726545
      6469.85      0.96398949     0.013836872
      6476.33      0.95174690     0.013949763
      6482.80      0.93579657     0.014067687
      6489.28      0.91907353     0.014194746
      6495.77      0.90231017     0.014340995
      6502.27      0.88585929     0.014514261
      6508.77      0.87132885     0.014722503
      6515.28      0.87410377     0.012914170
      6521.80      0.86518717     0.013090945
      6528.32      0.85751782     0.013266717
      6534.85      0.84747942     0.013440467
      6541.38      0.83816717     0.013609074
      6547.92      0.83201003     0.013671348
      6554.47      0.82697776     0.013814105
      6561.03      0.82345823     0.013943172
      6567.59      0.82253498     0.014057980
      6574.16      0.82376585     0.014157468
      6580.73      0.82551799     0.014242055
      6587.31      0.82501445     0.014317028
      6593.90      0.83130216     0.014389565
      6600.50      0.84068472     0.014465160
      6607.10      0.84964424     0.014551406
      6613.70      0.85090863     0.014649449
      6620.32      0.84304496     0.014912430
      6626.94      0.83763220     0.014988106
      6633.57      0.83660391     0.015039022
      6640.20      0.83590958     0.014943831
      6646.84      0.83503254     0.014957820
      6653.49      0.83592651     0.014969254
      6660.14      0.83210988     0.014995775
      6666.80      0.82613237     0.015036347
      6673.47      0.82237217     0.015078652
      6680.14      0.82157621     0.015112546
      6686.82      0.81619403     0.015144962
      6693.51      0.81226685     0.015183046
      6700.20      0.80836395     0.015229401
      6706.90      0.80149992     0.015284007
      6713.61      0.78913212     0.015220907
      6720.32      0.77583983     0.015280602
      6727.05      0.76390313     0.015348693
      6733.77      0.75712389     0.015418777
      6740.51      0.75577123     0.015490288
      6747.25      0.75406801     0.015559809
      6754.00      0.74992912     0.015628115
      6760.75      0.74369743     0.015699791
      6767.51      0.74094778     0.015828712
      6774.28      0.73430872     0.015908639
      6781.05      0.72657088     0.015991634
      6787.84      0.71676091     0.016076256
      6794.62      0.70530299     0.016161375
      6801.42      0.69673389     0.016246748
      6808.22      0.68415240     0.016334488
      6815.03      0.66600233     0.016426486
      6821.85      0.65492066     0.016458822
      6828.67      0.64242797     0.016670431
      6835.50      0.62908538     0.016899491
      6842.33      0.61730334     0.017053123
      6849.17      0.60272841     0.017229471
      6856.02      0.58873752     0.017310005
      6862.88      0.57771339     0.017414098
      6869.74      0.57173018     0.017678132
      6876.61      0.56352830     0.018064050
      6883.49      0.55319262     0.018584549
      6890.37      0.54229724     0.019227489
      6897.27      0.53741329     0.019970641
      6904.16      0.54173468     0.020878755
      6911.07      0.55376226     0.022110194
      6917.98      0.55931325     0.022994148
      6924.89      0.55880415     0.023822801
      6931.82      0.56278370     0.024532898
      6938.75      0.58493610     0.025058324
      6945.69      0.61811253     0.024999607
      6952.64      0.64042877     0.024941715
      6959.59      0.67003799     0.024644611
      6966.55      0.70361733     0.024150692
      6973.52      0.72296036     0.023657665
      6980.49      0.73304483     0.022473222
      6987.47      0.74305722     0.021769617
      6994.46      0.75893121     0.021135697
      7001.46      0.78090097     0.020654227
      7008.46      0.79045401     0.020415701
      7015.46      0.78154909     0.020045777
      7022.48      0.77492247     0.019970649
      7029.51      0.77378109     0.019870796
      7036.53      0.77371591     0.019881827
      7043.57      0.77669531     0.019874169
      7050.62      0.76651942     0.019667345
      7057.66      0.75274111     0.019649752
      7064.72      0.74457594     0.019824564
      7071.79      0.74251945     0.019852627
      7078.86      0.73621920     0.019901030
      7085.94      0.72004550     0.019820262
      7093.03      0.70973942     0.019896274
      7100.12      0.70366172     0.019978497
      7107.22      0.70860257     0.020253325
      7114.33      0.71697262     0.020193315
      7121.44      0.70696914     0.020282504
      7128.56      0.69084770     0.020374253
      7135.69      0.68810791     0.020468294
      7142.83      0.69171616     0.020414259
      7149.97      0.69255830     0.020714753
      7157.12      0.68440686     0.020816295
      7164.28      0.67648148     0.020916626
      7171.44      0.68606961     0.020861461
      7178.62      0.69411120     0.020954647
      7185.80      0.69302686     0.021258553
      7192.98      0.68859484     0.021355978
      7200.17      0.68583658     0.021296963
      7207.38      0.69183528     0.021384661
      7214.58      0.70599225     0.021472337
      7221.80      0.71671613     0.021772095
      7229.02      0.72860358     0.021700739
      7236.25      0.73279248     0.021781459
      7243.49      0.74743470     0.021864700
      7250.73      0.76521400     0.021952147
      7257.98      0.78166727     0.022097945
      7265.24      0.77924730     0.022184145
      7272.51      0.77876110     0.022273343
      7279.78      0.78293240     0.022207546
      7287.06      0.79262890     0.022507780
      7294.35      0.78723898     0.022588509
      7301.64      0.77763569     0.022671383
      7308.94      0.76523080     0.022605240
      7316.25      0.76034741     0.022902403
      7323.57      0.75071496     0.022989829
      7330.89      0.73898008     0.022938149
      7338.22      0.72096394     0.023045172
      7345.56      0.69941948     0.023361627
      7352.91      0.69507686     0.023318918
      7360.26      0.69716052     0.023449427
      7367.62      0.67625686     0.023605833
      7374.99      0.65079313     0.023879362
      7382.37      0.62880774     0.024089937
      7389.75      0.60474075     0.024338470
      7397.14      0.58404696     0.024611601
      7404.53      0.56717389     0.024971657
      7411.94      0.55908226     0.025175946
      7419.35      0.55509510     0.025382799
      7426.77      0.55455651     0.025421005
