# starting wavelength =        3262.3432
# ending wavelength =        7913.0798
# O2 telluric scale =       0.34254939
# O2 telluric shift =        5.0456812
# H2O telluric scale =        0
# H2O telluric shift =        0
      3262.40      0.43054770      0.10636487
      3265.67      0.45578584      0.10387387
      3268.93      0.49902651      0.10307339
      3272.20      0.53724392      0.10449541
      3275.47      0.56040680      0.10203656
      3278.75      0.63373330      0.10124002
      3282.03      0.65809131      0.10266575
      3285.31      0.64092298      0.10024078
      3288.60      0.62396592     0.099446156
      3291.88      0.60677403      0.10087837
      3295.18      0.58513726      0.10000300
      3298.47      0.55655690     0.097692111
      3301.77      0.58239750     0.096975102
      3305.07      0.56133035     0.098260587
      3308.38      0.53421957     0.095979913
      3311.69      0.53500600     0.095263969
      3315.00      0.54580443     0.096564053
      3318.31      0.53055224     0.094309059
      3321.63      0.46765392     0.093594080
      3324.95      0.47921192     0.094913764
      3328.28      0.50770850     0.092681497
      3331.61      0.50319759     0.091965195
      3334.94      0.47774855     0.091317033
      3338.27      0.47572497     0.091096598
      3341.61      0.47510949     0.090377421
      3344.95      0.44244720     0.089724445
      3348.30      0.44472256     0.089551725
      3351.65      0.44783002     0.088831286
      3355.00      0.40165220     0.088174497
      3358.35      0.45016588     0.086250953
      3361.71      0.47351958     0.087328745
      3365.07      0.48575751     0.086669141
      3368.44      0.49473440     0.086070178
      3371.81      0.52921786     0.084120289
      3375.18      0.51851861     0.085207251
      3378.56      0.52006342     0.084600835
      3381.94      0.51768919     0.082735920
      3385.32      0.56763519     0.083785936
      3388.70      0.52798501     0.083174206
      3392.09      0.50698683     0.081393932
      3395.48      0.52959050     0.080737083
      3398.88      0.54255225     0.081792206
      3402.28      0.49687491     0.081230170
      3405.68      0.48034094     0.079435641
      3409.09      0.48389818     0.080453579
      3412.49      0.43056229     0.079885161
      3415.91      0.43688426     0.078177359
      3419.32      0.42236181     0.077563878
      3422.74      0.40665384     0.078584532
      3426.17      0.36914541     0.076964860
      3429.59      0.34837270     0.076344941
      3433.02      0.39388496     0.075772449
      3436.45      0.38048229     0.076793680
      3439.89      0.38535100     0.075167836
      3443.33      0.38919144     0.074589966
      3446.78      0.38153290     0.074057086
      3450.22      0.38059489     0.074037354
      3453.67      0.38061585     0.073451976
      3457.13      0.43524512     0.072912636
      3460.58      0.43513607     0.072951145
      3464.04      0.42366610     0.072360777
      3467.51      0.44910577     0.071812900
      3470.98      0.44292381     0.071308984
      3474.45      0.44035872     0.071314150
      3477.92      0.43016097     0.070758500
      3481.40      0.46433504     0.070246140
      3484.88      0.43324555     0.068762747
      3488.37      0.43228898     0.069750849
      3491.86      0.46759838     0.069229141
      3495.35      0.48189334     0.068748767
      3498.84      0.47670584     0.067310719
      3502.34      0.48193662     0.068260115
      3505.84      0.45719637     0.067769530
      3509.35      0.45220383     0.066334694
      3512.86      0.44329586     0.065922260
      3516.37      0.43962784     0.066838695
      3519.89      0.40853358     0.066376905
      3523.41      0.43263267     0.064983053
      3526.93      0.44273704     0.064592865
      3530.46      0.43813891     0.065480611
      3533.99      0.41527120     0.065045658
      3537.53      0.43054636     0.063690533
      3541.06      0.41647910     0.063323409
      3544.60      0.41252321     0.064187670
      3548.15      0.41839804     0.062832478
      3551.70      0.41706341     0.062457774
      3555.25      0.40299025     0.062112103
      3558.80      0.39889775     0.062957407
      3562.36      0.41362261     0.061636840
      3565.92      0.41869109     0.061281702
      3569.49      0.44972592     0.060956254
      3573.06      0.43924344     0.060661620
      3576.64      0.44018525     0.060499122
      3580.21      0.43565444     0.060162143
      3583.79      0.44237313     0.059854833
      3587.38      0.46167866     0.059577092
      3590.96      0.46489840     0.059416923
      3594.55      0.48728110     0.059097395
      3598.15      0.46300688     0.058806719
      3601.75      0.46143327     0.057658937
      3605.35      0.45886738     0.058389713
      3608.96      0.43863990     0.058086286
      3612.56      0.41363179     0.057810847
      3616.18      0.42534246     0.056692668
      3619.79      0.42193957     0.057413936
      3623.41      0.42722779     0.057125585
      3627.04      0.44689471     0.056864012
      3630.66      0.45989976     0.055778971
      3634.29      0.47653255     0.055486526
      3637.93      0.46281165     0.056216602
      3641.57      0.45242126     0.055967585
      3645.21      0.45004692     0.054917223
      3648.86      0.45428302     0.054637842
      3652.50      0.46529211     0.055358322
      3656.16      0.46256855     0.055120721
      3659.81      0.45467684     0.054106547
      3663.47      0.45660194     0.053839203
      3667.14      0.46581184     0.053593252
      3670.80      0.46266561     0.054320645
      3674.48      0.45726055     0.053344699
      3678.15      0.46334266     0.053088445
      3681.83      0.45105990     0.052852835
      3685.51      0.46285975     0.052637915
      3689.20      0.46888332     0.052632760
      3692.88      0.48837569     0.052386649
      3696.58      0.49552113     0.052160349
      3700.27      0.51210500     0.051953941
      3703.98      0.51643599     0.051970397
      3707.68      0.51541272     0.051732269
      3711.39      0.51947395     0.051513633
      3715.10      0.52532278     0.051314862
      3718.81      0.52773007     0.050376155
      3722.53      0.52883486     0.051125197
      3726.26      0.56763507     0.050913924
      3729.98      0.58235765     0.050721775
      3733.71      0.54466373     0.050547378
      3737.45      0.54901467     0.049636044
      3741.18      0.54568472     0.050360493
      3744.93      0.55857541     0.050174221
      3748.67      0.56876627     0.050005034
      3752.42      0.56733120     0.049101680
      3756.17      0.57433946     0.048964787
      3759.93      0.60097788     0.049671226
      3763.69      0.62075227     0.049505863
      3767.45      0.60578088     0.048609315
      3771.22      0.59410531     0.048476196
      3774.99      0.61290226     0.048359106
      3778.77      0.60835625     0.049051428
      3782.54      0.59490627     0.048906494
      3786.33      0.59928799     0.048029899
      3790.11      0.58342265     0.047915172
      3793.90      0.56379248     0.047814977
      3797.70      0.58518169     0.047728894
      3801.50      0.58676554     0.047625948
      3805.30      0.58326560     0.047513089
      3809.10      0.59739800     0.047413429
      3812.91      0.61527314     0.047328452
      3816.73      0.60345982     0.047257110
      3820.54      0.60450391     0.047151955
      3824.36      0.61381915     0.047053177
      3828.19      0.60654263     0.046968352
      3832.02      0.60757012     0.046896600
      3835.85      0.61350013     0.046837778
      3839.68      0.62008994     0.046734744
      3843.52      0.61424895     0.046649576
      3847.37      0.63088533     0.046576280
      3851.22      0.62392189     0.046516303
      3855.07      0.63561746     0.045751719
      3858.92      0.63128375     0.045667440
      3862.78      0.65199699     0.046296781
      3866.64      0.67003148     0.046234989
      3870.51      0.66927591     0.046184642
      3874.38      0.68791074     0.045439031
      3878.26      0.64806018     0.045365541
      3882.13      0.65321412     0.045303505
      3886.02      0.68563711     0.045941225
      3889.90      0.69016764     0.045899085
      3893.79      0.70249370     0.045176083
      3897.69      0.71846188     0.045111088
      3901.59      0.74111904     0.045056346
      3905.49      0.77963248     0.045012231
      3909.39      0.79318202     0.045657631
      3913.30      0.79290379     0.044959096
      3917.22      0.79508593     0.044901398
      3921.13      0.83011833     0.044853963
      3925.06      0.86354222     0.044814944
      3928.98      0.86397093     0.044785901
      3932.91      0.87840226     0.044787213
      3936.84      0.89341678     0.044735795
      3940.78      0.91975652     0.044692618
      3944.72      0.97105049     0.044659053
      3948.67       1.0001928     0.044634319
      3952.61       1.0043611     0.043933458
      3956.57       1.0109830     0.044610906
      3960.52       1.0350192     0.044572749
      3964.48       1.0350972     0.044541984
      3968.45       1.0386307     0.044520236
      3972.42       1.0370129     0.044507439
      3976.39       1.0383443     0.043813383
      3980.37       1.0502816     0.043813962
      3984.35       1.0561067     0.044463361
      3988.33       1.0462631     0.044443389
      3992.32       1.0376615     0.044431119
      3996.31       1.0281621     0.043736578
      4000.31       1.0218456     0.043737871
      4004.31       1.0032000     0.043746174
      4008.31      0.99283752     0.043761798
      4012.32      0.97771532     0.044390499
      4016.33      0.95276475     0.044385017
      4020.35      0.94663459     0.043693420
      4024.37      0.90621835     0.043700467
      4028.40      0.90658533     0.043714883
      4032.42      0.88173795     0.043735327
      4036.46      0.88339377     0.043761955
      4040.50      0.86186929     0.044376732
      4044.54      0.87107126     0.043686224
      4048.58      0.86849987     0.043698143
      4052.63      0.86292627     0.043715632
      4056.68      0.85905067     0.043738779
      4060.74      0.84041622     0.043768159
      4064.80      0.82278129     0.043802980
      4068.86      0.81526593     0.043709774
      4072.93      0.81651168     0.043723296
      4077.01      0.82043206     0.043742411
      4081.08      0.82187615     0.043766845
      4085.17      0.82105195     0.043796111
      4089.25      0.83328044     0.043830347
      4093.34      0.82575352     0.043171626
      4097.43      0.83124509     0.043186125
      4101.53      0.83074681     0.043791935
      4105.63      0.81961375     0.043815451
      4109.74      0.82837191     0.043843295
      4113.85      0.83068401     0.043876137
      4117.96      0.83624079     0.043244605
      4122.08      0.82361797     0.043257564
      4126.20      0.83552498     0.043273600
      4130.33      0.83884309     0.043294134
      4134.46      0.84497606     0.043907121
      4138.59      0.85687855     0.043936433
      4142.73      0.83875675     0.043969438
      4146.88      0.82445578     0.043346691
      4151.02      0.83200811     0.043360046
      4155.18      0.83577276     0.043376544
      4159.33      0.81717917     0.043397019
      4163.49      0.82091588     0.043419746
      4167.65      0.81892207     0.043446468
      4171.82      0.81569814     0.043451216
      4175.99      0.81193766     0.043460597
      4180.17      0.81317139     0.043472105
      4184.35      0.80129741     0.043487156
      4188.54      0.81057514     0.043504867
      4192.72      0.80749288     0.043525153
      4196.92      0.80557903     0.043548796
      4201.11      0.81247604     0.043574783
      4205.31      0.81357219     0.042948565
      4209.52      0.79832570     0.043590242
      4213.73      0.79951103     0.043601983
      4217.94      0.78861506     0.043615376
      4222.16      0.78080165     0.043631876
      4226.38      0.80692640     0.043651543
      4230.61      0.80385181     0.043672492
      4234.84      0.80078745     0.043041094
      4239.08      0.80676316     0.043067042
      4243.32      0.79437769     0.043094997
      4247.56      0.79287476     0.043124967
      4251.81      0.78394529     0.043157547
      4256.06      0.77938839     0.043759491
      4260.32      0.77912789     0.043775782
      4264.58      0.80339725     0.043794834
      4268.84      0.80899182     0.043158655
      4273.11      0.79567066     0.043180740
      4277.38      0.80656600     0.043205398
      4281.66      0.81819902     0.043231676
      4285.94      0.82026934     0.043259722
      4290.23      0.83772294     0.043290052
      4294.52      0.82592570     0.043321240
      4298.81      0.82791072     0.043354705
      4303.11      0.83001685     0.043275681
      4307.42      0.81281788     0.043294251
      4311.72      0.80355031     0.043314068
      4316.04      0.82069390     0.043336210
      4320.35      0.81366295     0.043359908
      4324.67      0.80146055     0.043384829
      4329.00      0.82927335     0.043411834
      4333.33      0.82778945     0.043439406
      4337.66      0.81429064     0.043468844
      4342.00      0.79957106     0.042861910
      4346.34      0.80884638     0.042877383
      4350.69      0.81825074     0.042893951
      4355.04      0.81579825     0.042911602
      4359.39      0.82314748     0.042931032
      4363.75      0.82851468     0.043504030
      4368.12      0.83648208     0.043526626
      4372.48      0.84076279     0.043550335
      4376.86      0.85405303     0.043574957
      4381.23      0.85763687     0.043000868
      4385.61      0.85877689     0.043013013
      4390.00      0.89308313     0.043025974
      4394.39      0.91226263     0.043040456
      4398.79      0.90593136     0.043055779
      4403.18      0.91071147     0.043071910
      4407.59      0.91654994     0.043088793
      4412.00      0.93719553     0.043107177
      4416.41      0.96467223     0.043126375
      4420.82      0.98422839     0.043146129
      4425.25       1.0153783     0.043167309
      4429.67       1.0277534     0.042577581
      4434.10       1.0561180     0.043180645
      4438.54       1.0663302     0.043191885
      4442.97       1.0814796     0.043203701
      4447.42       1.1178676     0.043216242
      4451.86       1.1391872     0.043230173
      4456.32       1.1599205     0.043244633
      4460.77       1.1675217     0.043259624
      4465.24       1.1815333     0.043275862
      4469.70       1.2118739     0.043292621
      4474.17       1.2260211     0.043309746
      4478.65       1.2560751     0.042714942
      4483.12       1.2898018     0.042732782
      4487.61       1.3133032     0.042751147
      4492.09       1.3322405     0.042770309
      4496.59       1.3486178     0.042789259
      4501.08       1.3787860     0.042809142
      4505.58       1.3879015     0.042829821
      4510.09       1.3911666     0.042850154
      4514.60       1.4004593     0.042871289
      4519.12       1.4187227     0.042893248
      4523.63       1.4246474     0.042914802
      4528.16       1.4185575     0.042937126
      4532.69       1.4252070     0.042959378
      4537.22       1.4315608     0.042981752
      4541.76       1.4382351     0.042902694
      4546.30       1.4434063     0.042917861
      4550.85       1.4526657     0.042932804
      4555.40       1.4387837     0.042948498
      4559.95       1.4422813     0.042964767
      4564.51       1.4467544     0.042980673
      4569.08       1.4339003     0.042997291
      4573.65       1.4437987     0.043014482
      4578.22       1.4442804     0.043031215
      4582.80       1.4461825     0.043048519
      4587.38       1.4589347     0.043065367
      4591.97       1.4521030     0.043082767
      4596.56       1.4435981     0.043100683
      4601.16       1.4356607     0.043118014
      4605.76       1.4159683     0.043135888
      4610.37       1.4209664     0.043154336
      4614.98       1.4027905     0.042603690
      4619.59       1.3856569     0.042616277
      4624.21       1.3766619     0.042629380
      4628.84       1.3673882     0.042641809
      4633.47       1.3410241     0.042654819
      4638.10       1.3165001     0.042667757
      4642.74       1.3202503     0.042680727
      4647.38       1.3166558     0.042694174
      4652.03       1.3222354     0.042707571
      4656.68       1.3226935     0.042720928
      4661.34       1.2971063     0.042734713
      4666.00       1.2771488     0.042748433
      4670.67       1.2486734     0.042762062
      4675.33       1.2225213     0.042775616
      4680.01       1.2115435     0.042789055
      4684.69       1.1827836     0.042802872
      4689.38       1.1737885     0.042816607
      4694.07       1.1574268     0.042830169
      4698.76       1.1526024     0.042844080
      4703.46       1.1671401     0.042857881
      4708.16       1.1557938     0.042871460
      4712.87       1.1513710     0.042885386
      4717.58       1.1666380     0.042899203
      4722.30       1.1452447     0.042338708
      4727.03       1.1450936     0.042351709
      4731.75       1.1509507     0.042365278
      4736.48       1.1195101     0.042378564
      4741.22       1.1072474     0.042391502
      4745.96       1.1192625     0.042404975
      4750.71       1.1385004     0.042418191
      4755.46       1.1537670     0.042431046
      4760.22       1.1510691     0.042444442
      4764.97       1.1655717     0.042457448
      4769.74       1.1721887     0.042470361
      4774.51       1.1858475     0.042482989
      4779.29       1.1895207     0.042495313
      4784.07       1.2088685     0.042508233
      4788.85       1.2085095     0.042520764
      4793.64       1.2225191     0.042532989
      4798.43       1.2083559     0.042545760
      4803.23       1.2238484     0.042558254
      4808.03       1.2523853     0.042570398
      4812.84       1.2578637     0.042583111
      4817.66       1.2641855     0.042594974
      4822.48       1.2798106     0.042607405
      4827.30       1.2961252     0.042127619
      4832.12       1.2983860     0.042139705
      4836.96       1.2953010     0.042152071
      4841.79       1.2840002     0.042163728
      4846.63       1.2815649     0.042175789
      4851.48       1.2818950     0.042188170
      4856.33       1.2662456     0.042199876
      4861.19       1.2811629     0.042211968
      4866.05       1.2857250     0.042223397
      4870.92       1.2825203     0.042235243
      4875.79       1.2931434     0.042247442
      4880.66       1.2948198     0.042259019
      4885.55       1.2967511     0.042271024
      4890.43       1.2930499     0.042283432
      4895.32       1.2583591     0.042295208
      4900.22       1.2425781     0.042307435
      4905.12       1.2253669     0.042319691
      4910.02       1.1899085     0.042331942
      4914.94       1.1753738     0.042344673
      4919.85       1.1508608     0.042356816
      4924.77       1.1066179     0.042369417
      4929.70       1.1012897     0.042382588
      4934.62       1.1184360     0.042395211
      4939.56       1.1121376     0.042408316
      4944.50       1.0991907     0.041916635
      4949.44       1.0808357     0.041925151
      4954.39       1.0858078     0.041933713
      4959.35       1.0735619     0.041942724
      4964.31       1.0577339     0.041951729
      4969.27       1.0332966     0.041960726
      4974.24       1.0206449     0.041969694
      4979.22      0.99802104     0.041979355
      4984.20      0.99759187     0.041989957
      4989.18      0.99019505     0.042002224
      4994.17      0.99403802     0.042016197
      4999.16      0.99524467     0.042029880
      5004.16      0.96657218     0.042041815
      5009.17      0.95646606     0.042051965
      5014.18      0.94485162     0.042060700
      5019.19      0.91469087     0.041611943
      5024.21      0.90841158     0.041626193
      5029.23      0.89968877     0.042171163
      5034.26      0.90598450     0.042182241
      5039.30      0.89261537     0.042199223
      5044.34      0.88373499     0.042218735
      5049.39      0.88000643     0.042237060
      5054.43      0.87585985     0.042255564
      5059.49      0.86761682     0.042276247
      5064.55      0.86574405     0.042299305
      5069.61      0.85547710     0.042324215
      5074.68      0.86414905     0.042349642
      5079.76      0.86535473     0.042375276
      5084.84      0.90809758     0.041938551
      5089.92      0.92029610     0.041963847
      5095.01      0.94990391     0.041987930
      5100.11      0.97186102     0.042011752
      5105.21      0.99636570     0.042034589
      5110.31       1.0145637     0.042056015
      5115.42       1.0414666     0.042076224
      5120.54       1.0615414     0.042094276
      5125.66       1.0888435     0.042110017
      5130.79       1.1287572     0.042123878
      5135.92       1.1595246     0.042134766
      5141.05       1.1711500     0.041636243
      5146.20       1.1705944     0.042141157
      5151.34       1.1866626     0.042135272
      5156.49       1.1970333     0.042128361
      5161.65       1.2003015     0.042120973
      5166.81       1.2191018     0.042114492
      5171.98       1.2436321     0.042109206
      5177.15       1.2687332     0.042106060
      5182.33       1.2999373     0.042106337
      5187.51       1.2895381     0.042108693
      5192.70       1.2988578     0.041628176
      5197.89       1.2964375     0.041620549
      5203.09       1.2974137     0.041612743
      5208.29       1.3103870     0.041606225
      5213.50       1.3104441     0.041601728
      5218.72       1.3083786     0.041601841
      5223.93       1.3079184     0.041604224
      5229.16       1.3085321     0.042109355
      5234.39       1.3108555     0.042118397
      5239.62       1.3033566     0.041673085
      5244.86       1.3170485     0.041672449
      5250.11       1.3150494     0.041669508
      5255.36       1.3212290     0.041670362
      5260.61       1.3384526     0.041674947
      5265.87       1.3510872     0.041680812
      5271.14       1.3741621     0.041687572
      5276.41       1.4042465     0.041695080
      5281.69       1.4442176     0.041264046
      5286.97       1.4787278     0.041274758
      5292.26       1.5035913     0.041774918
      5297.55       1.5266123     0.041776139
      5302.85       1.5378571     0.041778614
      5308.15       1.5481966     0.041783283
      5313.46       1.5467533     0.041790068
      5318.77       1.5662963     0.041368215
      5324.09       1.5696830     0.041394643
      5329.42       1.5779779     0.041415738
      5334.75       1.5943803     0.041426169
      5340.08       1.5795107     0.041435979
      5345.42       1.5551166     0.041447826
      5350.77       1.5505529     0.041921345
      5356.12       1.5725662     0.041926894
      5361.48       1.5919922     0.041502255
      5366.83       1.5801543     0.041522875
      5372.20       1.5908765     0.041549682
      5377.58       1.6002885     0.041582662
      5382.95       1.5790680     0.041621766
      5388.34       1.5577559     0.041665612
      5393.72       1.5295487     0.041273665
      5399.12       1.5380181     0.041309671
      5404.52       1.5208935     0.041840944
      5409.92       1.5286130     0.041880665
      5415.33       1.5203588     0.041920596
      5420.75       1.4934997     0.041960737
      5426.17       1.4933626     0.041999633
      5431.60       1.4897267     0.041581773
      5437.03       1.5053399     0.041599202
      5442.47       1.5088058     0.041613848
      5447.91       1.4981212     0.041626458
      5453.36       1.5034418     0.042129605
      5458.81       1.4923519     0.042135142
      5464.27       1.5088932     0.041677522
      5469.73       1.5091691     0.041661635
      5475.20       1.5176196     0.041645108
      5480.68       1.5172412     0.041627945
      5486.16       1.5229100     0.041611856
      5491.65       1.5409297     0.041597360
      5497.14       1.5489221     0.041613771
      5502.64       1.5542325     0.041585629
      5508.14       1.5497631     0.041561628
      5513.65       1.5588375     0.041543662
      5519.16       1.5676524     0.041533759
      5524.68       1.5628192     0.041121869
      5530.20       1.5796503     0.041139200
      5535.73       1.5837963     0.041163522
      5541.27       1.5830307     0.041637299
      5546.81       1.5806629     0.041634828
      5552.36       1.5780122     0.041644567
      5557.91       1.5830038     0.041243419
      5563.47       1.5935759     0.041261685
      5569.04       1.5917432     0.041283902
      5574.60       1.5795177     0.041310084
      5580.18       1.5497269     0.041783228
      5585.76       1.5482755     0.041381308
      5591.35       1.5293441     0.041401646
      5596.94       1.5043912     0.041425149
      5602.53       1.4952488     0.041451766
      5608.14       1.4843077     0.041480871
      5613.75       1.4663318     0.041532575
      5619.36       1.4482852     0.041546984
      5624.98       1.4315828     0.041562826
      5630.60       1.4067554     0.041580525
      5636.23       1.3859683     0.041599210
      5641.87       1.3722956     0.041176945
      5647.51       1.3509887     0.041180374
      5653.16       1.3186292     0.041648071
      5658.82       1.2931590     0.041655114
      5664.47       1.2670724     0.041664672
      5670.14       1.2419718     0.041240135
      5675.81       1.2261271     0.041238349
      5681.48       1.2148799     0.041240433
      5687.17       1.1931013     0.041709093
      5692.85       1.1884295     0.041721573
      5698.55       1.1867276     0.041310156
      5704.25       1.1872637     0.041314514
      5709.95       1.1814358     0.041322830
      5715.66       1.1655187     0.041333755
      5721.38       1.1678508     0.041400649
      5727.10       1.1656542     0.041397726
      5732.83       1.1657144     0.041400030
      5738.56       1.1509937     0.041409662
      5744.30       1.1439699     0.041426241
      5750.04       1.1566375     0.041048819
      5755.79       1.1484283     0.041506794
      5761.55       1.1568356     0.041515147
      5767.31       1.1584726     0.041530320
      5773.08       1.1691491     0.041152656
      5778.85       1.1717788     0.041176809
      5784.63       1.1701666     0.041642453
      5790.41       1.1726750     0.041653568
      5796.21       1.1713291     0.041270228
      5802.00       1.1874537     0.041290093
      5807.81       1.1893536     0.041314724
      5813.61       1.1798060     0.041778019
      5819.43       1.1678117     0.041799863
      5825.25       1.1595584     0.041552539
      5831.07       1.1550479     0.041666590
      5836.90       1.1518624     0.041720293
      5842.74       1.1551079     0.042132534
      5848.58       1.1554450     0.041739949
      5854.43       1.1500860     0.041747432
      5860.29       1.1425935     0.041766206
      5866.15       1.1244843     0.041804860
      5872.01       1.1224060     0.041941607
      5877.89       1.0977272     0.042047460
      5883.76       1.1010695     0.042186154
      5889.65       1.0862894     0.042353409
      5895.54       1.0758720     0.042238417
      5901.43       1.0753830     0.042927985
      5907.34       1.0755891     0.043135396
      5913.24       1.0853112     0.043056186
      5919.16       1.0797463     0.043247984
      5925.08       1.0759873     0.043443859
      5931.00       1.0575386     0.044188214
      5936.93       1.0604891     0.044018247
      5942.87       1.0432545     0.044152744
      5948.81       1.0479880     0.044271408
      5954.76       1.0468714     0.044925648
      5960.72       1.0442388     0.044534144
      5966.68       1.0356739     0.044546143
      5972.64       1.0261031     0.044539088
      5978.62       1.0327806     0.044056478
      5984.60       1.0379672     0.044433655
      5990.58       1.0438532     0.044335321
      5996.57       1.0390043     0.044225633
      6002.57       1.0384054     0.043661769
      6008.57       1.0257605     0.043883610
      6014.58       1.0117309     0.043737663
      6020.60       1.0193010     0.043600856
      6026.62       1.0164559     0.043063883
      6032.65       1.0141894     0.043313025
      6038.68      0.99377751     0.043241206
      6044.72      0.99236731     0.042807373
      6050.76       1.0010543     0.042831210
      6056.81       1.0092357     0.042908728
      6062.87       1.0302314     0.042981651
      6068.93       1.0315670     0.042925936
      6075.00       1.0332636     0.042906400
      6081.08       1.0279490     0.042933792
      6087.16       1.0296212     0.042974999
      6093.25       1.0282028     0.042988200
      6099.34       1.0296669     0.043008666
      6105.44       1.0340359     0.042591071
      6111.54       1.0161270     0.043035687
      6117.66       1.0218301     0.043028887
      6123.78       1.0116066     0.042622467
      6129.90       1.0156817     0.042661642
      6136.03       1.0262063     0.043183722
      6142.17       1.0249928     0.043291813
      6148.31       1.0151238     0.043071159
      6154.46      0.99715875     0.043676436
      6160.61       1.0023860     0.043825582
      6166.77      0.97131242     0.043671222
      6172.94      0.95888733     0.043828443
      6179.11      0.93210506     0.044506022
      6185.29      0.94231870     0.044379775
      6191.48      0.93136784     0.044549686
      6197.67      0.91725450     0.044728423
      6203.87      0.91647577     0.045126003
      6210.07      0.91198508     0.045283175
      6216.28      0.90357989     0.045442012
      6222.50      0.89533357     0.045228215
      6228.72      0.87617753     0.045927158
      6234.95      0.86475246     0.046053398
      6241.19      0.85759199     0.045786243
      6247.42      0.84647286     0.046415363
      6253.67      0.86745610     0.046481766
      6259.93      0.86126982     0.046122980
      6266.19      0.86486576     0.046166015
      6272.46      0.87874633     0.046632934
      6278.73      0.91432106     0.046195467
      6285.01      0.92704845     0.046178887
      6291.29      0.95118059     0.046562431
      6297.58      0.96465116     0.046088376
      6303.88      0.99468580     0.046052089
      6310.19       1.0184147     0.046028527
      6316.50       1.0405612     0.045992525
      6322.81       1.0561757     0.045990191
      6329.14       1.0836967     0.045993980
      6335.47       1.0890496     0.045943994
      6341.80       1.0971156     0.045894008
      6348.14       1.1121499     0.045839034
      6354.49       1.1086401     0.045700501
      6360.85       1.1249584     0.045634627
      6367.21       1.1371139     0.045165286
      6373.57       1.1412989     0.045152342
      6379.95       1.1526739     0.045629762
      6386.33       1.1447983     0.045237048
      6392.72       1.1653011     0.045235594
      6399.11       1.1702060     0.045685374
      6405.51       1.1796631     0.045321648
      6411.92       1.1900855     0.045352355
      6418.32       1.2110812     0.045855097
      6424.74       1.2242918     0.045518802
      6431.17       1.2290152     0.045572066
      6437.60       1.2093817     0.045863213
      6444.04       1.2171855     0.046095741
      6450.48       1.2282777     0.046381616
      6456.94       1.2100899     0.046861182
      6463.39       1.2014200     0.046893659
      6469.85       1.2125329     0.046921378
      6476.33       1.2132401     0.047118807
      6482.80       1.2353887     0.047159418
      6489.28       1.2441200     0.046897351
      6495.77       1.2640341     0.047568948
      6502.27       1.2773299     0.047835610
      6508.77       1.2705975     0.048039359
      6515.28       1.2973384     0.049346001
      6521.80       1.3055478     0.049848510
      6528.32       1.3017849     0.050568517
      6534.85       1.2875433     0.052308988
      6541.38       1.2959357     0.052972841
      6547.92       1.2849307     0.053823836
      6554.47       1.2868670     0.055538165
      6561.03       1.2828435     0.056370195
      6567.59       1.2729594     0.057184144
      6574.16       1.2390998     0.058662497
      6580.73       1.2290675     0.059300676
      6587.31       1.2159564     0.059348919
      6593.90       1.2138565     0.060672287
      6600.50       1.2293762     0.060913169
      6607.10       1.2361665     0.060206384
      6613.70       1.2415898     0.060918018
      6620.32       1.2682207     0.059727795
      6626.94       1.2859447     0.059951887
      6633.57       1.2957724     0.059459095
      6640.20       1.3020300     0.057892909
      6646.84       1.3380211     0.057674194
      6653.49       1.3299771     0.056091709
      6660.14       1.3191362     0.055459747
      6666.80       1.2975107     0.054329774
      6673.47       1.2619135     0.053784639
      6680.14       1.2383585     0.053320714
      6686.82       1.2273005     0.052777874
      6693.51       1.2155744     0.052761482
      6700.20       1.2077810     0.053594746
      6706.90       1.2090441     0.053802338
      6713.61       1.2025477     0.053227384
      6720.32       1.1895520     0.053658698
      6727.05       1.1901305     0.053745305
      6733.77       1.1618050     0.053372055
      6740.51       1.1466493     0.053857189
      6747.25       1.1181412     0.053409830
      6754.00       1.1061728     0.053896473
      6760.75       1.0711516     0.053569483
      6767.51       1.0441614     0.053676994
      6774.28       1.0431367     0.053967020
      6781.05       1.0203288     0.054131633
      6787.84      0.98945261     0.054887373
      6794.62      0.99003072     0.054710036
      6801.42      0.95954357     0.054920379
      6808.22      0.93019210     0.055343916
      6815.03      0.93397391     0.055559674
      6821.85      0.93081886     0.056004964
      6828.67      0.92617570     0.056218492
      6835.50      0.90096950     0.056059693
      6842.33      0.90700175     0.056894747
      6849.17      0.92182661     0.056749120
      6856.02      0.93829515     0.057594008
      6862.88      0.93823242     0.057829522
      6869.74      0.94040637     0.057670085
      6876.61      0.92610591     0.058546202
      6883.49      0.92989469     0.058392008
      6890.37      0.93316092     0.059278452
      6897.27      0.92510733     0.059141026
      6904.16      0.92885182     0.059380645
      6911.07      0.94011517     0.059923112
      6917.98      0.91524284     0.060163909
      6924.89      0.90516688     0.060729710
      6931.82      0.88894657     0.060964408
      6938.75      0.89321339     0.061532105
      6945.69      0.89786544     0.061768826
      6952.64      0.90099187     0.061673478
      6959.59      0.88887643     0.062645633
      6966.55      0.89691121     0.062590474
      6973.52      0.91603357     0.063680360
      6980.49      0.91451460     0.063777060
      6987.47      0.89675141     0.064941435
      6994.46      0.90675171     0.064962423
      7001.46      0.89016976     0.065378753
      7008.46      0.89164146     0.066289714
      7015.46      0.89636101     0.066773832
      7022.48      0.90719184     0.067798417
      7029.51      0.91779522     0.068297356
      7036.53      0.93278780     0.069308923
      7043.57      0.95245979     0.069800711
      7050.62      0.95115002     0.069941894
      7057.66      0.94351517     0.071294199
      7064.72      0.95839324     0.071372152
      7071.79      0.94895357     0.072679690
      7078.86      0.97749890     0.072659647
      7085.94      0.96635629     0.073908750
      7093.03      0.95528987     0.073797738
      7100.12      0.98004883     0.074968415
      7107.22      0.98294960     0.074756559
      7114.33      0.99114501     0.075852304
      7121.44       1.0042598     0.075553223
      7128.56      0.97047302     0.075765998
      7135.69      0.97551152     0.076217945
      7142.83      0.97951309     0.076394179
      7149.97      0.98113300     0.076798747
      7157.12      0.98237743     0.076967536
      7164.28       1.0077946     0.077390694
      7171.44      0.99148994     0.077579977
      7178.62       1.0017615     0.078037551
      7185.80      0.97928499     0.078224623
      7192.98      0.94036231     0.078652001
      7200.17      0.93880038     0.078253343
      7207.38      0.92518109     0.079116499
      7214.58      0.93451746     0.078671045
      7221.80      0.91198565     0.079495274
      7229.02      0.92844070     0.079054059
      7236.25      0.94597702     0.079905381
      7243.49      0.95268979     0.079532137
      7250.73      0.94521538     0.080583454
      7257.98      0.94805316     0.080214315
      7265.24      0.93774457     0.081006864
      7272.51      0.93765394     0.080558318
      7279.78      0.91599344     0.080940822
      7287.06      0.90583395     0.081145786
      7294.35      0.90098102     0.081622306
      7301.64      0.89712588     0.081852954
      7308.94      0.90369057     0.082294377
      7316.25      0.86807538     0.082496656
      7323.57      0.87656823     0.082929536
      7330.89      0.86984326     0.083150450
      7338.22      0.86555000     0.083595241
      7345.56      0.87223675     0.083239243
      7352.91      0.86542943     0.084217218
      7360.26      0.84386654     0.083835951
      7367.62      0.81111758     0.084832766
      7374.99      0.83555846     0.084434080
      7382.37      0.84701828     0.085426942
      7389.75      0.84203009     0.084997713
      7397.14      0.81141994     0.085397804
      7404.53      0.79844518     0.085536933
      7411.94      0.75812454     0.085917582
      7419.35      0.78232988     0.086051994
      7426.77      0.76121661     0.086395055
      7434.20      0.74829357     0.085917208
      7441.63      0.75086818     0.086834382
      7449.07      0.77033240     0.086338994
      7456.52      0.74622279     0.087230156
      7463.98      0.75326018     0.086722712
      7471.45      0.70348986     0.087594468
      7478.92      0.72289727     0.087070401
      7486.40      0.69568900     0.087274240
      7493.88      0.70334710     0.087374799
      7501.38      0.68155627     0.087535921
      7508.88      0.66600980     0.088356750
      7516.39      0.67679794     0.087748078
      7523.91      0.68942272     0.087867956
      7531.43      0.72088515     0.087914343
      7538.96      0.71943783     0.087986336
      7546.50      0.72769155     0.087314844
      7554.05      0.72873772     0.088043392
      7561.60      0.76754040     0.087341258
      7569.16      0.77479978     0.088060111
      7576.73      0.82148734     0.087339973
      7584.31      0.82570922     0.087350097
      7591.89      0.85101788     0.088038478
      7599.49      0.86714117     0.087337642
      7607.09      0.84122287     0.088037313
      7614.70      0.83492276     0.087268030
      7622.31      0.86127000     0.087236219
      7629.93      0.85579127     0.087169788
      7637.56      0.82260730     0.087030028
      7645.20      0.78400897     0.086875553
      7652.85      0.79898915     0.086738027
      7660.50      0.83622552     0.086570516
      7668.16      0.84468093     0.085749808
      7675.83      0.83306362     0.086386523
      7683.50      0.83533138     0.085765517
      7691.19      0.83668970     0.086540569
      7698.88      0.84658445     0.086787651
      7706.58      0.84294266     0.086237759
      7714.29      0.85576155     0.087023743
      7722.00      0.89014554     0.086371643
      7729.73      0.91280377     0.086360493
      7737.45      0.94935340     0.086344226
      7745.19      0.94776800     0.086310643
      7752.94      0.93572810     0.086194858
      7760.69      0.96023769     0.086078468
      7768.45      0.93887438     0.085801434
      7776.22      0.96053051     0.084773955
      7784.00      0.92045845     0.085143037
      7791.78      0.98577205     0.084534428
      7799.57       1.0185885     0.083234469
      7807.37       1.0477040     0.083332731
      7815.18       1.0813750     0.081992944
      7822.99       1.1150110     0.081103925
      7830.82       1.1247057     0.081027123
      7838.65       1.0564015     0.079554355
      7846.49       1.0469592     0.079372962
      7854.34       1.0532993     0.079758309
      7862.19       1.0690415     0.080605927
      7870.05       1.0557732     0.081553404
      7877.93       1.0481355     0.082640716
      7885.80      0.99220652     0.084023170
      7893.69      0.96383590     0.085696080
      7901.58      0.92370561     0.086920962
      7909.49      0.86660382     0.089216325
