# starting wavelength =        3159.2000
# ending wavelength =        7957.2900
# O2 telluric scale =       0.29952113
# O2 telluric shift =        2.6244111
# H2O telluric scale =        0
# H2O telluric shift =        0
      3159.70       1.9770323     0.056843789
      3162.86       1.9561448     0.048984039
      3166.03       1.9363946     0.037104646
      3169.19       1.9176272     0.035795008
      3172.36       1.9019213     0.031518929
      3175.54       1.8843506     0.025856542
      3178.71       1.8659317     0.025398764
      3181.89       1.8502759     0.023238545
      3185.07       1.8372512     0.020604288
      3188.26       1.8254574     0.020318078
      3191.45       1.8124981     0.019310819
      3194.64       1.7965408     0.018047247
      3197.83       1.7849357     0.017640162
      3201.03       1.7730268     0.017313127
      3204.23       1.7637859     0.016640721
      3207.44       1.7546551     0.016492736
      3210.64       1.7398534     0.016155596
      3213.85       1.7346674     0.015748539
      3217.07       1.7286903     0.015728957
      3220.28       1.7320726     0.015708236
      3223.51       1.7245500     0.015382041
      3226.73       1.7207092     0.015684062
      3229.96       1.7231888     0.015662458
      3233.19       1.7240650     0.015336371
      3236.42       1.7261913     0.015639855
      3239.66       1.7221725     0.015616497
      3242.90       1.7126113     0.015916078
      3246.14       1.7175826     0.015595129
      3249.39       1.7217525     0.015569886
      3252.64       1.7197476     0.015866209
      3255.89       1.7278091     0.015550119
      3259.14       1.7362791     0.015522742
      3262.40       1.7491243     0.015816204
      3265.67       1.7560648     0.015818460
      3268.93       1.7509365     0.015476400
      3272.20       1.7570370     0.015766373
      3275.47       1.7614780     0.015765443
      3278.75       1.7728986     0.015780397
      3282.03       1.7759022     0.015715959
      3285.31       1.7801555     0.015711657
      3288.60       1.7822431     0.015722686
      3291.88       1.7845027     0.015665310
      3295.18       1.7858912     0.015657968
      3298.47       1.7895066     0.015665265
      3301.77       1.7904157     0.015969068
      3305.07       1.7902798     0.015604729
      3308.38       1.7879956     0.015947800
      3311.69       1.7886870     0.015918293
      3315.00       1.7876600     0.015551177
      3318.31       1.7866791     0.015901473
      3321.63       1.7904635     0.015867501
      3324.95       1.7975809     0.015848878
      3328.28       1.7975914     0.015856509
      3331.61       1.7961006     0.015818513
      3334.94       1.7994198     0.015795004
      3338.27       1.8022289     0.016124869
      3341.61       1.7950279     0.015770050
      3344.95       1.7921513     0.015741489
      3348.30       1.7908357     0.016064753
      3351.65       1.7914282     0.016068476
      3355.00       1.7868962     0.015689720
      3358.35       1.7863780     0.016006085
      3361.71       1.7817405     0.016003264
      3365.07       1.7758399     0.016017551
      3368.44       1.7730540     0.015949374
      3371.81       1.7637006     0.015939632
      3375.18       1.7484271     0.015946474
      3378.56       1.7528720     0.016291527
      3381.94       1.7515957     0.015878135
      3385.32       1.7486429     0.015877738
      3388.70       1.7412338     0.016237580
      3392.09       1.7356937     0.015818805
      3395.48       1.7397543     0.015811139
      3398.88       1.7367676     0.016186583
      3402.28       1.7462035     0.016156001
      3405.68       1.7582470     0.015747022
      3409.09       1.7631111     0.016139023
      3412.49       1.7727546     0.016100969
      3415.91       1.7866867     0.016077852
      3419.32       1.8041142     0.016447860
      3422.74       1.8134576     0.016049446
      3426.17       1.8237314     0.016017947
      3429.59       1.8374976     0.016375503
      3433.02       1.8655497     0.016380367
      3436.45       1.8752161     0.015963220
      3439.89       1.8773063     0.015938865
      3443.33       1.8932769     0.016303209
      3446.78       1.9082081     0.016314831
      3450.22       1.9191095     0.015879368
      3453.67       1.9341795     0.016231079
      3457.13       1.9475683     0.016231030
      3460.58       1.9612163     0.016249489
      3464.04       1.9735673     0.016164857
      3467.51       1.9832358     0.016153978
      3470.98       1.9871348     0.016160023
      3474.45       2.0000783     0.016555309
      3477.92       2.0078972     0.016083204
      3481.40       2.0175134     0.016077467
      3484.88       2.0242905     0.016501756
      3488.37       2.0330375     0.016465986
      3491.86       2.0491960     0.016448652
      3495.35       2.0613549     0.016456597
      3498.84       2.0811732     0.016409750
      3502.34       2.0907228     0.016379362
      3505.84       2.1084779     0.016366940
      3509.35       2.1153613     0.016362734
      3512.86       2.1227676     0.016319047
      3516.37       2.1265610     0.016293205
      3519.89       2.1378255     0.016701489
      3523.41       2.1329956     0.016715458
      3526.93       2.1258003     0.016229077
      3530.46       2.1275085     0.016619399
      3533.99       2.1351184     0.016616681
      3537.53       2.1398036     0.016633875
      3541.06       2.1419444     0.017073183
      3544.60       2.1352996     0.016530503
      3548.15       2.1385180     0.016529237
      3551.70       2.1502856     0.016548717
      3555.25       2.1429291     0.016978721
      3558.80       2.1407978     0.016440485
      3562.36       2.1363887     0.016441447
      3565.92       2.1359250     0.016921106
      3569.49       2.1294320     0.016885183
      3573.06       2.1385014     0.016867350
      3576.64       2.1415903     0.016882069
      3580.21       2.1524094     0.016825873
      3583.79       2.1549514     0.016789538
      3587.38       2.1627154     0.016772666
      3590.96       2.1597264     0.017256689
      3594.55       2.1584347     0.016732056
      3598.15       2.1560946     0.016694822
      3601.75       2.1583366     0.017148285
      3605.35       2.1584836     0.017155467
      3608.96       2.1647205     0.017186796
      3612.56       2.1758067     0.016598848
      3616.18       2.1772146     0.017047597
      3619.79       2.1777462     0.017051648
      3623.41       2.1888340     0.017080979
      3627.04       2.1986567     0.017585041
      3630.66       2.1997347     0.016947482
      3634.29       2.1863552     0.016948264
      3637.93       2.1820523     0.017533621
      3641.57       2.1705888     0.017484657
      3645.21       2.1603470     0.017459051
      3648.86       2.1633288     0.016841658
      3652.50       2.1609883     0.017439217
      3656.16       2.1550543     0.017384922
      3659.81       2.1449025     0.017353413
      3663.47       2.1413270     0.016734768
      3667.14       2.1321996     0.016744727
      3670.80       2.1240887     0.017287800
      3674.48       2.1053387     0.017250058
      3678.15       2.0885865     0.016627442
      3681.83       2.0804233     0.016631493
      3685.51       2.0784189     0.017193753
      3689.20       2.0666114     0.017149398
      3692.88       2.0441632     0.017124029
      3696.58       2.0263322     0.016517731
      3700.27       2.0065828     0.016531316
      3703.98       1.9871760     0.017049768
      3707.68       1.9732393     0.017016714
      3711.39       1.9630248     0.016405479
      3715.10       1.9567079     0.016411189
      3718.81       1.9565306     0.016435397
      3722.53       1.9450576     0.016915664
      3726.26       1.9450695     0.016298851
      3729.98       1.9431534     0.016293168
      3733.71       1.9464349     0.016305155
      3737.45       1.9420440     0.016817880
      3741.18       1.9330086     0.016783823
      3744.93       1.9247538     0.016178488
      3748.67       1.9193851     0.016180219
      3752.42       1.9183304     0.016198764
      3756.17       1.9085060     0.016683012
      3759.93       1.9007194     0.016070470
      3763.69       1.8812643     0.016060593
      3767.45       1.8598294     0.016065622
      3771.22       1.8375578     0.016089165
      3774.99       1.8270979     0.016551208
      3778.77       1.8213891     0.015947482
      3782.54       1.7994420     0.015941099
      3786.33       1.7853411     0.015949670
      3790.11       1.7819121     0.015974431
      3793.90       1.7830857     0.015844455
      3797.70       1.7917280     0.015825214
      3801.50       1.7997040     0.015819237
      3805.30       1.8148805     0.015830086
      3809.10       1.8252394     0.015856321
      3812.91       1.8348485     0.015720258
      3816.73       1.8522249     0.015701393
      3820.54       1.8726533     0.015696096
      3824.36       1.8938224     0.015705178
      3828.19       1.9040600     0.015730802
      3832.02       1.9170644     0.015595438
      3835.85       1.9279147     0.015575433
      3839.68       1.9425117     0.015570621
      3843.52       1.9516140     0.015579016
      3847.37       1.9549629     0.015601725
      3851.22       1.9538315     0.015049289
      3855.07       1.9476397     0.015451276
      3858.92       1.9477751     0.015442441
      3862.78       1.9536430     0.015448169
      3866.64       1.9623948     0.015466381
      3870.51       1.9698946     0.014929386
      3874.38       1.9745455     0.015325803
      3878.26       1.9843019     0.015314266
      3882.13       1.9917773     0.015314435
      3886.02       1.9980408     0.015328615
      3889.90       1.9991594     0.014812074
      3893.79       2.0107046     0.014784903
      3897.69       2.0107282     0.015185476
      3901.59       2.0092155     0.015181053
      3905.49       2.0158643     0.015188460
      3909.39       2.0030767     0.014698376
      3913.30       2.0044339     0.014666404
      3917.22       1.9922062     0.015056828
      3921.13       1.9778756     0.015046987
      3925.06       1.9616608     0.015046905
      3928.98       1.9348535     0.015059690
      3932.91       1.9284604     0.014552925
      3936.84       1.9171804     0.014525413
      3940.78       1.9052221     0.014917043
      3944.72       1.8955716     0.014909688
      3948.67       1.8873545     0.014912407
      3952.61       1.8779421     0.014443349
      3956.57       1.8663302     0.014410684
      3960.52       1.8535598     0.014385987
      3964.48       1.8470037     0.014775870
      3968.45       1.8472315     0.014770195
      3972.42       1.8317300     0.014773965
      3976.39       1.8239328     0.014303197
      3980.37       1.8137526     0.014271902
      3984.35       1.7978579     0.014248110
      3988.33       1.8001189     0.014231543
      3992.32       1.7960234     0.014628149
      3996.31       1.7936550     0.014205163
      4000.31       1.7912998     0.014167702
      4004.31       1.7945473     0.014135901
      4008.31       1.8008634     0.014111729
      4012.32       1.8047551     0.014094266
      4016.33       1.8112177     0.014484679
      4020.35       1.8186469     0.014073845
      4024.37       1.8313734     0.014035859
      4028.40       1.8499777     0.014003197
      4032.42       1.8727489     0.013977933
      4036.46       1.8850092     0.013957730
      4040.50       1.8960217     0.013944772
      4044.54       1.8989835     0.013948739
      4048.58       1.8972574     0.013908309
      4052.63       1.8980292     0.013874241
      4056.68       1.8907201     0.013847090
      4060.74       1.8795690     0.013824596
      4064.80       1.8776648     0.013808849
      4068.86       1.8715577     0.013797535
      4072.93       1.8639537     0.013789668
      4077.01       1.8536210     0.013752492
      4081.08       1.8410622     0.013721172
      4085.17       1.8187401     0.013695410
      4089.25       1.8015701     0.013675677
      4093.34       1.7873197     0.013659913
      4097.43       1.7809222     0.013230190
      4101.53       1.7740005     0.013639371
      4105.63       1.7674639     0.013603985
      4109.74       1.7537134     0.013573780
      4113.85       1.7399632     0.013548690
      4117.96       1.7296983     0.013528609
      4122.08       1.7188432     0.013513930
      4126.20       1.7144267     0.013087590
      4130.33       1.7124773     0.013080578
      4134.46       1.7063013     0.013463151
      4138.59       1.7050953     0.013432778
      4142.73       1.7106879     0.013407065
      4146.88       1.7148988     0.013386541
      4151.02       1.7119522     0.013369322
      4155.18       1.7121602     0.012945830
      4159.33       1.7133776     0.012936930
      4163.49       1.7171464     0.012931658
      4167.65       1.7113957     0.013299363
      4171.82       1.7094165     0.013271914
      4175.99       1.7052445     0.013248692
      4180.17       1.6877059     0.013230198
      4184.35       1.6727229     0.012808320
      4188.54       1.6627912     0.012796354
      4192.72       1.6596202     0.012788061
      4196.92       1.6499788     0.012782931
      4201.11       1.6435085     0.012781198
      4205.31       1.6376492     0.013121247
      4209.52       1.6362222     0.013098599
      4213.73       1.6345385     0.013080122
      4217.94       1.6319779     0.012662301
      4222.16       1.6327152     0.012649482
      4226.38       1.6336446     0.012639762
      4230.61       1.6290182     0.012633845
      4234.84       1.6231016     0.012630255
      4239.08       1.6184368     0.012630684
      4243.32       1.6167951     0.012956843
      4247.56       1.6013254     0.012937215
      4251.81       1.5861413     0.012522125
      4256.06       1.5754996     0.012507552
      4260.32       1.5579061     0.012495751
      4264.58       1.5408746     0.012487279
      4268.84       1.5384090     0.012481256
      4273.11       1.5314444     0.012477847
      4277.38       1.5233883     0.012476803
      4281.66       1.5167743     0.012478305
      4285.94       1.5139203     0.012784479
      4290.23       1.5163926     0.012373830
      4294.52       1.5100056     0.012359215
      4298.81       1.5045815     0.012347523
      4303.11       1.5040974     0.012338017
      4307.42       1.5068705     0.012330671
      4311.72       1.5030965     0.012325242
      4316.04       1.4968390     0.012322013
      4320.35       1.4951718     0.012320840
      4324.67       1.4899507     0.012321584
      4329.00       1.4887192     0.011937034
      4333.33       1.4853941     0.011922203
      4337.66       1.4892772     0.012208144
      4342.00       1.4868809     0.012196325
      4346.34       1.4950935     0.012185891
      4350.69       1.5057740     0.012177303
      4355.04       1.5058895     0.012171260
      4359.39       1.5064759     0.012166280
      4363.75       1.5204325     0.012163821
      4368.12       1.5277947     0.012162857
      4372.48       1.5330973     0.011802651
      4376.86       1.5308363     0.011787267
      4381.23       1.5305289     0.011772452
      4385.61       1.5398834     0.011759521
      4390.00       1.5468644     0.012043261
      4394.39       1.5502500     0.012033370
      4398.79       1.5455538     0.012024713
      4403.18       1.5461150     0.012017476
      4407.59       1.5444498     0.012011585
      4412.00       1.5420131     0.012006770
      4416.41       1.5476385     0.012003329
      4420.82       1.5619001     0.011670570
      4425.25       1.5728599     0.011655607
      4429.67       1.5822534     0.011641083
      4434.10       1.5888325     0.011628236
      4438.54       1.5908274     0.011615707
      4442.97       1.5982714     0.011604802
      4447.42       1.6133448     0.011594136
      4451.86       1.6165663     0.011584902
      4456.32       1.6252577     0.011577187
      4460.77       1.6290781     0.011860588
      4465.24       1.6301901     0.011854660
      4469.70       1.6368172     0.011849363
      4474.17       1.6378638     0.011844921
      4478.65       1.6356730     0.011535881
      4483.12       1.6234964     0.011522057
      4487.61       1.6177091     0.011508439
      4492.09       1.6109171     0.011496221
      4496.59       1.6074375     0.011484136
      4501.08       1.6132020     0.011473418
      4505.58       1.6192733     0.011462678
      4510.09       1.6158037     0.011453231
      4514.60       1.6118572     0.011445030
      4519.12       1.6096659     0.011436721
      4523.63       1.6049101     0.011429629
      4528.16       1.6004637     0.011422510
      4532.69       1.6056926     0.011416478
      4537.22       1.6035681     0.011410399
      4541.76       1.6011504     0.011405230
      4546.30       1.5933323     0.011401230
      4550.85       1.5926518     0.011080511
      4555.40       1.5888731     0.011391760
      4559.95       1.5900757     0.011380885
      4564.51       1.5838524     0.011369719
      4569.08       1.5724712     0.011359747
      4573.65       1.5631518     0.011350699
      4578.22       1.5538106     0.011341544
      4582.80       1.5409702     0.011333395
      4587.38       1.5375857     0.011325075
      4591.97       1.5316650     0.011317836
      4596.56       1.5225172     0.011310295
      4601.16       1.5136635     0.011303623
      4605.76       1.5032279     0.011298068
      4610.37       1.4952252     0.011292094
      4614.98       1.4836309     0.011287082
      4619.59       1.4777540     0.011281737
      4624.21       1.4657872     0.011277291
      4628.84       1.4535670     0.011272461
      4633.47       1.4491700     0.011268377
      4638.10       1.4547474     0.011265153
      4642.74       1.4586077     0.011261357
      4647.38       1.4591204     0.010944990
      4652.03       1.4613070     0.010941809
      4656.68       1.4530176     0.010938828
      4661.34       1.4499509     0.010935914
      4666.00       1.4447014     0.010933899
      4670.67       1.4423108     0.010931792
      4675.33       1.4349684     0.010929987
      4680.01       1.4370492     0.010928187
      4684.69       1.4363347     0.010926455
      4689.38       1.4308068     0.010924799
      4694.07       1.4205885     0.010923535
      4698.76       1.4092465     0.010922518
      4703.46       1.3973515     0.010921426
      4708.16       1.3866000     0.010920574
      4712.87       1.3754575     0.010919791
      4717.58       1.3629389     0.010919065
      4722.30       1.3569596     0.010918349
      4727.03       1.3509982     0.010918042
      4731.75       1.3422076     0.010917903
      4736.48       1.3317672     0.010917806
      4741.22       1.3292088     0.010917776
      4745.96       1.3214633     0.010917759
      4750.71       1.3142805     0.010917892
      4755.46       1.3073072     0.010917908
      4760.22       1.3043871     0.010918282
      4764.97       1.2927719     0.010918812
      4769.74       1.2992696     0.010919206
      4774.51       1.2907347     0.010919659
      4779.29       1.2787291     0.010920032
      4784.07       1.2729339     0.010920793
      4788.85       1.2736860     0.010921665
      4793.64       1.2644782     0.010922477
      4798.43       1.2571627     0.010923417
      4803.23       1.2489004     0.010924398
      4808.03       1.2386157     0.010925422
      4812.84       1.2263206     0.010926430
      4817.66       1.2154466     0.010927868
      4822.48       1.2027338     0.010929422
      4827.30       1.1924759     0.010931042
      4832.12       1.1880943     0.010932741
      4836.96       1.1856900     0.010934483
      4841.79       1.1796700     0.010936379
      4846.63       1.1772668     0.010938229
      4851.48       1.1791557     0.010940468
      4856.33       1.1786950     0.010942930
      4861.19       1.1772423     0.010945346
      4866.05       1.1777785     0.010947853
      4870.92       1.1825713     0.010950427
      4875.79       1.1914618     0.010953028
      4880.66       1.1924349     0.010956552
      4885.55       1.1847023     0.010959965
      4890.43       1.1867519     0.010963648
      4895.32       1.1868274     0.010967441
      4900.22       1.1834125     0.010971314
      4905.12       1.1764506     0.010975371
      4910.02       1.1609567     0.010742336
      4914.94       1.1577152     0.010747450
      4919.85       1.1456573     0.010752382
      4924.77       1.1383263     0.010758013
      4929.70       1.1372114     0.010763425
      4934.62       1.1276374     0.010769678
      4939.56       1.1216001     0.010776007
      4944.50       1.1244088     0.010782522
      4949.44       1.1239702     0.010789855
      4954.39       1.1245294     0.010797031
      4959.35       1.1283941     0.010805078
      4964.31       1.1299762     0.010812985
      4969.27       1.1349125     0.010821753
      4974.24       1.1442192     0.010830778
      4979.22       1.1556437     0.010840013
      4984.20       1.1600435     0.010850230
      4989.18       1.1665335     0.010860351
      4994.17       1.1715267     0.010871376
      4999.16       1.1741229     0.010882421
      5004.16       1.1726352     0.010894336
      5009.17       1.1732840     0.010907329
      5014.18       1.1781778     0.010925014
      5019.19       1.1842328     0.010931857
      5024.21       1.1921427     0.010939789
      5029.23       1.1876988     0.010948105
      5034.26       1.1920748     0.010957303
      5039.30       1.2010413     0.010968126
      5044.34       1.1981014     0.010979141
      5049.39       1.1970530     0.010990629
      5054.43       1.1952572     0.011002398
      5059.49       1.2000653     0.011016145
      5064.55       1.2065765     0.011032540
      5069.61       1.2178890     0.011052701
      5074.68       1.2211997     0.011076308
      5079.76       1.2176280     0.011100241
      5084.84       1.2224281     0.011125698
      5089.92       1.2309209     0.010896674
      5095.01       1.2370633     0.010913580
      5100.11       1.2466976     0.010927612
      5105.21       1.2570217     0.010941150
      5110.31       1.2659885     0.010954181
      5115.42       1.2743866     0.011257547
      5120.54       1.2766280     0.011267677
      5125.66       1.2663974     0.011278381
      5130.79       1.2630574     0.011290917
      5135.92       1.2561749     0.011304590
      5141.05       1.2432358     0.011319225
      5146.20       1.2387556     0.011332820
      5151.34       1.2288224     0.011095452
      5156.49       1.2254872     0.011097654
      5161.65       1.2167449     0.011101110
      5166.81       1.2117596     0.011106055
      5171.98       1.2062008     0.011110895
      5177.15       1.1999945     0.011115153
      5182.33       1.2011538     0.011121245
      5187.51       1.2017873     0.011131609
      5192.70       1.2048882     0.011436367
      5197.89       1.1984801     0.011447745
      5203.09       1.1822718     0.011231521
      5208.29       1.1766018     0.011236715
      5213.50       1.1669624     0.011243221
      5218.72       1.1573292     0.011251484
      5223.93       1.1442286     0.011260774
      5229.16       1.1382843     0.011272246
      5234.39       1.1258346     0.011285351
      5239.62       1.1175214     0.011299446
      5244.86       1.1070117     0.011315423
      5250.11       1.0984649     0.011332127
      5255.36       1.0911356     0.011428948
      5260.61       1.0841073     0.011435893
      5265.87       1.0853429     0.011444406
      5271.14       1.0934184     0.011454279
      5276.41       1.1008138     0.011466040
      5281.69       1.1040903     0.011478694
      5286.97       1.1092131     0.011493278
      5292.26       1.1099986     0.011509558
      5297.55       1.1161299     0.011527246
      5302.85       1.1219713     0.011324740
      5308.15       1.1255231     0.011345539
      5313.46       1.1388764     0.011648854
      5318.77       1.1436754     0.011658627
      5324.09       1.1424831     0.011670371
      5329.42       1.1387560     0.011683769
      5334.75       1.1294014     0.011699485
      5340.08       1.1217588     0.011716361
      5345.42       1.1110614     0.011510238
      5350.77       1.1008715     0.011531478
      5356.12       1.0889953     0.011554041
      5361.48       1.0801589     0.011857778
      5366.83       1.0755326     0.011869419
      5372.20       1.0730385     0.011883560
      5377.58       1.0697929     0.011903076
      5382.95       1.0691129     0.011698590
      5388.34       1.0707766     0.011717492
      5393.72       1.0609070     0.011744226
      5399.12       1.0552893     0.011778105
      5404.52       1.0480192     0.011819110
      5409.92       1.0448368     0.012146246
      5415.33       1.0421998     0.012186780
      5420.75       1.0310965     0.012002786
      5426.17       1.0248662     0.012045440
      5431.60       1.0200964     0.012086393
      5437.03       1.0148164     0.012123929
      5442.47       1.0068742     0.012157370
      5447.91       1.0028320     0.012185350
      5453.36      0.99522089     0.012461730
      5458.81      0.99776125     0.012212547
      5464.27       1.0024075     0.012210529
      5469.73       1.0065957     0.012212218
      5475.20       1.0111482     0.012221953
      5480.68       1.0152452     0.012240187
      5486.16       1.0230280     0.012261797
      5491.65       1.0255370     0.012288459
      5497.14       1.0180901     0.012298121
      5502.64       1.0146190     0.012311057
      5508.14       1.0182306     0.012328005
      5513.65       1.0132462     0.012348413
      5519.16       1.0163087     0.012373279
      5524.68       1.0147948     0.012131857
      5530.20       1.0128435     0.012440451
      5535.73       1.0121165     0.012457712
      5541.27       1.0073035     0.012479488
      5546.81       1.0001422     0.012504833
      5552.36      0.99680135     0.012534368
      5557.91       1.0026698     0.012300394
      5563.47       1.0017092     0.012318047
      5569.04       1.0001709     0.012643644
      5574.60      0.99500802     0.012673419
      5580.18      0.99204664     0.012709586
      5585.76      0.99170992     0.012750201
      5591.35      0.99121905     0.012523024
      5596.94      0.98313397     0.012545226
      5602.53      0.97495431     0.012881641
      5608.14      0.96680272     0.012909966
      5613.75      0.96284783     0.012939587
      5619.36      0.95493012     0.012707895
      5624.98      0.95435598     0.012716878
      5630.60      0.94782223     0.012729193
      5636.23      0.94003405     0.013055966
      5641.87      0.93222500     0.013077584
      5647.51      0.92300495     0.012854482
      5653.16      0.91809164     0.012863841
      5658.82      0.92263595     0.012875961
      5664.47      0.92264905     0.012891039
      5670.14      0.92253919     0.013222297
      5675.81      0.91949279     0.012998834
      5681.48      0.91952458     0.013001810
      5687.17      0.91834042     0.013011109
      5692.85      0.91901093     0.013023980
      5698.55      0.92275492     0.013038899
      5704.25      0.92431135     0.013134573
      5709.95      0.92635813     0.013137820
      5715.66      0.91929901     0.013146624
      5721.38      0.91777700     0.013161264
      5727.10      0.91779966     0.013181018
      5732.83      0.91340647     0.013288978
      5738.56      0.90862929     0.013293139
      5744.30      0.90830266     0.013302995
      5750.04      0.90617636     0.013317551
      5755.79      0.90502079     0.013337936
      5761.55      0.91089626     0.013444859
      5767.31      0.91484336     0.013449671
      5773.08      0.91669042     0.013459612
      5778.85      0.92620150     0.013475422
      5784.63      0.93217210     0.013258835
      5790.41      0.93764243     0.013600422
      5796.21      0.94395613     0.013605149
      5802.00      0.95219205     0.013616377
      5807.81      0.95620946     0.013633149
      5813.61      0.95666872     0.013414991
      5819.43      0.95742128     0.013751638
      5825.25      0.95414759     0.013758539
      5831.07      0.95123212     0.013771385
      5836.90      0.94546925     0.013547044
      5842.74      0.93536152     0.013572449
      5848.58      0.92162108     0.013901078
      5854.43      0.91616305     0.013910309
      5860.29      0.91518782     0.013679888
      5866.15      0.91659387     0.013702783
      5872.01      0.92382209     0.013732742
      5877.89      0.92879640     0.014057467
      5883.76      0.95480255     0.013897714
      5889.65      0.97156147     0.013934127
      5895.54      0.98531517     0.013944344
      5901.43      0.99419357     0.014275542
      5907.34      0.99687964     0.014342325
      5913.24      0.98821124     0.014263094
      5919.16      0.97651673     0.014421859
      5925.08      0.96469458     0.014613867
      5931.00      0.94738861     0.015033960
      5936.93      0.93004031     0.015232832
      5942.87      0.90904797     0.015421629
      5948.81      0.87819230     0.015585019
      5954.76      0.83452185     0.015765818
      5960.72      0.81350074     0.015764755
      5966.68      0.80166047     0.015718349
      5972.64      0.79056604     0.015636280
      5978.62      0.78894403     0.015402658
      5984.60      0.78645797     0.015272853
      5990.58      0.79365768     0.015178703
      5996.57      0.80620391     0.015135966
      6002.57      0.81087108     0.014772733
      6008.57      0.81343216     0.014963229
      6014.58      0.80926677     0.014923879
      6020.60      0.80983396     0.014913810
      6026.62      0.80673645     0.014594835
      6032.65      0.79896409     0.014871849
      6038.68      0.79257007     0.014873309
      6044.72      0.78609255     0.014605070
      6050.76      0.78204991     0.014605008
      6056.81      0.77036583     0.014940584
      6062.87      0.76181929     0.014965298
      6068.93      0.74967007     0.014695231
      6075.00      0.74393490     0.015018232
      6081.08      0.73607162     0.015022986
      6087.16      0.72814877     0.014748996
      6093.25      0.72427329     0.014739273
      6099.34      0.71250900     0.015067393
      6105.44      0.71376198     0.015079340
      6111.54      0.71278459     0.014802714
      6117.66      0.71275986     0.014799472
      6123.78      0.71238452     0.015132684
      6129.90      0.72005640     0.014877571
      6136.03      0.73082869     0.014877763
      6142.17      0.74038824     0.014892258
      6148.31      0.75151916     0.015257817
      6154.46      0.76749972     0.015011275
      6160.61      0.77749693     0.015032419
      6166.77      0.78826406     0.015420763
      6172.94      0.80066481     0.015248095
      6179.11      0.80814521     0.015320741
      6185.29      0.81167118     0.015429071
      6191.48      0.82246026     0.015773285
      6197.67      0.83137244     0.015903600
      6203.87      0.83117332     0.016033496
      6210.07      0.83007181     0.016313276
      6216.28      0.83131272     0.016358492
      6222.50      0.83539709     0.016394635
      6228.72      0.83009884     0.016424096
      6234.95      0.81690620     0.016484991
      6241.19      0.81342646     0.016450752
      6247.42      0.81703323     0.016428646
      6253.67      0.81114740     0.016484647
      6259.93      0.80313059     0.016486525
      6266.19      0.79914045     0.016509686
      6272.46      0.79555574     0.016256207
      6278.73      0.77946983     0.016630102
      6285.01      0.76476321     0.016622297
      6291.29      0.75538753     0.016308701
      6297.58      0.73671467     0.016569003
      6303.88      0.72454600     0.016514012
      6310.19      0.71019460     0.016178859
      6316.50      0.70003544     0.016454204
      6322.81      0.68602775     0.016388812
      6329.14      0.67617577     0.016027790
      6335.47      0.67416604     0.016263785
      6341.80      0.66719222     0.016197098
      6348.14      0.66088010     0.015863511
      6354.49      0.65953900     0.015841919
      6360.85      0.66336148     0.016087210
      6367.21      0.67156755     0.015784499
      6373.57      0.67517735     0.015783665
      6379.95      0.68226089     0.016067635
      6386.33      0.69374294     0.015776639
      6392.72      0.69499536     0.015778876
      6399.11      0.69678598     0.015778824
      6405.51      0.69998153     0.015772719
      6411.92      0.70677364     0.015781660
      6418.32      0.70660482     0.015797263
      6424.74      0.71263713     0.015799620
      6431.17      0.71621401     0.015817020
      6437.60      0.71799247     0.015838248
      6444.04      0.71743040     0.015845600
      6450.48      0.71893460     0.015868662
      6456.94      0.72585653     0.015894181
      6463.39      0.72755419     0.015906161
      6469.85      0.73189412     0.016206878
      6476.33      0.73496534     0.016923872
      6482.80      0.73862350     0.017727834
      6489.28      0.75218883     0.018383522
      6495.77      0.76442844     0.019854462
      6502.27      0.74621109     0.012924778
      6508.77      0.74380444     0.013457484
      6515.28      0.73928093     0.013810229
      6521.80      0.73706190     0.014547389
      6528.32      0.73250066     0.014948247
      6534.85      0.73190790     0.015441728
      6541.38      0.72899825     0.016359618
      6547.92      0.71822615     0.016671030
      6554.47      0.71609038     0.017720742
      6561.03      0.71307249     0.018151795
      6567.59      0.71016433     0.018159759
      6574.16      0.70185471     0.018093451
      6580.73      0.68724221     0.017939860
      6587.31      0.68239321     0.017640470
      6593.90      0.68934190     0.016893052
      6600.50      0.69373013     0.016665952
      6607.10      0.69606522     0.016192624
      6613.70      0.69426181     0.015386217
      6620.32      0.69817788     0.015000743
      6626.94      0.71512122     0.014311476
      6633.57      0.71500952     0.013881035
      6640.20      0.71381275     0.013545802
      6646.84      0.71529762     0.013102084
      6653.49      0.71845546     0.013131096
      6660.14      0.73116129     0.014336060
      6666.80      0.73498617     0.013659475
      6673.47      0.73121642     0.013214993
      6680.14      0.75978277     0.016648494
      6686.82      0.76125337     0.016557551
      6693.51      0.77136989     0.016493712
      6700.20      0.76331049     0.016444817
      6706.90      0.74185695     0.016470146
      6713.61      0.74043441     0.016438049
      6720.32      0.74304801     0.016429658
      6727.05      0.74273066     0.016473413
      6733.77      0.72628578     0.016461677
      6740.51      0.70485196     0.016527165
      6747.25      0.69879163     0.016508728
      6754.00      0.70818043     0.016250290
      6760.75      0.69592229     0.016560848
      6767.51      0.68316827     0.016554615
      6774.28      0.68527107     0.016617815
      6781.05      0.68544573     0.016604820
      6787.84      0.68730232     0.016355162
      6794.62      0.67998694     0.016670743
      6801.42      0.66913788     0.016414800
      6808.22      0.66970533     0.016748633
      6815.03      0.67479634     0.016488772
      6821.85      0.67046980     0.016509547
      6828.67      0.65356103     0.016819236
      6835.50      0.65552958     0.016556264
      6842.33      0.66352326     0.016866650
      6849.17      0.65967478     0.016594735
      6856.02      0.65856699     0.016611469
      6862.88      0.65144062     0.016630063
      6869.74      0.65322285     0.016639191
      6876.61      0.66652320     0.016665723
      6883.49      0.66590473     0.016672005
      6890.37      0.64874089     0.016983422
      6897.27      0.64241161     0.016715308
      6904.16      0.64266365     0.016737923
      6911.07      0.63830916     0.016758298
      6917.98      0.62811047     0.016775403
      6924.89      0.61480802     0.016794444
      6931.82      0.60945661     0.016801679
      6938.75      0.60093447     0.016822770
      6945.69      0.58469422     0.016827055
      6952.64      0.57053936     0.016854404
      6959.59      0.56554299     0.016851234
      6966.55      0.57037840     0.016579711
      6973.52      0.56491200     0.016893589
      6980.49      0.56529708     0.016641923
      6987.47      0.56874403     0.016976882
      6994.46      0.57167240     0.017023188
      7001.46      0.57910708     0.017120271
      7008.46      0.57919840     0.017188900
      7015.46      0.57331741     0.017367325
      7022.48      0.57617816     0.017474620
      7029.51      0.58674496     0.017357034
      7036.53      0.60001030     0.017841921
      7043.57      0.59623524     0.017747147
      7050.62      0.60064985     0.018255554
      7057.66      0.60398629     0.018024245
      7064.72      0.60335791     0.018419887
      7071.79      0.59097984     0.018103737
      7078.86      0.58158308     0.018447144
      7085.94      0.58755659     0.018114562
      7093.03      0.59666507     0.018421503
      7100.12      0.60350341     0.018061235
      7107.22      0.60084766     0.018343855
      7114.33      0.60678854     0.017981640
      7121.44      0.61389584     0.018274264
      7128.56      0.61722350     0.017944353
      7135.69      0.61940678     0.017905706
      7142.83      0.61242359     0.017872091
      7149.97      0.61225734     0.017823277
      7157.12      0.62187080     0.017775117
      7164.28      0.61164171     0.017720906
      7171.44      0.58494526     0.017696029
      7178.62      0.56792248     0.017682575
      7185.80      0.55536026     0.017701894
      7192.98      0.54432516     0.017637388
      7200.17      0.52011385     0.017535557
      7207.38      0.51820603     0.017190809
      7214.58      0.51959916     0.017405099
      7221.80      0.52842495     0.017077120
      7229.02      0.52843729     0.017315759
      7236.25      0.51695207     0.016995742
      7243.49      0.52125842     0.017226335
      7250.73      0.53024038     0.016921113
      7257.98      0.54195909     0.017171178
      7265.24      0.53131012     0.016885374
      7272.51      0.53369092     0.017141501
      7279.78      0.53430497     0.016862207
      7287.06      0.54226537     0.017121144
      7294.35      0.53491074     0.016852253
      7301.64      0.51364689     0.017118654
      7308.94      0.50403423     0.016857532
      7316.25      0.51013249     0.016867851
      7323.57      0.50569067     0.016872888
      7330.89      0.49315740     0.016883997
      7338.22      0.48596621     0.016894940
      7345.56      0.48993724     0.016908795
      7352.91      0.49359286     0.017201293
      7360.26      0.48518619     0.016933771
      7367.62      0.46878158     0.017222814
      7374.99      0.46062016     0.016957134
      7382.37      0.46389723     0.016977744
      7389.75      0.45597810     0.016975681
      7397.14      0.43673518     0.016990118
      7404.53      0.42858533     0.016992595
      7411.94      0.43493176     0.017005081
      7419.35      0.43179589     0.017014409
      7426.77      0.42710170     0.017022810
      7434.20      0.41900024     0.016760232
      7441.63      0.42130611     0.017041980
      7449.07      0.42346812     0.016779202
      7456.52      0.42886028     0.017071823
      7463.98      0.42370339     0.017097405
      7471.45      0.42607838     0.017105936
      7478.92      0.44193163     0.017127463
      7486.40      0.44184043     0.016872740
      7493.88      0.44245096     0.017158393
      7501.38      0.44105303     0.016896581
      7508.88      0.44772282     0.017189115
      7516.39      0.45065726     0.016919944
      7523.91      0.45250961     0.016959914
      7531.43      0.45577380     0.016706124
      7538.96      0.45853097     0.016719732
      7546.50      0.46536626     0.016733768
      7554.05      0.46297615     0.016495015
      7561.60      0.45593811     0.016280711
      7569.16      0.46233557     0.016308250
      7576.73      0.46116917     0.016101017
      7584.31      0.46077642     0.016097228
      7591.89      0.46499163     0.016132285
      7599.49      0.47788489     0.015934744
      7607.09      0.47574753     0.015735656
      7614.70      0.47651467     0.015776136
      7622.31      0.48337498     0.015588618
      7629.93      0.47956615     0.015414570
      7637.56      0.47290205     0.015464457
      7645.20      0.47602873     0.015461641
      7652.85      0.47865267     0.015319210
      7660.50      0.47407988     0.015367431
      7668.16      0.48111573     0.015212745
      7675.83      0.48870324     0.015095286
      7683.50      0.49641113     0.014961830
      7691.19      0.50127455     0.015051244
      7698.88      0.50642901     0.014961985
      7706.58      0.50952506     0.015025998
      7714.29      0.51411743     0.015162700
      7722.00      0.51701423     0.015146479
      7729.73      0.51685092     0.015363851
      7737.45      0.51201626     0.015356720
      7745.19      0.51231278     0.015355010
      7752.94      0.51777674     0.015542781
      7760.69      0.52063556     0.015480659
      7768.45      0.50743501     0.015413179
      7776.22      0.50358230     0.015547815
      7784.00      0.49996071     0.015462830
      7791.78      0.50015212     0.015506834
      7799.57      0.49455280     0.015581433
      7807.37      0.48780520     0.015457376
      7815.18      0.47956381     0.015354960
      7822.99      0.47327220     0.015388418
      7830.82      0.46579655     0.015259210
      7838.65      0.45890260     0.015433416
      7846.49      0.44167506     0.015778906
      7854.34      0.43362203     0.015986516
      7862.19      0.43246181     0.016381950
      7870.05      0.43738277     0.016930012
      7877.93      0.43361701     0.017344788
      7885.80      0.42836998     0.018277702
      7893.69      0.41954555     0.019350619
      7901.58      0.42819584     0.020269667
      7909.49      0.43321779     0.022516397
      7917.40      0.43524781     0.024894388
      7925.31      0.44083345     0.026944460
      7933.24      0.44520806     0.030579906
      7941.17      0.45039684     0.036872989
      7949.11      0.45701296     0.041234742
      7957.06      0.46890602     0.048976058
