# starting wavelength =        3251.3700
# ending wavelength =        10049.700
# O2 telluric scale =        0
# O2 telluric shift =        0
# H2O telluric scale =        0
# H2O telluric shift =        0
      3252.64      0.42795628     0.052185883
      3255.89      0.43143884     0.043979514
      3259.14      0.44112425     0.036224806
      3262.40      0.44869901     0.031511049
      3265.67      0.45174735     0.027877009
      3268.93      0.44888785     0.025834851
      3272.20      0.45242451     0.023467061
      3275.47      0.45360151     0.021112119
      3278.75      0.43017276     0.019787022
      3282.03      0.41836327     0.018733679
      3285.31      0.41395162     0.018130940
      3288.60      0.42491068     0.017396823
      3291.88      0.42504516     0.016744360
      3295.18      0.42224174     0.016266935
      3298.47      0.40966018     0.015852903
      3301.77      0.40884455     0.015628164
      3305.07      0.41353381     0.015294546
      3308.38      0.40874947     0.014994371
      3311.69      0.40385887     0.014830106
      3315.00      0.39210902     0.014698020
      3318.31      0.38866861     0.014682925
      3321.63      0.37654281     0.014663597
      3324.95      0.36328902     0.014645895
      3328.28      0.35738053     0.014745765
      3331.61      0.35686974     0.014611779
      3334.94      0.35975360     0.014594073
      3338.27      0.36124780     0.014694367
      3341.61      0.35837947     0.014674005
      3344.95      0.36116405     0.014541976
      3348.30      0.36133740     0.014643033
      3351.65      0.36421860     0.014622251
      3355.00      0.37835078     0.014603261
      3358.35      0.38470373     0.014592181
      3361.71      0.39088464     0.014570718
      3365.07      0.39374238     0.014669414
      3368.44      0.38856557     0.014651417
      3371.81      0.39835050     0.014519605
      3375.18      0.40543995     0.014617146
      3378.56      0.43621686     0.014598236
      3381.94      0.44658136     0.014581012
      3385.32      0.46488733     0.014565091
      3388.70      0.47492448     0.014545442
      3392.09      0.50111755     0.014527413
      3395.48      0.51452601     0.014631090
      3398.88      0.51993226     0.014610522
      3402.28      0.53611447     0.014474190
      3405.68      0.56708403     0.014580073
      3409.09      0.59114348     0.014558347
      3412.49      0.60381228     0.014538056
      3415.91      0.61165549     0.014641218
      3419.32      0.62256180     0.014506949
      3422.74      0.64356110     0.014485694
      3426.17      0.64383847     0.014465952
      3429.59      0.64673816     0.014568906
      3433.02      0.65043506     0.014434525
      3436.45      0.64742349     0.014413734
      3439.89      0.65501132     0.014514958
      3443.33      0.65139626     0.014496725
      3446.78      0.65313029     0.014479621
      3450.22      0.65077580     0.014582706
      3453.67      0.66088918     0.014442049
      3457.13      0.66014427     0.014423698
      3460.58      0.65521514     0.014530538
      3464.04      0.65549054     0.014509434
      3467.51      0.65727365     0.014489696
      3470.98      0.66091981     0.014480430
      3474.45      0.66861714     0.014458045
      3477.92      0.66651701     0.014436813
      3481.40      0.67127489     0.014416629
      3484.88      0.67889880     0.014522406
      3488.37      0.69262056     0.014504537
      3491.86      0.69825177     0.014363475
      3495.35      0.70470723     0.014467287
      3498.84      0.71837481     0.014447861
      3502.34      0.72845929     0.014429710
      3505.84      0.73874211     0.014412749
      3509.35      0.73928096     0.014518988
      3512.86      0.74057901     0.014374277
      3516.37      0.74548483     0.014355586
      3519.89      0.75487288     0.014467221
      3523.41      0.75067266     0.014445088
      3526.93      0.74876864     0.014424145
      3530.46      0.74804982     0.014404339
      3533.99      0.74919387     0.014514473
      3537.53      0.74608376     0.014371835
      3541.06      0.74163420     0.014350395
      3544.60      0.73850424     0.014330029
      3548.15      0.73605667     0.014438777
      3551.70      0.74392711     0.014420462
      3555.25      0.75059859     0.014402491
      3558.80      0.75527110     0.014513737
      3562.36      0.76725219     0.014363162
      3565.92      0.76779913     0.014343218
      3569.49      0.76461714     0.014324241
      3573.06      0.76513669     0.014439612
      3576.64      0.76219190     0.014417725
      3580.21      0.76052644     0.014396825
      3583.79      0.76511206     0.014376903
      3587.38      0.76358168     0.014490920
      3590.96      0.75665936     0.014345831
      3594.55      0.75081215     0.014323316
      3598.15      0.75133411     0.014301502
      3601.75      0.74961052     0.014412869
      3605.35      0.74610553     0.014392655
      3608.96      0.74483015     0.014373292
      3612.56      0.73705295     0.014354846
      3616.18      0.72387237     0.014472499
      3619.79      0.71542121     0.014451131
      3623.41      0.70570179     0.014430670
      3627.04      0.70426745     0.014276614
      3630.66      0.70047767     0.014257317
      3634.29      0.69169528     0.014377822
      3637.93      0.68780054     0.014355001
      3641.57      0.68722348     0.014333004
      3645.21      0.68126560     0.014311797
      3648.86      0.67372709     0.014428330
      3652.50      0.66938629     0.014408505
      3656.16      0.66763582     0.014389430
      3659.81      0.66278733     0.014371107
      3663.47      0.65665021     0.014352904
      3667.14      0.64502247     0.014471412
      3670.80      0.62585611     0.014450030
      3674.48      0.60901997     0.014428723
      3678.15      0.59165035     0.014268819
      3681.83      0.57852582     0.014397712
      3685.51      0.56163005     0.014374533
      3689.20      0.53991584     0.014352125
      3692.88      0.51728147     0.014330398
      3696.58      0.49052307     0.014309353
      3700.27      0.46897309     0.014430362
      3703.98      0.43837907     0.014409580
      3707.68      0.41560119     0.014389204
      3711.39      0.38710534     0.014368983
      3715.10      0.36271488     0.014349066
      3718.81      0.34389161     0.014478054
      3722.53      0.33023374     0.014455501
      3726.26      0.31503033     0.014433636
      3729.98      0.29746760     0.014412401
      3733.71      0.28706003     0.014391474
      3737.45      0.28773921     0.014370614
      3741.18      0.27814382     0.014498309
      3744.93      0.27181245     0.014477907
      3748.67      0.27278964     0.014457797
      3752.42      0.27474214     0.014437525
      3756.17      0.28056610     0.014417794
      3759.93      0.28396037     0.014548908
      3763.69      0.28271960     0.014526855
      3767.45      0.29163658     0.014505416
      3771.22      0.29672029     0.014483779
      3774.99      0.29965463     0.014462390
      3778.77      0.31217922     0.014441216
      3782.54      0.32032869     0.014575235
      3786.33      0.32387795     0.014554319
      3790.11      0.33311264     0.014533319
      3793.90      0.34482805     0.014512522
      3797.70      0.35565609     0.014492236
      3801.50      0.37212696     0.014472464
      3805.30      0.38916289     0.014610636
      3809.10      0.41228886     0.014588030
      3812.91      0.42551077     0.014565618
      3816.73      0.44272676     0.014543367
      3820.54      0.46409715     0.014521261
      3824.36      0.49576923     0.014499308
      3828.19      0.52216775     0.014477180
      3832.02      0.54517590     0.014617202
      3835.85      0.57766216     0.014595399
      3839.68      0.61503654     0.014574234
      3843.52      0.65205231     0.014552647
      3847.37      0.68400117     0.014531166
      3851.22      0.72092111     0.014509743
      3855.07      0.75704758     0.014488399
      3858.92      0.79300637     0.014640652
      3862.78      0.83175971     0.014617442
      3866.64      0.86494318     0.014594386
      3870.51      0.89004261     0.014570933
      3874.38      0.91677693     0.014548082
      3878.26      0.94323733     0.014525448
      3882.13      0.96917439     0.014502648
      3886.02      0.99011649     0.014656858
      3889.90       1.0061071     0.014806303
      3893.79       1.0124055     0.014783185
      3897.69       1.0297376     0.014760145
      3901.59       1.0467471     0.014737216
      3905.49       1.0664914     0.014714447
      3909.39       1.0914732     0.014691264
      3913.30       1.1230187     0.014668325
      3917.22       1.1543783     0.014645222
      3921.13       1.1840566     0.014622241
      3925.06       1.2122678     0.014777566
      3928.98       1.2484238     0.014754418
      3932.91       1.2768570     0.014731312
      3936.84       1.3058313     0.014708273
      3940.78       1.3347434     0.014685358
      3944.72       1.3640093     0.014662625
      3948.67       1.3877915     0.014639387
      3952.61       1.4128364     0.014615908
      3956.57       1.4342922     0.014592617
      3960.52       1.4513705     0.014569445
      3964.48       1.4604406     0.014370860
      3968.45       1.4748092     0.014348090
      3972.42       1.4905073     0.014325374
      3976.39       1.5005064     0.014302743
      3980.37       1.5110123     0.014279876
      3984.35       1.5192559     0.014257202
      3988.33       1.5230934     0.014234724
      3992.32       1.5251335     0.014212059
      3996.31       1.5209489     0.014189502
      4000.31       1.5206347     0.014167019
      4004.31       1.5173634     0.014144592
      4008.31       1.5077748     0.014122241
      4012.32       1.5019605     0.014100001
      4016.33       1.4892976     0.014077922
      4020.35       1.4779359     0.014055670
      4024.37       1.4586489     0.014033773
      4028.40       1.4405983     0.014011610
      4032.42       1.4169383     0.013989746
      4036.46       1.3970369     0.013968059
      4040.50       1.3762263     0.013946706
      4044.54       1.3544513     0.013744252
      4048.58       1.3419327     0.013890464
      4052.63       1.3252773     0.013867459
      4056.68       1.3154037     0.013844411
      4060.74       1.3010850     0.013821361
      4064.80       1.2901372     0.013798251
      4068.86       1.2825150     0.013775458
      4072.93       1.2705244     0.013752923
      4077.01       1.2513963     0.013730632
      4081.08       1.2344617     0.013708585
      4085.17       1.2161241     0.013686811
      4089.25       1.1999106     0.013665367
      4093.34       1.1808971     0.013475983
      4097.43       1.1669890     0.013452010
      4101.53       1.1493051     0.013428400
      4105.63       1.1356741     0.013404809
      4109.74       1.1199291     0.013381549
      4113.85       1.1082815     0.013358620
      4117.96       1.0992962     0.013335986
      4122.08       1.0969390     0.013313699
      4126.20       1.0956496     0.013455434
      4130.33       1.1051415     0.013277409
      4134.46       1.1098962     0.013252291
      4138.59       1.1065524     0.013227659
      4142.73       1.1030845     0.013203133
      4146.88       1.0986936     0.013179069
      4151.02       1.0865631     0.013155455
      4155.18       1.0750408     0.013132301
      4159.33       1.0690456     0.013109629
      4163.49       1.0620844     0.012936155
      4167.65       1.0553029     0.012914284
      4171.82       1.0475446     0.012893346
      4175.99       1.0378534     0.013024282
      4180.17       1.0329934     0.012999491
      4184.35       1.0311005     0.012975288
      4188.54       1.0224242     0.012951675
      4192.72       1.0242937     0.012928676
      4196.92       1.0292076     0.012757045
      4201.11       1.0323437     0.012735617
      4205.31       1.0334281     0.012714359
      4209.52       1.0421134     0.012694188
      4213.73       1.0396741     0.012675183
      4217.94       1.0357753     0.012793691
      4222.16       1.0317293     0.012622496
      4226.38       1.0252922     0.012600211
      4230.61       1.0140490     0.012578697
      4234.84       1.0060430     0.012557996
      4239.08      0.99822953     0.012538162
      4243.32      0.98496958     0.012518750
      4247.56      0.97358931     0.012344212
      4251.81      0.96876931     0.012466000
      4256.06      0.95931361     0.012444013
      4260.32      0.95223895     0.012422989
      4264.58      0.94241430     0.012402916
      4268.84      0.93165604     0.012235786
      4273.11      0.92551294     0.012212198
      4277.38      0.91562904     0.012189317
      4281.66      0.90711595     0.012309735
      4285.94      0.89565951     0.012289114
      4290.23      0.88469598     0.012269212
      4294.52      0.86922876     0.012103051
      4298.81      0.85096041     0.012079605
      4303.11      0.83568389     0.012057235
      4307.42      0.81214256     0.012176579
      4311.72      0.79670492     0.012156313
      4316.04      0.79014858     0.011993585
      4320.35      0.78338879     0.011969476
      4324.67      0.77955291     0.011946997
      4329.00      0.78913212     0.011925394
      4333.33      0.80262023     0.011909413
      4337.66      0.81085421     0.011883863
      4342.00      0.82628792     0.011859663
      4346.34      0.84379590     0.011836845
      4350.69      0.86370188     0.011815449
      4355.04      0.88094093     0.011664162
      4359.39      0.90263686     0.011773370
      4363.75      0.91760825     0.011749517
      4368.12      0.92719337     0.011726974
      4372.48      0.93186768     0.011576069
      4376.86      0.93544851     0.011556838
      4381.23      0.93080803     0.011662638
      4385.61      0.93118771     0.011639210
      4390.00      0.92302761     0.011488206
      4394.39      0.91805971     0.011468097
      4398.79      0.91745531     0.011449884
      4403.18      0.91146504     0.011551751
      4407.59      0.90332387     0.011401372
      4412.00      0.90101090     0.011381104
      4416.41      0.89335383     0.011362545
      4420.82      0.88939873     0.011464321
      4425.25      0.88988272     0.011314311
      4429.67      0.89930437     0.011293576
      4434.10      0.90631461     0.011274952
      4438.54      0.91893548     0.011258478
      4442.97      0.93805374     0.011228035
      4447.42      0.95756012     0.011207676
      4451.86      0.97424550     0.011189251
      4456.32      0.99385742     0.011040805
      4460.77       1.0156173     0.011141526
      4465.24       1.0355515     0.011121047
      4469.70       1.0518362     0.011102897
      4474.17       1.0728587     0.010954525
      4478.65       1.0967079     0.011055240
      4483.12       1.1211911     0.011035883
      4487.61       1.1374372     0.010891985
      4492.09       1.1475196     0.010869412
      4496.59       1.1623632     0.010969548
      4501.08       1.1799412     0.010829220
      4505.58       1.1897066     0.010805287
      4510.09       1.2035263     0.010783880
      4514.60       1.2168275     0.010884633
      4519.12       1.2298845     0.010742840
      4523.63       1.2525277     0.010720311
      4528.16       1.2717657     0.010700137
      4532.69       1.2884831     0.010680089
      4537.22       1.3034565     0.010656436
      4541.76       1.3282862     0.010635240
      4546.30       1.3546556     0.010617120
      4550.85       1.3744457     0.010593308
      4555.40       1.3988647     0.010571718
      4559.95       1.4328442     0.010440119
      4564.51       1.4616673     0.010530114
      4569.08       1.4881230     0.010508001
      4573.65       1.5086602     0.010376421
      4578.22       1.5286043     0.010466378
      4582.80       1.5462308     0.010443926
      4587.38       1.5607442     0.010313301
      4591.97       1.5667634     0.010403608
      4596.56       1.5754056     0.010381034
      4601.16       1.5828256     0.010250776
      4605.76       1.5891795     0.010234174
      4610.37       1.5984017     0.010207425
      4614.98       1.6036284     0.010187799
      4619.59       1.6077117     0.010171276
      4624.21       1.6087653     0.010144605
      4628.84       1.6189429     0.010125850
      4633.47       1.6268776     0.010109914
      4638.10       1.6326395     0.010082420
      4642.74       1.6399195     0.010063993
      4647.38       1.6356961    0.0099357280
      4652.03       1.6315749     0.010019891
      4656.68       1.6205421     0.010002072
      4661.34       1.5981051    0.0098734940
      4666.00       1.5762249    0.0099584628
      4670.67       1.5509652    0.0099416630
      4675.33       1.5217456    0.0098122716
      4680.01       1.4931535    0.0098971727
      4684.69       1.4617142    0.0097716992
      4689.38       1.4319951    0.0097505182
      4694.07       1.4002300    0.0098358749
      4698.76       1.3714033    0.0097095328
      4703.46       1.3396851    0.0097930166
      4708.16       1.2988721    0.0096701093
      4712.87       1.2657078    0.0096487904
      4717.58       1.2403332    0.0096316542
      4722.30       1.2095476    0.0096079025
      4727.03       1.1719665    0.0095876600
      4731.75       1.1361878    0.0095678972
      4736.48       1.0940245    0.0095462502
      4741.22       1.0533476    0.0095297873
      4745.96       1.0123545    0.0095063097
      4750.71      0.97460888    0.0094865489
      4755.46      0.93772649    0.0094666178
      4760.22      0.90648142    0.0094450398
      4764.97      0.87733518    0.0093302203
      4769.74      0.85502332    0.0094041638
      4774.51      0.83445363    0.0092888419
      4779.29      0.81789420    0.0093647770
      4784.07      0.80344162    0.0092483065
      4788.85      0.78888496    0.0092320530
      4793.64      0.77847045    0.0093036213
      4798.43      0.77251321    0.0091901245
      4803.23      0.77537631    0.0092628221
      4808.03      0.77272384    0.0091489171
      4812.84      0.76744266    0.0091344879
      4817.66      0.76256634    0.0091088723
      4822.48      0.76015486    0.0090933411
      4827.30      0.75065393    0.0090686908
      4832.12      0.74826366    0.0090522221
      4836.96      0.74894131    0.0090282968
      4841.79      0.75123738    0.0090109472
      4846.63      0.75927079    0.0088984824
      4851.48      0.77225527    0.0089709163
      4856.33      0.79127721    0.0088599401
      4861.19      0.81536791    0.0089310430
      4866.05      0.84654609    0.0088209879
      4870.92      0.88406856    0.0088909382
      4875.79      0.92882035    0.0087816336
      4880.66      0.97868225    0.0088509047
      4885.55       1.0352294    0.0087429790
      4890.43       1.0898880    0.0087234613
      4895.32       1.1489355    0.0087047327
      4900.22       1.2005438    0.0086846878
      4905.12       1.2557264    0.0086660221
      4910.02       1.3035927    0.0086454668
      4914.94       1.3530041    0.0086268187
      4919.85       1.3939125    0.0086064447
      4924.77       1.4312361    0.0085884143
      4929.70       1.4577031    0.0085683282
      4934.62       1.4832009    0.0085501343
      4939.56       1.5022379    0.0085297922
      4944.50       1.5124661    0.0085112807
      4949.44       1.5113804    0.0084908934
      4954.39       1.5059471    0.0084723085
      4959.35       1.4881099    0.0084524413
      4964.31       1.4678107    0.0084340994
      4969.27       1.4351887    0.0083312731
      4974.24       1.3992663    0.0083957592
      4979.22       1.3580899    0.0082935551
      4984.20       1.3144864    0.0083569223
      4989.18       1.2754160    0.0082554780
      4994.17       1.2372271    0.0083183506
      4999.16       1.2052467    0.0082182781
      5004.16       1.1752777    0.0082806354
      5009.17       1.1536147    0.0081815773
      5014.18       1.1408996    0.0081607919
      5019.19       1.1290375    0.0081445726
      5024.21       1.1244378    0.0081228744
      5029.23       1.1256725    0.0081076970
      5034.26       1.1290623    0.0080857232
      5039.30       1.1331379    0.0080717775
      5044.34       1.1441859    0.0080493195
      5049.39       1.1554411    0.0079527139
      5054.43       1.1579488    0.0080128140
      5059.49       1.1661312    0.0079153875
      5064.55       1.1689552    0.0079762283
      5069.61       1.1716478    0.0078786363
      5074.68       1.1719943    0.0078606827
      5079.76       1.1725018    0.0079189746
      5084.84       1.1740722    0.0078239661
      5089.92       1.1735553    0.0078830039
      5095.01       1.1717869    0.0077870470
      5100.11       1.1695446    0.0077694562
      5105.21       1.1708384    0.0077506792
      5110.31       1.1745022    0.0077323544
      5115.42       1.1709517    0.0077903130
      5120.54       1.1700857    0.0076962487
      5125.66       1.1648484    0.0076791761
      5130.79       1.1635280    0.0076601613
      5135.92       1.1627557    0.0076416341
      5141.05       1.1622933    0.0075516588
      5146.20       1.1634600    0.0076052321
      5151.34       1.1671346    0.0075883419
      5156.49       1.1741600    0.0075702092
      5161.65       1.1787095    0.0075518013
      5166.81       1.1847854    0.0074633520
      5171.98       1.1921475    0.0075155779
      5177.15       1.2040111    0.0074978742
      5182.33       1.2171056    0.0074089916
      5187.51       1.2323045    0.0074618374
      5192.70       1.2507209    0.0073759432
      5197.89       1.2701611    0.0073560099
      5203.09       1.2924750    0.0074088174
      5208.29       1.3101336    0.0073221661
      5213.50       1.3288360    0.0073024849
      5218.72       1.3473278    0.0072897720
      5223.93       1.3648428    0.0072690251
      5229.16       1.3836977    0.0072501873
      5234.39       1.3958232    0.0072372716
      5239.62       1.4036603    0.0072168005
      5244.86       1.4134907    0.0071976525
      5250.11       1.4236302    0.0071843714
      5255.36       1.4325457    0.0071641170
      5260.61       1.4433710    0.0070797362
      5265.87       1.4540887    0.0070629211
      5271.14       1.4657722    0.0071127953
      5276.41       1.4782113    0.0070288876
      5281.69       1.4878675    0.0070115529
      5286.97       1.5035281    0.0070609466
      5292.26       1.5210153    0.0069774488
      5297.55       1.5377886    0.0069603898
      5302.85       1.5525803    0.0070101939
      5308.15       1.5658381    0.0069273310
      5313.46       1.5804213    0.0069100148
      5318.77       1.5948159    0.0068936086
      5324.09       1.6020863    0.0068767405
      5329.42       1.5982517    0.0068591066
      5334.75       1.5846507    0.0068427658
      5340.08       1.5652945    0.0067640154
      5345.42       1.5478626    0.0068095742
      5350.77       1.5300296    0.0067926864
      5356.12       1.5145096    0.0067153463
      5361.48       1.4972818    0.0066971765
      5366.83       1.4862032    0.0067424931
      5372.20       1.4837748    0.0067263623
      5377.58       1.4823715    0.0066490648
      5382.95       1.4843776    0.0066317919
      5388.34       1.4911121    0.0066769717
      5393.72       1.5014814    0.0066015229
      5399.12       1.5147310    0.0065833602
      5404.52       1.5298105    0.0065661656
      5409.92       1.5427112    0.0065547923
      5415.33       1.5614626    0.0065364165
      5420.75       1.5837333    0.0065189646
      5426.17       1.5976692    0.0065019325
      5431.60       1.6066700    0.0064904752
      5437.03       1.6137652    0.0064720937
      5442.47       1.6151558    0.0064545601
      5447.91       1.6168830    0.0064378497
      5453.36       1.6179190    0.0063649590
      5458.81       1.6119762    0.0064092266
      5464.27       1.6021908    0.0063916691
      5469.73       1.5937453    0.0063746465
      5475.20       1.5813844    0.0063020523
      5480.68       1.5616300    0.0062865294
      5486.16       1.5418527    0.0063290666
      5491.65       1.5193294    0.0063123533
      5497.14       1.4995199    0.0062404414
      5502.64       1.4789155    0.0062245644
      5508.14       1.4544314    0.0062092552
      5513.65       1.4325548    0.0061945072
      5519.16       1.4171718    0.0061789256
      5524.68       1.4058897    0.0061631040
      5530.20       1.3941445    0.0061478308
      5535.73       1.3806243    0.0061329939
      5541.27       1.3633349    0.0060644296
      5546.81       1.3489217    0.0060482929
      5552.36       1.3314699    0.0060870858
      5557.91       1.3072907    0.0060717476
      5563.47       1.2750748    0.0060568826
      5569.04       1.2345413    0.0059902206
      5574.60       1.1878381    0.0059743784
      5580.18       1.1364419    0.0059586344
      5585.76       1.0846856    0.0059969640
      5591.35       1.0283563    0.0059818942
      5596.94      0.97091487    0.0059172892
      5602.53      0.90855607    0.0059015083
      5608.14      0.84498046    0.0058861160
      5613.75      0.78466050    0.0058707103
      5619.36      0.73042835    0.0058556111
      5624.98      0.68278566    0.0058408362
      5630.60      0.64553639    0.0058305629
      5636.23      0.61279305    0.0058149953
      5641.87      0.58975534    0.0057997507
      5647.51      0.57838303    0.0057847453
      5653.16      0.57837736    0.0057696697
      5658.82      0.58572067    0.0057549013
      5664.47      0.60093918    0.0056914057
      5670.14      0.62472286    0.0056772653
      5675.81      0.65508086    0.0056633489
      5681.48      0.69458898    0.0056496799
      5687.17      0.74402153    0.0056859380
      5692.85      0.80273264    0.0056711534
      5698.55      0.86677063    0.0056083459
      5704.25      0.93309793    0.0055941325
      5709.95      0.99863185    0.0055801560
      5715.66       1.0692771    0.0055663740
      5721.38       1.1443591    0.0055528161
      5727.10       1.2133917    0.0055390540
      5732.83       1.2780331    0.0055257121
      5738.56       1.3430568    0.0055129315
      5744.30       1.4061682    0.0054542404
      5750.04       1.4643829    0.0054409877
      5755.79       1.5139224    0.0054279140
      5761.55       1.5583524    0.0054152819
      5767.31       1.5947352    0.0054039873
      5773.08       1.6208642    0.0053946654
      5778.85       1.6433193    0.0054323946
      5784.63       1.6594528    0.0054242126
      5790.41       1.6698346    0.0054164344
      5796.21       1.6788052    0.0054095137
      5802.00       1.6838693    0.0053575496
      5807.81       1.6843656    0.0053476157
      5813.61       1.6782892    0.0053362687
      5819.43       1.6710427    0.0053242642
      5825.25       1.6664957    0.0053116381
      5831.07       1.6650907    0.0052981725
      5836.90       1.6609888    0.0052840039
      5842.74       1.6600407    0.0052697549
      5848.58       1.6631922    0.0052560359
      5854.43       1.6672749    0.0052424004
      5860.29       1.6708594    0.0052282456
      5866.15       1.6740048    0.0052135300
      5872.01       1.6791132    0.0051982614
      5877.89       1.6823911    0.0051828809
      5883.76       1.6812168    0.0051676702
      5889.65       1.6813664    0.0051100435
      5895.54       1.6791715    0.0050940258
      5901.43       1.6696812    0.0050784382
      5907.34       1.6595763    0.0050641231
      5913.24       1.6432417    0.0050502666
      5919.16       1.6221413    0.0050356710
      5925.08       1.6018920    0.0050213520
      5931.00       1.5838808    0.0050079343
      5936.93       1.5664274    0.0049952055
      5942.87       1.5465117    0.0049410709
      5948.81       1.5262151    0.0049289832
      5954.76       1.5056066    0.0049172086
      5960.72       1.4844137    0.0049056546
      5966.68       1.4650912    0.0048941711
      5972.64       1.4492789    0.0048827913
      5978.62       1.4368500    0.0048715611
      5984.60       1.4277010    0.0048603589
      5990.58       1.4205609    0.0048492777
      5996.57       1.4121825    0.0048382636
      6002.57       1.4063033    0.0048273549
      6008.57       1.3999487    0.0048165546
      6014.58       1.3924567    0.0048058641
      6020.60       1.3851516    0.0047952426
      6026.62       1.3758740    0.0047846532
      6032.65       1.3649640    0.0047328269
      6038.68       1.3537118    0.0047221042
      6044.72       1.3393551    0.0047115015
      6050.76       1.3234189    0.0047010060
      6056.81       1.3050945    0.0046905818
      6062.87       1.2878781    0.0047180019
      6068.93       1.2699843    0.0047076039
      6075.00       1.2563325    0.0046973495
      6081.08       1.2466464    0.0046872366
      6087.16       1.2420827    0.0046772667
      6093.25       1.2442217    0.0046287160
      6099.34       1.2457514    0.0046184553
      6105.44       1.2500358    0.0046082504
      6111.54       1.2559822    0.0045983229
      6117.66       1.2633541    0.0045892100
      6123.78       1.2701913    0.0045817498
      6129.90       1.2736110    0.0045737019
      6136.03       1.2697310    0.0045270312
      6142.17       1.2621140    0.0045190643
      6148.31       1.2498979    0.0045137005
      6154.46       1.2320894    0.0045470686
      6160.61       1.2133272    0.0045462059
      6166.77       1.1933316    0.0045468899
      6172.94       1.1716558    0.0045481341
      6179.11       1.1471245    0.0045129979
      6185.29       1.1271612    0.0045118692
      6191.48       1.1132042    0.0045084314
      6197.67       1.1034734    0.0045020768
      6203.87       1.0972419    0.0044925723
      6210.07       1.0957570    0.0044801455
      6216.28       1.0981664    0.0044592639
      6222.50       1.0979757    0.0044419871
      6228.72       1.0974868    0.0044251770
      6234.95       1.0977648    0.0044104402
      6241.19       1.0991971    0.0043984027
      6247.42       1.0996898    0.0043497914
      6253.67       1.0998208    0.0043363338
      6259.93       1.1001139    0.0043573576
      6266.19       1.0994825    0.0043464385
      6272.46       1.0980276    0.0043359718
      6278.73       1.0975775    0.0042905866
      6285.01       1.0942235    0.0042803667
      6291.29       1.0911498    0.0042707807
      6297.58       1.0873298    0.0042616980
      6303.88       1.0865689    0.0042529121
      6310.19       1.0888890    0.0042441855
      6316.50       1.0921036    0.0042360173
      6322.81       1.0925562    0.0042282229
      6329.14       1.0937356    0.0041882297
      6335.47       1.0901024    0.0041816618
      6341.80       1.0809891    0.0042075937
      6348.14       1.0699090    0.0042022668
      6354.49       1.0569322    0.0041664498
      6360.85       1.0417450    0.0041630147
      6367.21       1.0231387    0.0041590870
      6373.57       1.0008844    0.0041862927
      6379.95      0.97502269    0.0041489641
      6386.33      0.94560808    0.0041439132
      6392.72      0.91272199    0.0041382953
      6399.11      0.87773222    0.0041321339
      6405.51      0.83784816    0.0041222254
      6411.92      0.80263279    0.0041141141
      6418.32      0.76976804    0.0041063084
      6424.74      0.74004939    0.0040661197
      6431.17      0.71773096    0.0040895886
      6437.60      0.70225558    0.0040829353
      6444.04      0.69461519    0.0040766601
      6450.48      0.69941694    0.0040373388
      6456.94      0.70941077    0.0040295658
      6463.39      0.72778473    0.0040524126
      6469.85      0.75953524    0.0040132397
      6476.33      0.79429579    0.0040058573
      6482.80      0.83616443    0.0039988690
      6489.28      0.88494589    0.0039906602
      6495.77      0.93523852    0.0039825694
      6502.27      0.98890612    0.0039755073
      6508.77       1.0444157    0.0039697022
      6515.28       1.0985392    0.0039631911
      6521.80       1.1498560    0.0039571658
      6528.32       1.2030322    0.0039222524
      6534.85       1.2526538    0.0039464284
      6541.38       1.2956170    0.0039406256
      6547.92       1.3336046    0.0039060471
      6554.47       1.3648427    0.0039015667
      6561.03       1.3882489    0.0039249692
      6567.59       1.4042583    0.0038908754
      6574.16       1.4165424    0.0038865875
      6580.73       1.4202526    0.0039101894
      6587.31       1.4166031    0.0038764538
      6593.90       1.4120232    0.0038724881
      6600.50       1.3973877    0.0038672218
      6607.10       1.3818095    0.0038628560
      6613.70       1.3645269    0.0038590563
      6620.32       1.3453722    0.0038538868
      6626.94       1.3283184    0.0038498978
      6633.57       1.3122080    0.0038171986
      6640.20       1.3003332    0.0038414627
      6646.84       1.2883319    0.0038377952
      6653.49       1.2802067    0.0038050009
      6660.14       1.2764717    0.0038296240
      6666.80       1.2711253    0.0037979329
      6673.47       1.2650130    0.0037937501
      6680.14       1.2590510    0.0038187640
      6686.82       1.2530147    0.0037871331
      6693.51       1.2451520    0.0037860915
      6700.20       1.2383730    0.0037972478
      6706.90       1.2285929    0.0038031766
      6713.61       1.2149242    0.0037709327
      6720.32       1.2025284    0.0037948262
      6727.05       1.1847965    0.0038057075
      6733.77       1.1608838    0.0038398530
      6740.51       1.1364213    0.0038748874
      6747.25       1.1082668    0.0038978161
      6754.00       1.0768638    0.0039875702
      6760.75       1.0430215    0.0040146761
      6767.51       1.0084826    0.0041019352
      6774.28      0.97188330    0.0041062330
      6781.05      0.93598231    0.0041240638
      6787.84      0.90141453    0.0041226034
      6794.62      0.86919125    0.0041025887
      6801.42      0.83887353    0.0040565253
      6808.22      0.81758317    0.0040130057
      6815.03      0.80444221    0.0039311012
      6821.85      0.79709633    0.0039178009
      6828.67      0.80126454    0.0038604100
      6835.50      0.81401737    0.0038666782
      6842.33      0.83500226    0.0038094043
      6849.17      0.86314892    0.0038104457
      6856.02      0.89625089    0.0037692991
      6862.88      0.93053957    0.0037566343
      6869.74      0.97290322    0.0037438813
      6876.61       1.0151210    0.0037348638
      6883.49       1.0567476    0.0037289603
      6890.37       1.0960361    0.0037248944
      6897.27       1.1356315    0.0037238834
      6904.16       1.1715026    0.0037216475
      6911.07       1.2022150    0.0037201023
      6917.98       1.2290728    0.0037161246
      6924.89       1.2506553    0.0037118065
      6931.82       1.2661994    0.0037060957
      6938.75       1.2757790    0.0037016145
      6945.69       1.2849281    0.0036716095
      6952.64       1.2873219    0.0036945239
      6959.59       1.2843786    0.0036649570
      6966.55       1.2795160    0.0036879172
      6973.52       1.2691669    0.0036596790
      6980.49       1.2565574    0.0036838024
      6987.47       1.2393500    0.0036578594
      6994.46       1.2201125    0.0036612159
      7001.46       1.2005705    0.0036644187
      7008.46       1.1773457    0.0036699774
      7015.46       1.1535537    0.0036745194
      7022.48       1.1313849    0.0036833884
      7029.51       1.1151539    0.0036945148
      7036.53       1.1011604    0.0037166038
      7043.57       1.0918115    0.0037227380
      7050.62       1.0861701    0.0037855797
      7057.66       1.0815539    0.0038047942
      7064.72       1.0778222    0.0038511940
      7071.79       1.0781541    0.0038770488
      7078.86       1.0879279    0.0039036064
      7085.94       1.0951297    0.0039471202
      7093.03       1.1039903    0.0039235852
      7100.12       1.1142141    0.0039242021
      7107.22       1.1231620    0.0039174949
      7114.33       1.1371173    0.0039096846
      7121.44       1.1471974    0.0038794621
      7128.56       1.1568034    0.0039060772
      7135.69       1.1648812    0.0038847811
      7142.83       1.1698887    0.0038917343
      7149.97       1.1734344    0.0039255932
      7157.12       1.1792732    0.0038981571
      7164.28       1.1829781    0.0038927278
      7171.44       1.1817266    0.0038829694
      7178.62       1.1785148    0.0038668395
      7185.80       1.1712157    0.0038530633
      7192.98       1.1607548    0.0038431336
      7200.17       1.1483798    0.0038271854
      7207.38       1.1366252    0.0038080948
      7214.58       1.1262810    0.0037932968
      7221.80       1.1122618    0.0037754316
      7229.02       1.0975192    0.0037369688
      7236.25       1.0837379    0.0037525906
      7243.49       1.0743328    0.0037424053
      7250.73       1.0674847    0.0037114263
      7257.98       1.0580422    0.0037085362
      7265.24       1.0513370    0.0037314885
      7272.51       1.0456906    0.0037048085
      7279.78       1.0426677    0.0037031424
      7287.06       1.0409166    0.0037020405
      7294.35       1.0410165    0.0036999161
      7301.64       1.0414984    0.0037006473
      7308.94       1.0405309    0.0037031392
      7316.25       1.0400882    0.0037036329
      7323.57       1.0410129    0.0037070591
      7330.89       1.0430118    0.0037111622
      7338.22       1.0462331    0.0036896517
      7345.56       1.0464443    0.0037182834
      7352.91       1.0467261    0.0037239768
      7360.26       1.0496637    0.0037039652
      7367.62       1.0490788    0.0037097160
      7374.99       1.0499282    0.0037162140
      7382.37       1.0505943    0.0037212051
      7389.75       1.0485397    0.0037276685
      7397.14       1.0442741    0.0037357611
      7404.53       1.0406597    0.0037554909
      7411.94       1.0381363    0.0037710148
      7419.35       1.0359403    0.0038430023
      7426.77       1.0310596    0.0038709740
      7434.20       1.0240902    0.0038269852
      7441.63       1.0192567    0.0038684796
      7449.07       1.0113292    0.0039742891
      7456.52       1.0028293    0.0041283308
      7463.98      0.99410824    0.0043030173
      7471.45      0.98545595    0.0045717372
      7478.92      0.97520692    0.0048837776
      7486.40      0.95998953    0.0052171670
      7493.88      0.94642038    0.0054327801
      7501.38      0.93423921    0.0057234143
      7508.88      0.91503785    0.0058696034
      7516.39      0.89678302    0.0058565647
      7523.91      0.88346437    0.0056922129
      7531.43      0.86700721    0.0054284817
      7538.96      0.85876939    0.0051342458
      7546.50      0.85483784    0.0048923468
      7554.05      0.85482366    0.0046386012
      7561.60      0.85348335    0.0044507102
      7569.16      0.85603888    0.0042923971
      7576.73      0.86209665    0.0041638420
      7584.31      0.87248358    0.0040868838
      7591.89      0.88431330    0.0040471343
      7599.49      0.89773867    0.0040141982
      7607.09      0.90961770    0.0039705053
      7614.70      0.91921551    0.0039738445
      7622.31      0.92862180    0.0039633450
      7629.93      0.93635459    0.0039604685
      7637.56      0.94681961    0.0039631436
      7645.20      0.95987346    0.0039431621
      7652.85      0.97215621    0.0039510552
      7660.50      0.97913531    0.0039603213
      7668.16      0.98453395    0.0039707368
      7675.83      0.99317454    0.0039821272
      7683.50       1.0025669    0.0039939186
      7691.19       1.0094724    0.0040058273
      7698.88       1.0162227    0.0039901936
      7706.58       1.0222111    0.0040023230
      7714.29       1.0326438    0.0040379549
      7722.00       1.0429348    0.0040509290
      7729.73       1.0537045    0.0040648349
      7737.45       1.0611434    0.0040796360
      7745.19       1.0632026    0.0040951027
      7752.94       1.0626497    0.0041115390
      7760.69       1.0626445    0.0041288682
      7768.45       1.0636742    0.0041175503
      7776.22       1.0635424    0.0041330593
      7784.00       1.0650046    0.0041471898
      7791.78       1.0651164    0.0041609423
      7799.57       1.0614125    0.0041745021
      7807.37       1.0540602    0.0041878695
      7815.18       1.0483019    0.0042011688
      7822.99       1.0482076    0.0042144451
      7830.82       1.0426691    0.0042281268
      7838.65       1.0370171    0.0042425241
      7846.49       1.0339958    0.0042578801
      7854.34       1.0309177    0.0042735479
      7862.19       1.0260542    0.0042597593
      7870.05       1.0212622    0.0042755193
      7877.93       1.0139938    0.0042911469
      7885.80       1.0045157    0.0043060117
      7893.69      0.99381262    0.0043200604
      7901.58      0.98657221    0.0043342195
      7909.49      0.98113852    0.0043246724
      7917.40      0.97660894    0.0043398365
      7925.31      0.97110125    0.0043544590
      7933.24      0.96264697    0.0043701226
      7941.17      0.95359549    0.0043877505
      7949.11      0.94565312    0.0044074179
      7957.06      0.93668270    0.0044306829
      7965.02      0.92928595    0.0044579115
      7972.98      0.92212134    0.0044883853
      7980.96      0.91643994    0.0045251121
      7988.94      0.91079471    0.0045700490
      7996.93      0.90753380    0.0046228396
      8004.93      0.90050757    0.0046807550
      8012.93      0.89724668    0.0047236984
      8020.95      0.89420357    0.0047909877
      8028.97      0.89095157    0.0048556219
      8036.99      0.88659741    0.0049018504
      8045.03      0.88156698    0.0049312830
      8053.08      0.87720744    0.0049557175
      8061.13      0.87501334    0.0049763540
      8069.20      0.87403281    0.0049918992
      8077.26      0.86944223    0.0050080788
      8085.34      0.86009696    0.0050145449
      8093.43      0.84644426    0.0050183511
      8101.52      0.83512453    0.0050229746
      8109.62      0.82425640    0.0050316272
      8117.73      0.81256342    0.0050432311
      8125.85      0.79854295    0.0050517400
      8133.98      0.78263927    0.0050282501
      8142.11      0.76086051    0.0050329435
      8150.25      0.73501220    0.0050362328
      8158.41      0.70362443    0.0050384985
      8166.56      0.67638984    0.0050438957
      8174.73      0.64099916    0.0050946335
      8182.91      0.60207692    0.0050829031
      8191.09      0.56193124    0.0050839700
      8199.28      0.52580605    0.0050768543
      8207.48      0.49067205    0.0050737880
      8215.69      0.45667378    0.0050734790
      8223.91      0.42588694    0.0050442153
      8232.13      0.40875181    0.0050497762
      8240.36      0.39709903    0.0050551125
      8248.60      0.39263436    0.0050912169
      8256.85      0.39810582    0.0050702484
      8265.11      0.40899656    0.0050804595
      8273.37      0.41970336    0.0050937168
      8281.65      0.43291595    0.0051073608
      8289.93      0.44679963    0.0050940528
      8298.22      0.46293178    0.0051423246
      8306.52      0.47633402    0.0051588349
      8314.83      0.48792715    0.0051768986
      8323.14      0.50009985    0.0051681325
      8331.46      0.50738525    0.0051880762
      8339.80      0.51046885    0.0052086776
      8348.13      0.51217420    0.0052630507
      8356.48      0.51637350    0.0052571145
      8364.84      0.52309607    0.0052797339
      8373.21      0.53104053    0.0053025709
      8381.58      0.54822439    0.0052968927
      8389.96      0.57305215    0.0053540946
      8398.35      0.59435975    0.0053763783
      8406.75      0.61774718    0.0053985860
      8415.16      0.64400042    0.0053910601
      8423.57      0.67855139    0.0054476236
      8432.00      0.71384952    0.0054692971
      8440.43      0.75189552    0.0054623353
      8448.87      0.79023989    0.0054843411
      8457.32      0.82948705    0.0055066141
      8465.78      0.86877371    0.0055358262
      8474.25      0.90225698    0.0055579561
      8482.72      0.93522608    0.0055812736
      8491.20      0.96198534    0.0056136642
      8499.69      0.98668495    0.0056376943
      8508.19       1.0115512    0.0056620637
      8516.70       1.0322011    0.0056582654
      8525.22       1.0509003    0.0057198787
      8533.75       1.0645001    0.0057153157
      8542.28       1.0773578    0.0057401716
      8550.82       1.0827051    0.0057654632
      8559.37       1.0808971    0.0057965840
      8567.93       1.0815034    0.0058212132
      8576.50       1.0874648    0.0058462617
      8585.08       1.0970940    0.0058773234
      8593.66       1.1021921    0.0059026927
      8602.26       1.1065911    0.0058977380
      8610.86       1.1062260    0.0059616910
      8619.47       1.1110642    0.0059883779
      8628.09       1.1241268    0.0059838107
      8636.72       1.1324854    0.0060494144
      8645.36       1.1423414    0.0060463278
      8654.00       1.1509442    0.0060731934
      8662.66       1.1606202    0.0061096843
      8671.32       1.1621386    0.0061367195
      8679.99       1.1624794    0.0061645075
      8688.67       1.1625555    0.0062012052
      8697.36       1.1601151    0.0062292401
      8706.06       1.1535623    0.0062280785
      8714.76       1.1447240    0.0062968458
      8723.48       1.1306532    0.0062965868
      8732.21       1.1196843    0.0063685277
      8740.93       1.0960425    0.0063743659
      8749.68       1.0788493    0.0064119813
      8758.43       1.0603065    0.0064611093
      8767.19       1.0418222    0.0065090243
      8775.96       1.0200575    0.0065794721
      8784.73       1.0084460    0.0066423879
      8793.52      0.99920582    0.0066940157
      8802.31      0.98582614    0.0068346781
      8811.11      0.97348406    0.0069179527
      8819.92      0.96282736    0.0070832298
      8828.75      0.94789736    0.0071826913
      8837.57      0.93213485    0.0073556346
      8846.41      0.92123803    0.0074338270
      8855.26      0.91347349    0.0075163364
      8864.12      0.90727309    0.0075813446
      8872.98      0.90003013    0.0076027402
      8881.85      0.89513445    0.0076091855
      8890.73      0.88454952    0.0076036413
      8899.63      0.87283572    0.0076075680
      8908.52      0.85092499    0.0075916768
      8917.43      0.84893341    0.0076628389
      8926.35      0.84217895    0.0076674932
      8935.28      0.82971119    0.0077823360
      8944.22      0.81640849    0.0078166774
      8953.16      0.80478723    0.0079421504
      8962.11      0.78960516    0.0079717955
      8971.08      0.77886693    0.0080432696
      8980.05      0.76869776    0.0080864730
      8989.03      0.75792766    0.0081311739
      8998.02      0.74833829    0.0081637248
      9007.02      0.74519301    0.0081985503
      9016.02      0.74389338    0.0081772495
      9025.04      0.74363979    0.0082376909
      9034.07      0.74651731    0.0081790718
      9043.10      0.75377832    0.0081590929
      9052.14      0.75889571    0.0081442102
      9061.20      0.76539630    0.0081316858
      9070.26      0.77092433    0.0081288226
      9079.33      0.77488975    0.0081528271
      9088.41      0.77427790    0.0082018606
      9097.50      0.77956848    0.0082568232
      9106.60      0.78486660    0.0083714648
      9115.70      0.78959643    0.0084746226
      9124.82      0.79588480    0.0087066444
      9133.94      0.79882742    0.0089209866
      9143.08      0.80564112    0.0093040040
      9152.22      0.80889572    0.0098006581
      9161.37      0.81512100     0.010272998
      9170.54      0.82671498     0.010940772
      9179.71      0.84046262     0.011520560
      9188.89      0.85653783     0.012211400
      9198.08      0.86696313     0.012815682
      9207.28      0.87957589     0.013095599
      9216.48      0.87562079     0.013392347
      9225.70      0.86526065     0.013379663
      9234.92      0.85275704     0.013118680
      9244.16      0.85152888     0.012869429
      9253.40      0.85806693     0.012678988
      9262.66      0.84504620     0.012523610
      9271.92      0.83199082     0.012474161
      9281.20      0.83088488     0.012438023
      9290.48      0.82870269     0.012639887
      9299.77      0.82667069     0.012780627
      9309.07      0.82519874     0.012816345
      9318.38      0.82549048     0.012953517
      9327.69      0.82414808     0.013072006
      9337.02      0.82407058     0.012938224
      9346.36      0.82667410     0.012842743
      9355.71      0.82765578     0.012803287
      9365.07      0.83354673     0.012755721
      9374.43      0.83820765     0.012636821
      9383.80      0.83836032     0.012542061
      9393.19      0.82640897     0.012369702
      9402.58      0.81631355     0.012255260
      9411.98      0.81214465     0.012064830
      9421.40      0.81058524     0.011933291
      9430.82      0.80001650     0.011710582
      9440.25      0.78594754     0.011556967
      9449.69      0.76896594     0.011349542
      9459.14      0.74967125     0.011248580
      9468.60      0.74893786     0.011017775
      9478.07      0.74710009     0.010856067
      9487.55      0.75490265     0.010634438
      9497.04      0.75164274     0.010448756
      9506.53      0.74284358     0.010208331
      9516.04      0.73701941     0.010046962
      9525.56      0.72644228    0.0098557951
      9535.08      0.72336100    0.0097349011
      9544.62      0.71590886    0.0095862438
      9554.16      0.71533917    0.0094697359
      9563.72      0.70973645    0.0094587505
      9573.29      0.70480031    0.0093815596
      9582.85      0.70141610    0.0093421943
      9592.44      0.70430770    0.0092846029
      9602.03      0.69911054    0.0092383193
      9611.63      0.68913895    0.0092258897
      9621.25      0.68251373    0.0091772125
      9630.87      0.66654364    0.0091244982
      9640.50      0.64947176    0.0090958004
      9650.14      0.64402945    0.0090611235
      9659.79      0.63352667    0.0089834895
      9669.45      0.63679278    0.0089374946
      9679.12      0.65086850    0.0088647714
      9688.80      0.65307898    0.0087990353
      9698.49      0.65980962    0.0087674384
      9708.19      0.67131972    0.0087141995
      9717.90      0.68550516    0.0087006942
      9727.62      0.69428572    0.0086890643
      9737.34      0.69427610    0.0086550633
      9747.08      0.69113939    0.0086232011
      9756.83      0.68983277    0.0085936388
      9766.59      0.68851175    0.0085895767
      9776.35      0.68338308    0.0085939387
      9786.13      0.67602276    0.0085756074
      9795.92      0.67357871    0.0085610324
      9805.71      0.66335400    0.0085676109
      9815.52      0.65609064    0.0085519579
      9825.34      0.65428988    0.0085383329
      9835.17      0.64901390    0.0085588943
      9845.00      0.63611978    0.0085508444
      9854.84      0.63123981    0.0085628533
      9864.70      0.62157265    0.0085555779
      9874.56      0.60825398    0.0085491233
      9884.44      0.60268989    0.0086542562
      9894.32      0.58698040    0.0087886696
      9904.22      0.56905429    0.0089463123
      9914.13      0.55446008    0.0091330411
      9924.04      0.54261152    0.0093582274
      9933.96      0.52436253    0.0096747813
      9943.90      0.50961459     0.010023103
      9953.84      0.51125403     0.010465408
      9963.79      0.50998191     0.011034664
      9973.76      0.50416337     0.011772738
      9983.74      0.50701001     0.012631762
      9993.72      0.50762337     0.013849247
