# starting wavelength =        3729.4600
# ending wavelength =        8958.0624
# O2 telluric scale =        0
# O2 telluric shift =        0
# H2O telluric scale =        0
# H2O telluric shift =        0
      3729.98       1.1122266     0.037467926
      3733.71       1.1022500     0.031722238
      3737.45       1.0929377     0.027826748
      3741.18       1.0948850     0.024111649
      3744.93       1.1002519     0.021156165
      3748.67       1.1133559     0.018443175
      3752.42       1.1317296     0.016726234
      3756.17       1.1539886     0.015399013
      3759.93       1.1780527     0.014562032
      3763.69       1.2010294     0.013715239
      3767.45       1.2232366     0.012938182
      3771.22       1.2461888     0.012443631
      3774.99       1.2674160     0.012052258
      3778.77       1.2964099     0.011739491
      3782.54       1.3223926     0.011465374
      3786.33       1.3455542     0.011171768
      3790.11       1.3679225     0.010987369
      3793.90       1.3926004     0.010831657
      3797.70       1.4105428     0.010644175
      3801.50       1.4307277     0.010578385
      3805.30       1.4599913     0.010566760
      3809.10       1.4816826     0.010613196
      3812.91       1.4950198     0.010547475
      3816.73       1.5119928     0.010593484
      3820.54       1.5245837     0.010640828
      3824.36       1.5373491     0.010573731
      3828.19       1.5558868     0.010621390
      3832.02       1.5671477     0.010609839
      3835.85       1.5715795     0.010657806
      3839.68       1.5849312     0.010648205
      3843.52       1.6006341     0.010637423
      3847.37       1.6264894     0.010686000
      3851.22       1.6580991     0.010617179
      3855.07       1.6892160     0.010666260
      3858.92       1.7168740     0.010654469
      3862.78       1.7601190     0.010703623
      3866.64       1.8191937     0.010634414
      3870.51       1.8698648     0.010682863
      3874.38       1.9303901     0.010733274
      3878.26       1.9965877     0.010662341
      3882.13       2.0669444     0.010713357
      3886.02       2.1518414     0.010701080
      3889.90       2.2261580     0.010751057
      3893.79       2.3028574     0.010680867
      3897.69       2.3769389     0.010730217
      3901.59       2.4556680     0.010719358
      3905.49       2.5310693     0.010770369
      3909.39       2.6078183     0.010758791
      3913.30       2.6750363     0.010749967
      3917.22       2.7387696     0.010737723
      3921.13       2.8010606     0.010789319
      3925.06       2.8562392     0.010779129
      3928.98       2.8970930     0.010767658
      3932.91       2.9397052     0.010821948
      3936.84       2.9761074     0.010809064
      3940.78       2.9948822     0.010861857
      3944.72       3.0087447     0.010851046
      3948.67       3.0176550     0.010840255
      3952.61       3.0142317     0.010828513
      3956.57       3.0096512     0.010883782
      3960.52       3.0013830     0.010871104
      3964.48       2.9826846     0.010925981
      3968.45       2.9709882     0.010849834
      3972.42       2.9581983     0.010903658
      3976.39       2.9420697     0.010892038
      3980.37       2.9231954     0.010948689
      3984.35       2.9024805     0.010935902
      3988.33       2.8854877     0.010927997
      3992.32       2.8687800     0.010914234
      3996.31       2.8426806     0.010969920
      4000.31       2.8059964     0.010957963
      4004.31       2.7784066     0.011016731
      4008.31       2.7451024     0.011003632
      4012.32       2.7105704     0.010991395
      4016.33       2.6692597     0.010981728
      4020.35       2.6224324     0.010968421
      4024.37       2.5802837     0.011026376
      4028.40       2.5345133     0.011014808
      4032.42       2.4943735     0.011074369
      4036.46       2.4512910     0.011061430
      4040.50       2.4110688     0.011122374
      4044.54       2.3658521     0.011038794
      4048.58       2.3268621     0.011098232
      4052.63       2.2864730     0.011085810
      4056.68       2.2514134     0.011149323
      4060.74       2.2243945     0.011135445
      4064.80       2.1930985     0.011122461
      4068.86       2.1659201     0.011185357
      4072.93       2.1503276     0.011173944
      4077.01       2.1335976     0.011236789
      4081.08       2.1303498     0.011147871
      4085.17       2.1250484     0.011214400
      4089.25       2.1223514     0.011199846
      4093.34       2.1177142     0.011263909
      4097.43       2.1185682     0.011250969
      4101.53       2.1156602     0.011238687
      4105.63       2.1061329     0.011305166
      4109.74       2.1022984     0.011291454
      4113.85       2.1020560     0.011358782
      4117.96       2.0979189     0.011346306
      4122.08       2.0823660     0.011415747
      4126.20       2.0672591     0.011401645
      4130.33       2.0613231     0.011388321
      4134.46       2.0477208     0.011378466
      4138.59       2.0382630     0.011363478
      4142.73       2.0336036     0.011432437
      4146.88       2.0322762     0.011418523
      4151.02       2.0344391     0.011405459
      4155.18       2.0388342     0.011479214
      4159.33       2.0455897     0.011464337
      4163.49       2.0399847     0.011536317
      4167.65       2.0397436     0.011522458
      4171.82       2.0467583     0.011509227
      4175.99       2.0558646     0.011585561
      4180.17       2.0670214     0.011570336
      4184.35       2.0725258     0.011645471
      4188.54       2.0774095     0.011631548
      4192.72       2.0869192     0.011618111
      4196.92       2.0931133     0.011697817
      4201.11       2.0953351     0.011682515
      4205.31       2.0965402     0.011667664
      4209.52       2.0972368     0.011746672
      4213.73       2.0951696     0.011732828
      4217.94       2.0919567     0.011817407
      4222.16       2.0898515     0.011801576
      4226.38       2.0890464     0.011786365
      4230.61       2.0953830     0.011868319
      4234.84       2.1014835     0.011853755
      4239.08       2.1035674     0.011839652
      4243.32       2.1059403     0.011927913
      4247.56       2.1079526     0.011911707
      4251.81       2.1057842     0.011896041
      4256.06       2.1021668     0.011981797
      4260.32       2.0942888     0.012072378
      4264.58       2.0836431     0.011952052
      4268.84       2.0803810     0.011937666
      4273.11       2.0717509     0.012029592
      4277.38       2.0581856     0.012013193
      4281.66       2.0381401     0.011997013
      4285.94       2.0175633     0.011981295
      4290.23       1.9960803     0.011861236
      4294.52       1.9774045     0.011846344
      4298.81       1.9536361     0.011831562
      4303.11       1.9251870     0.011817103
      4307.42       1.8999742     0.011802759
      4311.72       1.8837057     0.011788743
      4316.04       1.8610909     0.011874803
      4320.35       1.8443114     0.011755450
      4324.67       1.8341692     0.011739905
      4329.00       1.8271034     0.011724407
      4333.33       1.8129745     0.011709370
      4337.66       1.8005741     0.011694321
      4342.00       1.7748396     0.011679301
      4346.34       1.7442527     0.011664462
      4350.69       1.7178524     0.011649836
      4355.04       1.6828510     0.011535690
      4359.39       1.6363311     0.011519730
      4363.75       1.5952983     0.011503998
      4368.12       1.5575986     0.011488288
      4372.48       1.5209453     0.011472807
      4376.86       1.4848584     0.011457317
      4381.23       1.4504143     0.011442006
      4385.61       1.4210634     0.011426605
      4390.00       1.4056802     0.011508700
      4394.39       1.3978416     0.011493327
      4398.79       1.3954692     0.011385491
      4403.18       1.4068383     0.011369350
      4407.59       1.4310313     0.011353339
      4412.00       1.4653736     0.011337304
      4416.41       1.5024906     0.011321163
      4420.82       1.5415100     0.011305354
      4425.25       1.5756395     0.011289457
      4429.67       1.6094205     0.011273481
      4434.10       1.6433387     0.011257668
      4438.54       1.6751517     0.011241981
      4442.97       1.7060957     0.011226165
      4447.42       1.7455157     0.011210277
      4451.86       1.7803791     0.011194511
      4456.32       1.8098820     0.011178866
      4460.77       1.8369039     0.011163102
      4465.24       1.8565567     0.011147233
      4469.70       1.8824633     0.011131474
      4474.17       1.9150770     0.011022325
      4478.65       1.9455610     0.011006530
      4483.12       1.9703103     0.010900787
      4487.61       2.0084273     0.010885278
      4492.09       2.0483516     0.010870048
      4496.59       2.0801416     0.010854449
      4501.08       2.1089342     0.010838896
      4505.58       2.1385521     0.010823411
      4510.09       2.1624875     0.010808007
      4514.60       2.1820963     0.010792312
      4519.12       2.2048008     0.010776727
      4523.63       2.2271095     0.010761272
      4528.16       2.2501575     0.010745944
      4532.69       2.2683467     0.010730367
      4537.22       2.2812644     0.010714952
      4541.76       2.2877895     0.010699671
      4546.30       2.2952921     0.010684543
      4550.85       2.2942994     0.010669184
      4555.40       2.2976596     0.010654017
      4559.95       2.3033290     0.010548097
      4564.51       2.3096765     0.010532429
      4569.08       2.3016137     0.010516679
      4573.65       2.2930923     0.010500854
      4578.22       2.2888331     0.010570918
      4582.80       2.2704215     0.010555240
      4587.38       2.2593613     0.010539548
      4591.97       2.2446303     0.010523832
      4596.56       2.2220916     0.010508276
      4601.16       2.1993899     0.010492909
      4605.76       2.1767312     0.010477564
      4610.37       2.1484497     0.010376170
      4614.98       2.1265601     0.010359841
      4619.59       2.0971745     0.010343690
      4624.21       2.0740046     0.010327558
      4628.84       2.0439333     0.010311639
      4633.47       2.0245297     0.010295753
      4638.10       2.0035101     0.010280132
      4642.74       1.9871162     0.010182748
      4647.38       1.9717301     0.010167670
      4652.03       1.9588930     0.010152607
      4656.68       1.9421990     0.010217443
      4661.34       1.9191942     0.010201023
      4666.00       1.8959849     0.010184516
      4670.67       1.8629861     0.010168371
      4675.33       1.8181386     0.010071672
      4680.01       1.7701778     0.010056191
      4684.69       1.7193935     0.010040891
      4689.38       1.6693057     0.010025947
      4694.07       1.6200840     0.010011223
      4698.76       1.5717282    0.0099968374
      4703.46       1.5367510    0.0099763119
      4708.16       1.5043541    0.0099604962
      4712.87       1.4827942    0.0099450893
      4717.58       1.4615533    0.0099299137
      4722.30       1.4547474    0.0099151476
      4727.03       1.4553023    0.0098193470
      4731.75       1.4508320    0.0098031870
      4736.48       1.4483992    0.0097874340
      4741.22       1.4541118    0.0098492265
      4745.96       1.4459851    0.0098340438
      4750.71       1.4287249    0.0097404404
      4755.46       1.4051018    0.0097240429
      4760.22       1.3676264    0.0097079860
      4764.97       1.3206692    0.0096922721
      4769.74       1.2684104    0.0097535110
      4774.51       1.2133165    0.0096610570
      4779.29       1.1605573    0.0096443946
      4784.07       1.1099599    0.0096283073
      4788.85       1.0682190    0.0096125431
      4793.64       1.0418395    0.0095230413
      4798.43       1.0168582    0.0095810860
      4803.23       1.0065796    0.0095645852
      4808.03       1.0101424    0.0095484994
      4812.84       1.0290291    0.0094590255
      4817.66       1.0536120    0.0094441541
      4822.48       1.0825543    0.0095005501
      4827.30       1.1195495    0.0094842924
      4832.12       1.1618452    0.0093952760
      4836.96       1.1988017    0.0093802072
      4841.79       1.2400013    0.0093658846
      4846.63       1.2798883    0.0093469792
      4851.48       1.3067263    0.0093312557
      4856.33       1.3307857    0.0093163335
      4861.19       1.3492498    0.0093019653
      4866.05       1.3578484    0.0092126781
      4870.92       1.3604707    0.0092673281
      4875.79       1.3573394    0.0092524791
      4880.66       1.3482757    0.0091654714
      4885.55       1.3355007    0.0091493219
      4890.43       1.3202581    0.0092036508
      4895.32       1.3026321    0.0091890024
      4900.22       1.2790248    0.0091017841
      4905.12       1.2516738    0.0090859991
      4910.02       1.2215192    0.0091403715
      4914.94       1.1905265    0.0090544516
      4919.85       1.1680914    0.0090380117
      4924.77       1.1513691    0.0090226805
      4929.70       1.1396645    0.0090069709
      4934.62       1.1396289    0.0089902333
      4939.56       1.1532520    0.0089746191
      4944.50       1.1786729    0.0088924808
      4949.44       1.2099973    0.0089425002
      4954.39       1.2475718    0.0089266216
      4959.35       1.2903187    0.0088445970
      4964.31       1.3351505    0.0088946488
      4969.27       1.3742582    0.0088786631
      4974.24       1.4149360    0.0087969939
      4979.22       1.4526742    0.0088467694
      4984.20       1.4797355    0.0087642292
      4989.18       1.4931505    0.0087493979
      4994.17       1.4984466    0.0087360103
      4999.16       1.4890659    0.0087166362
      5004.16       1.4719852    0.0087020489
      5009.17       1.4487688    0.0086209450
      5014.18       1.4193946    0.0086690401
      5019.19       1.3903086    0.0086546968
      5024.21       1.3614120    0.0085735332
      5029.23       1.3323984    0.0086216294
      5034.26       1.3128810    0.0086076941
      5039.30       1.2979190    0.0085263129
      5044.34       1.2908187    0.0085744387
      5049.39       1.2871044    0.0084947435
      5054.43       1.2879660    0.0084791452
      5059.49       1.3001756    0.0084638005
      5064.55       1.3230641    0.0084474156
      5069.61       1.3492930    0.0084324526
      5074.68       1.3854892    0.0084159961
      5079.76       1.4233982    0.0084001190
      5084.84       1.4651232    0.0083849325
      5089.92       1.5095192    0.0083683726
      5095.01       1.5537238    0.0082922309
      5100.11       1.5942505    0.0083370665
      5105.21       1.6325226    0.0083214556
      5110.31       1.6634375    0.0082464724
      5115.42       1.6963443    0.0082894444
      5120.54       1.7233812    0.0082142615
      5125.66       1.7420900    0.0082578488
      5130.79       1.7569312    0.0081823463
      5135.92       1.7719738    0.0081692364
      5141.05       1.7778798    0.0081505972
      5146.20       1.7804828    0.0081370531
      5151.34       1.7825118    0.0081189681
      5156.49       1.7809933    0.0081050790
      5161.65       1.7750581    0.0080874584
      5166.81       1.7662423    0.0080732946
      5171.98       1.7640549    0.0079989502
      5177.15       1.7655752    0.0080415383
      5182.33       1.7762491    0.0079677667
      5187.51       1.7838268    0.0080099033
      5192.70       1.7938306    0.0079366571
      5197.89       1.7995225    0.0079784127
      5203.09       1.8076686    0.0079056279
      5208.29       1.8187196    0.0078906379
      5213.50       1.8298853    0.0078747467
      5218.72       1.8395563    0.0078594974
      5223.93       1.8520502    0.0078435611
      5229.16       1.8634374    0.0078285107
      5234.39       1.8775638    0.0078125412
      5239.62       1.8874972    0.0077975548
      5244.86       1.8961199    0.0077814925
      5250.11       1.8996186    0.0077110727
      5255.36       1.8962027    0.0077505100
      5260.61       1.8891800    0.0076804735
      5265.87       1.8800673    0.0077194419
      5271.14       1.8753318    0.0076498596
      5276.41       1.8725932    0.0076885000
      5281.69       1.8657245    0.0076193619
      5286.97       1.8525090    0.0076575656
      5292.26       1.8405830    0.0075890501
      5297.55       1.8299915    0.0075721502
      5302.85       1.8130131    0.0075589435
      5308.15       1.7963841    0.0075417446
      5313.46       1.7762048    0.0075289902
      5318.77       1.7572004    0.0075114204
      5324.09       1.7392831    0.0074438283
      5329.42       1.7237271    0.0074812900
      5334.75       1.7052042    0.0074134928
      5340.08       1.6904905    0.0074515015
      5345.42       1.6716040    0.0073834201
      5350.77       1.6567328    0.0073679747
      5356.12       1.6358676    0.0074044424
      5361.48       1.6114809    0.0073375342
      5366.83       1.5904954    0.0073228715
      5372.20       1.5746145    0.0073073912
      5377.58       1.5530866    0.0072921498
      5382.95       1.5348069    0.0072776699
      5388.34       1.5161724    0.0072618708
      5393.72       1.5000571    0.0071978670
      5399.12       1.4889453    0.0072320515
      5404.52       1.4717781    0.0072167851
      5409.92       1.4551957    0.0071524722
      5415.33       1.4366605    0.0071867390
      5420.75       1.4314611    0.0071237104
      5426.17       1.4323158    0.0071071740
      5431.60       1.4316190    0.0071415310
      5437.03       1.4307854    0.0070784145
      5442.47       1.4311660    0.0070622300
      5447.91       1.4279524    0.0070503925
      5453.36       1.4294037    0.0070335348
      5458.81       1.4242241    0.0070175658
      5464.27       1.4190458    0.0070055649
      5469.73       1.4141007    0.0069888901
      5475.20       1.4062296    0.0069730431
      5480.68       1.3905490    0.0069115256
      5486.16       1.3834876    0.0069445348
      5491.65       1.3719829    0.0068824026
      5497.14       1.3626509    0.0068674384
      5502.64       1.3523836    0.0069003631
      5508.14       1.3371790    0.0068385770
      5513.65       1.3177158    0.0068235282
      5519.16       1.3034217    0.0068091303
      5524.68       1.3001074    0.0067949211
      5530.20       1.2883262    0.0067797815
      5535.73       1.2762670    0.0067652367
      5541.27       1.2675749    0.0067056996
      5546.81       1.2564144    0.0067363037
      5552.36       1.2509701    0.0067215757
      5557.91       1.2426231    0.0066631045
      5563.47       1.2351503    0.0066477284
      5569.04       1.2295168    0.0066782708
      5574.60       1.2233523    0.0066209831
      5580.18       1.2211754    0.0066053591
      5585.76       1.2196547    0.0065901692
      5591.35       1.2207701    0.0066205563
      5596.94       1.2170496    0.0065635730
      5602.53       1.2148649    0.0065480932
      5608.14       1.2148358    0.0065330907
      5613.75       1.2099216    0.0064761825
      5619.36       1.2007910    0.0065067363
      5624.98       1.1951522    0.0064914293
      5630.60       1.1939067    0.0064764855
      5636.23       1.1911013    0.0064199734
      5641.87       1.1897253    0.0064058432
      5647.51       1.1877349    0.0064353050
      5653.16       1.1846057    0.0064203434
      5658.82       1.1820081    0.0063641429
      5664.47       1.1731051    0.0063499197
      5670.14       1.1697528    0.0063359006
      5675.81       1.1689893    0.0063222069
      5681.48       1.1665541    0.0063089179
      5687.17       1.1612168    0.0062945626
      5692.85       1.1549036    0.0062804516
      5698.55       1.1431512    0.0062665568
      5704.25       1.1254897    0.0062130929
      5709.95       1.1041455    0.0061990035
      5715.66       1.0811616    0.0061855931
      5721.38       1.0540783    0.0062135238
      5727.10       1.0309748    0.0062003312
      5732.83       1.0132246    0.0061487071
      5738.56      0.99861842    0.0061353064
      5744.30      0.98866446    0.0061233619
      5750.04      0.98386849    0.0061137096
      5755.79      0.98838864    0.0061055923
      5761.55       1.0030469    0.0060584527
      5767.31       1.0277681    0.0060509076
      5773.08       1.0620332    0.0060839955
      5778.85       1.1092758    0.0060766278
      5784.63       1.1667574    0.0060668899
      5790.41       1.2239287    0.0060553769
      5796.21       1.2816266    0.0060045526
      5802.00       1.3408080    0.0059916793
      5807.81       1.3932044    0.0059777750
      5813.61       1.4385729    0.0059631188
      5819.43       1.4741028    0.0059485746
      5825.25       1.5006905    0.0059345417
      5831.07       1.5229414    0.0059205372
      5836.90       1.5340208    0.0058687765
      5842.74       1.5304769    0.0058531791
      5848.58       1.5212773    0.0058370052
      5854.43       1.5086626    0.0058205559
      5860.29       1.4888579    0.0058426065
      5866.15       1.4670699    0.0058259608
      5872.01       1.4427392    0.0058084942
      5877.89       1.4229785    0.0057916156
      5883.76       1.4005567    0.0057762359
      5889.65       1.3752355    0.0057267654
      5895.54       1.3517065    0.0057109668
      5901.43       1.3321299    0.0056953032
      5907.34       1.3150167    0.0056806323
      5913.24       1.2945526    0.0056667047
      5919.16       1.2762156    0.0056531438
      5925.08       1.2613773    0.0056398367
      5931.00       1.2457962    0.0056268674
      5936.93       1.2314912    0.0056142228
      5942.87       1.2173006    0.0056016111
      5948.81       1.1986707    0.0055889977
      5954.76       1.1828605    0.0055765355
      5960.72       1.1694243    0.0055641932
      5966.68       1.1538600    0.0055519337
      5972.64       1.1367305    0.0054708659
      5978.62       1.1290153    0.0054589103
      5984.60       1.1200129    0.0054469266
      5990.58       1.1132259    0.0054350433
      5996.57       1.1017060    0.0054231885
      6002.57       1.0925074    0.0054113717
      6008.57       1.0856158    0.0053995974
      6014.58       1.0821037    0.0053878685
      6020.60       1.0727641    0.0053761990
      6026.62       1.0670226    0.0053645888
      6032.65       1.0626595    0.0053530428
      6038.68       1.0610154    0.0053415633
      6044.72       1.0630902    0.0053301507
      6050.76       1.0593263    0.0053188104
      6056.81       1.0537184    0.0053075468
      6062.87       1.0522482    0.0052619823
      6068.93       1.0462097    0.0052506771
      6075.00       1.0405967    0.0052394337
      6081.08       1.0317203    0.0052282738
      6087.16       1.0250774    0.0052172983
      6093.25       1.0244823    0.0052070729
      6099.34       1.0218127    0.0052303786
      6105.44       1.0185269    0.0052216961
      6111.54       1.0138438    0.0051776066
      6117.66       1.0060632    0.0051678747
      6123.78       1.0021420    0.0051613218
      6129.90      0.99713394    0.0051576184
      6136.03      0.98913020    0.0051565169
      6142.17      0.98018988    0.0051572979
      6148.31      0.97209776    0.0051588321
      6154.46      0.96105095    0.0051286737
      6160.61      0.94790071    0.0051276532
      6166.77      0.93100897    0.0051239022
      6172.94      0.91282084    0.0051167544
      6179.11      0.89470951    0.0051058775
      6185.29      0.86606758    0.0051197498
      6191.48      0.84583750    0.0050690473
      6197.67      0.81948281    0.0050491335
      6203.87      0.79522761    0.0050293973
      6210.07      0.77148995    0.0050117360
      6216.28      0.74395135    0.0049972019
      6222.50      0.71908487    0.0049516906
      6228.72      0.69463144    0.0049360179
      6234.95      0.67473913    0.0049215597
      6241.19      0.66606194    0.0049370504
      6247.42      0.66543330    0.0049244808
      6253.67      0.67455424    0.0048818997
      6259.93      0.68573335    0.0048699065
      6266.19      0.70586250    0.0048584124
      6272.46      0.73253180    0.0048475294
      6278.73      0.76513499    0.0048363724
      6285.01      0.80274815    0.0048261302
      6291.29      0.83706728    0.0048164097
      6297.58      0.87589739    0.0048070958
      6303.88      0.91433469    0.0047694808
      6310.19      0.95431650    0.0047612040
      6316.50      0.98614660    0.0047810195
      6322.81       1.0148293    0.0047743587
      6329.14       1.0365700    0.0047413438
      6335.47       1.0513082    0.0047369832
      6341.80       1.0631768    0.0047318734
      6348.14       1.0676439    0.0047247283
      6354.49       1.0747068    0.0047185944
      6360.85       1.0798689    0.0047123003
      6367.21       1.0826859    0.0046766888
      6373.57       1.0845807    0.0046678830
      6379.95       1.0811551    0.0046854189
      6386.33       1.0803430    0.0046756070
      6392.72       1.0778383    0.0046369458
      6399.11       1.0703080    0.0046270567
      6405.51       1.0651454    0.0046446806
      6411.92       1.0552430    0.0046083963
      6418.32       1.0518031    0.0045995978
      6424.74       1.0464321    0.0045905628
      6431.17       1.0409100    0.0045799710
      6437.60       1.0365183    0.0045696702
      6444.04       1.0352054    0.0045330387
      6450.48       1.0357207    0.0045242686
      6456.94       1.0360889    0.0045404703
      6463.39       1.0371504    0.0045038928
      6469.85       1.0389211    0.0044945371
      6476.33       1.0396359    0.0045106410
      6482.80       1.0342361    0.0044760710
      6489.28       1.0333295    0.0044686232
      6495.77       1.0241318    0.0044349052
      6502.27       1.0182168    0.0044525779
      6508.77       1.0123479    0.0044457925
      6515.28       1.0006542    0.0044125477
      6521.80      0.98966507    0.0044305205
      6528.32      0.98180861    0.0043979894
      6534.85      0.97654279    0.0043909004
      6541.38      0.97274457    0.0044093106
      6547.92      0.97219603    0.0043770235
      6554.47      0.97414921    0.0043703893
      6561.03      0.98235017    0.0043635625
      6567.59      0.99210911    0.0043567945
      6574.16       1.0045995    0.0043258621
      6580.73       1.0203612    0.0043436295
      6587.31       1.0355159    0.0043373106
      6593.90       1.0519988    0.0043308726
      6600.50       1.0635453    0.0043244655
      6607.10       1.0763899    0.0042941654
      6613.70       1.0868796    0.0043119764
      6620.32       1.0898475    0.0042817465
      6626.94       1.0946269    0.0042765608
      6633.57       1.0953808    0.0042697007
      6640.20       1.0915219    0.0042645309
      6646.84       1.0844128    0.0042580158
      6653.49       1.0801607    0.0042528509
      6660.14       1.0686417    0.0042469565
      6666.80       1.0567058    0.0042446129
      6673.47       1.0461997    0.0042288323
      6680.14       1.0316907    0.0042621770
      6686.82       1.0165436    0.0042289024
      6693.51       1.0001604    0.0042471857
      6700.20      0.98872740    0.0042350200
      6706.90      0.97596929    0.0042844890
      6713.61      0.96265816    0.0043051937
      6720.32      0.95482535    0.0043525151
      6727.05      0.94587096    0.0044214909
      6733.77      0.94099446    0.0044569118
      6740.51      0.93141991    0.0045420002
      6747.25      0.92154198    0.0045556366
      6754.00      0.91536880    0.0046069275
      6760.75      0.91027580    0.0045772163
      6767.51      0.90256957    0.0045792896
      6774.28      0.89590761    0.0045100999
      6781.05      0.89072963    0.0044489034
      6787.84      0.88196908    0.0043972270
      6794.62      0.87752013    0.0043406705
      6801.42      0.87132094    0.0043099212
      6808.22      0.86420868    0.0042805969
      6815.03      0.85539366    0.0042234410
      6821.85      0.84897149    0.0042144514
      6828.67      0.84176987    0.0041727557
      6835.50      0.83159713    0.0041779227
      6842.33      0.82518919    0.0041404477
      6849.17      0.82117707    0.0041273659
      6856.02      0.80991058    0.0041187065
      6862.88      0.80105126    0.0041121478
      6869.74      0.78894207    0.0041082748
      6876.61      0.77800897    0.0041041947
      6883.49      0.77088674    0.0040999564
      6890.37      0.76402882    0.0040720451
      6897.27      0.75515245    0.0040871092
      6904.16      0.75322916    0.0040575986
      6911.07      0.75021330    0.0040495218
      6917.98      0.75124381    0.0040651661
      6924.89      0.75311183    0.0040377783
      6931.82      0.76090062    0.0040315692
      6938.75      0.76999107    0.0040267011
      6945.69      0.78188953    0.0040213542
      6952.64      0.79322546    0.0040172519
      6959.59      0.80553485    0.0040148938
      6966.55      0.81971613    0.0040147849
      6973.52      0.83603124    0.0039955285
      6980.49      0.85110075    0.0039988439
      6987.47      0.86142771    0.0040240964
      6994.46      0.87109378    0.0040079831
      7001.46      0.87679566    0.0040213160
      7008.46      0.88445275    0.0040603146
      7015.46      0.88666338    0.0040680316
      7022.48      0.88397819    0.0041114058
      7029.51      0.88268455    0.0041613864
      7036.53      0.87661621    0.0041979435
      7043.57      0.86850243    0.0042353505
      7050.62      0.85756282    0.0042608996
      7057.66      0.84617548    0.0042498296
      7064.72      0.83775730    0.0042563824
      7071.79      0.82736465    0.0042770585
      7078.86      0.81259780    0.0042470642
      7085.94      0.79661378    0.0042357615
      7093.03      0.78669095    0.0042271249
      7100.12      0.77605070    0.0042028284
      7107.22      0.76987494    0.0042284971
      7114.33      0.76475155    0.0042335265
      7121.44      0.75192384    0.0042146913
      7128.56      0.74265936    0.0042143887
      7135.69      0.73829618    0.0042069103
      7142.83      0.73874272    0.0042144572
      7149.97      0.73536287    0.0041749364
      7157.12      0.73542112    0.0041577461
      7164.28      0.73941098    0.0041421363
      7171.44      0.74173265    0.0041240759
      7178.62      0.74784911    0.0040831407
      7185.80      0.75407535    0.0040834599
      7192.98      0.75905558    0.0040627542
      7200.17      0.76285293    0.0040454069
      7207.38      0.76581978    0.0040314058
      7214.58      0.76616127    0.0039995081
      7221.80      0.76453844    0.0039900755
      7229.02      0.76460775    0.0039840033
      7236.25      0.75966939    0.0039796882
      7243.49      0.75876027    0.0039560019
      7250.73      0.75391376    0.0039724643
      7257.98      0.74363645    0.0039681288
      7265.24      0.73995843    0.0039650796
      7272.51      0.73032568    0.0039630555
      7279.78      0.72613776    0.0039623621
      7287.06      0.72107865    0.0039420629
      7294.35      0.71619365    0.0039431752
      7301.64      0.71079162    0.0039446975
      7308.94      0.70857984    0.0039467476
      7316.25      0.70502991    0.0039496833
      7323.57      0.70257959    0.0039531196
      7330.89      0.69433367    0.0039358210
      7338.22      0.69110189    0.0039395635
      7345.56      0.68690593    0.0039437970
      7352.91      0.68284595    0.0039483151
      7360.26      0.67887319    0.0039530924
      7367.62      0.67590949    0.0039593111
      7374.99      0.67175644    0.0039759712
      7382.37      0.67424555    0.0040177626
      7389.75      0.67383053    0.0040444015
      7397.14      0.67110341    0.0040957344
      7404.53      0.66740756    0.0040562012
      7411.94      0.66430652    0.0040905748
      7419.35      0.66626713    0.0041866996
      7426.77      0.66280764    0.0043405415
      7434.20      0.65951513    0.0045539947
      7441.63      0.65583492    0.0048211712
      7449.07      0.65225715    0.0051300295
      7456.52      0.64838446    0.0054615522
      7463.98      0.64246855    0.0057819288
      7471.45      0.63600766    0.0060414887
      7478.92      0.63660968    0.0061853182
      7486.40      0.63590700    0.0061775708
      7493.88      0.63179085    0.0060234933
      7501.38      0.63484495    0.0057659575
      7508.88      0.63146649    0.0054721156
      7516.39      0.63369996    0.0051713232
      7523.91      0.63283034    0.0049037637
      7531.43      0.63334065    0.0047000528
      7538.96      0.63306244    0.0045370740
      7546.50      0.63353621    0.0043713747
      7554.05      0.64467481    0.0042862852
      7561.60      0.64816795    0.0042431224
      7569.16      0.65313324    0.0042084701
      7576.73      0.65826274    0.0041914467
      7584.31      0.65398257    0.0041709246
      7591.89      0.64776865    0.0041591562
      7599.49      0.64576702    0.0041545736
      7607.09      0.64494781    0.0041365628
      7614.70      0.64080295    0.0041406571
      7622.31      0.63995374    0.0041469808
      7629.93      0.63399214    0.0041546035
      7637.56      0.62905437    0.0041632387
      7645.20      0.62380017    0.0041728234
      7652.85      0.62051191    0.0041639736
      7660.50      0.62174568    0.0041741511
      7668.16      0.62211332    0.0041847513
      7675.83      0.62326998    0.0041956317
      7683.50      0.62771445    0.0042066158
      7691.19      0.63684960    0.0042181341
      7698.88      0.64015267    0.0042330036
      7706.58      0.64654349    0.0042462583
      7714.29      0.64890784    0.0042601373
      7722.00      0.65156793    0.0042749963
      7729.73      0.65235417    0.0042720158
      7737.45      0.65247660    0.0042875533
      7745.19      0.65905195    0.0043018281
      7752.94      0.66353596    0.0043148358
      7760.69      0.66451481    0.0043309584
      7768.45      0.66933197    0.0043430237
      7776.22      0.67040181    0.0043551162
      7784.00      0.67161479    0.0043671774
      7791.78      0.67242746    0.0043600976
      7799.57      0.66767308    0.0043726178
      7807.37      0.67108901    0.0043859075
      7815.18      0.67010802    0.0044223966
      7822.99      0.66161914    0.0044175063
      7830.82      0.65748435    0.0044320471
      7838.65      0.65291127    0.0044469886
      7846.49      0.63917869    0.0044419877
      7854.34      0.63619061    0.0044787997
      7862.19      0.62675309    0.0044921244
      7870.05      0.62452062    0.0044855323
      7877.93      0.61654692    0.0044992130
      7885.80      0.60565533    0.0045369268
      7893.69      0.60050909    0.0045309073
      7901.58      0.59419581    0.0045451244
      7909.49      0.59109527    0.0045615039
      7917.40      0.58739298    0.0045617938
      7925.31      0.58177229    0.0046068695
      7933.24      0.57599992    0.0046328273
      7941.17      0.56689429    0.0046445342
      7949.11      0.55288523    0.0047054500
      7957.06      0.55160768    0.0047490733
      7965.02      0.54423537    0.0047834174
      7972.98      0.53508975    0.0048398508
      7980.96      0.53410057    0.0049130107
      7988.94      0.52944131    0.0049795839
      7996.93      0.52694552    0.0050465068
      8004.93      0.52040141    0.0051061269
      8012.93      0.51148072    0.0051355255
      8020.95      0.50419822    0.0051360407
      8028.97      0.49433087    0.0051565203
      8036.99      0.48852534    0.0051759391
      8045.03      0.48675021    0.0051873265
      8053.08      0.47841687    0.0051948600
      8061.13      0.47652707    0.0052007754
      8069.20      0.47236740    0.0052047768
      8077.26      0.47048052    0.0052156339
      8085.34      0.46857796    0.0052268709
      8093.43      0.46158839    0.0052127786
      8101.52      0.45938595    0.0052441303
      8109.62      0.46319740    0.0052255726
      8117.73      0.46803340    0.0052293152
      8125.85      0.46340204    0.0052324700
      8133.98      0.46765271    0.0052379025
      8142.11      0.46691113    0.0052573916
      8150.25      0.46878121    0.0052773298
      8158.41      0.46745286    0.0052592931
      8166.56      0.46233078    0.0052758863
      8174.73      0.46075252    0.0052482226
      8182.91      0.45969881    0.0052728884
      8191.09      0.46393982    0.0052506650
      8199.28      0.46671312    0.0052563593
      8207.48      0.47265036    0.0052642139
      8215.69      0.48019023    0.0052692127
      8223.91      0.48619638    0.0052787018
      8232.13      0.49274253    0.0052670610
      8240.36      0.49471668    0.0053063741
      8248.60      0.49813362    0.0052986481
      8256.85      0.49845654    0.0053389824
      8265.11      0.49900396    0.0053329747
      8273.37      0.49582131    0.0053762910
      8281.65      0.48094873    0.0053732973
      8289.93      0.47895523    0.0053971646
      8298.22      0.47281318    0.0054178109
      8306.52      0.46633550    0.0054435923
      8314.83      0.45897844    0.0054434536
      8323.14      0.44803186    0.0054931109
      8331.46      0.44345788    0.0054945125
      8339.80      0.44219566    0.0055454299
      8348.13      0.44527075    0.0055465554
      8356.48      0.44568108    0.0055759703
      8364.84      0.45405724    0.0055989125
      8373.21      0.45704983    0.0056271163
      8381.58      0.46589195    0.0056274725
      8389.96      0.47619034    0.0056775506
      8398.35      0.47365865    0.0057057675
      8406.75      0.47544798    0.0057060227
      8415.16      0.47096832    0.0057576802
      8423.57      0.47302326    0.0057588003
      8432.00      0.46884019    0.0057874059
      8440.43      0.46473861    0.0057884898
      8448.87      0.46624579    0.0058417742
      8457.32      0.46808247    0.0058731976
      8465.78      0.46705074    0.0058764762
      8474.25      0.46357488    0.0059317456
      8482.72      0.46126412    0.0059348209
      8491.20      0.45872137    0.0059675557
      8499.69      0.45975811    0.0060005515
      8508.19      0.45641619    0.0060267576
      8516.70      0.45797597    0.0060592522
      8525.22      0.46204573    0.0060919166
      8533.75      0.46874476    0.0060945291
      8542.28      0.47129286    0.0060740864
      8550.82      0.47816611    0.0060495050
      8559.37      0.48051140    0.0060310186
      8567.93      0.48203281    0.0060139095
      8576.50      0.48011874    0.0059983190
      8585.08      0.47902554    0.0059784174
      8593.66      0.48618294    0.0059651373
      8602.26      0.48988083    0.0059527297
      8610.86      0.48939889    0.0059411335
      8619.47      0.49045540    0.0059495010
      8628.09      0.48701793    0.0059144916
      8636.72      0.48623222    0.0059050493
      8645.36      0.48060419    0.0058966821
      8654.00      0.47741760    0.0058899397
      8662.66      0.47210173    0.0058785484
      8671.32      0.46633904    0.0058744846
      8679.99      0.46380100    0.0058737535
      8688.67      0.46103122    0.0058747459
      8697.36      0.45393732    0.0058752065
      8706.06      0.45330278    0.0058577570
      8714.76      0.45001446    0.0058807099
      8723.48      0.44858665    0.0058897748
      8732.21      0.44117260    0.0059072229
      8740.93      0.43817672    0.0059329386
      8749.68      0.43866658    0.0059441782
      8758.43      0.44032174    0.0059900290
      8767.19      0.43669053    0.0060454631
      8775.96      0.42862849    0.0061058181
      8784.73      0.42639120    0.0061632916
      8793.52      0.41478746    0.0062131639
      8802.31      0.41467907    0.0062297465
      8811.11      0.41313528    0.0062790999
      8819.92      0.40814793    0.0063115804
      8828.75      0.40131087    0.0063424851
      8837.57      0.39358576    0.0063643311
      8846.41      0.38795560    0.0063813426
      8855.26      0.37562338    0.0063717900
      8864.12      0.36914994    0.0063808793
      8872.98      0.36126054    0.0063852451
      8881.85      0.35818765    0.0063864660
      8890.73      0.34642422    0.0063772529
      8899.63      0.33581678    0.0063854608
      8908.52      0.33428013    0.0063953193
      8917.43      0.32982250    0.0064498034
      8926.35      0.33432200    0.0065652669
      8935.28      0.33826612    0.0066967574
      8944.22      0.34714063    0.0068628123
      8953.16      0.35597143    0.0070465255
