# starting wavelength =        3729.4600
# ending wavelength =        9063.5800
# O2 telluric scale =        0
# O2 telluric shift =        0
# H2O telluric scale =        0
# H2O telluric shift =        0
      3729.98      0.77102340     0.041681896
      3733.71      0.78684939     0.035283905
      3737.45      0.79942437     0.030940679
      3741.18      0.81160490     0.026805071
      3744.93      0.82412220     0.023515314
      3748.67      0.83994842     0.020496046
      3752.42      0.86178881     0.018584703
      3756.17      0.88966716     0.017106944
      3759.93      0.92020950     0.016171929
      3763.69      0.95572711     0.015228935
      3767.45       1.0073525     0.014362960
      3771.22       1.0646329     0.013811467
      3774.99       1.1206231     0.013374671
      3778.77       1.1780524     0.013023925
      3782.54       1.2320449     0.012717621
      3786.33       1.2908140     0.012388785
      3790.11       1.3491998     0.012182138
      3793.90       1.4093594     0.012007371
      3797.70       1.4684764     0.011796431
      3801.50       1.5218338     0.011720458
      3805.30       1.5832119     0.011701492
      3809.10       1.6560042     0.011747837
      3812.91       1.7271675     0.011670025
      3816.73       1.8009446     0.011715874
      3820.54       1.8784556     0.011763160
      3824.36       1.9398380     0.011683918
      3828.19       2.0068586     0.011731529
      3832.02       2.0704744     0.011712698
      3835.85       2.1359805     0.011760602
      3839.68       2.2053580     0.011745940
      3843.52       2.2756632     0.011727984
      3847.37       2.3424344     0.011776478
      3851.22       2.4092431     0.011695591
      3855.07       2.4797248     0.011744616
      3858.92       2.5482468     0.011725583
      3862.78       2.6057158     0.011774697
      3866.64       2.6743582     0.011693459
      3870.51       2.7374489     0.011741704
      3874.38       2.8059780     0.011792067
      3878.26       2.8735442     0.011709102
      3882.13       2.9467573     0.011760099
      3886.02       3.0171743     0.011740589
      3889.90       3.0856533     0.011790382
      3893.79       3.1541496     0.011708388
      3897.69       3.2222981     0.011757468
      3901.59       3.2914276     0.011739549
      3905.49       3.3535389     0.011790390
      3909.39       3.4017075     0.011771686
      3913.30       3.4458128     0.011758019
      3917.22       3.4930537     0.011738620
      3921.13       3.5347830     0.011790011
      3925.06       3.5678172     0.011772859
      3928.98       3.5935679     0.011756329
      3932.91       3.6153884     0.011810588
      3936.84       3.6365891     0.011790512
      3940.78       3.6437166     0.011843074
      3944.72       3.6355675     0.011825258
      3948.67       3.6302924     0.011809487
      3952.61       3.6053168     0.011790693
      3956.57       3.5915467     0.011845860
      3960.52       3.5671048     0.011826045
      3964.48       3.5449661     0.011880720
      3968.45       3.5178629     0.011792916
      3972.42       3.4807243     0.011846413
      3976.39       3.4353457     0.011827788
      3980.37       3.3918061     0.011884292
      3984.35       3.3509819     0.011864396
      3988.33       3.3050296     0.011851818
      3992.32       3.2587598     0.011830897
      3996.31       3.2036228     0.011886256
      4000.31       3.1452940     0.011867295
      4004.31       3.0871823     0.011925926
      4008.31       3.0196381     0.011905728
      4012.32       2.9569263     0.011886477
      4016.33       2.8945301     0.011872033
      4020.35       2.8247733     0.011851666
      4024.37       2.7635277     0.011909290
      4028.40       2.7076399     0.011890803
      4032.42       2.6537047     0.011950091
      4036.46       2.6047426     0.011930124
      4040.50       2.5537079     0.011990835
      4044.54       2.5142848     0.011895732
      4048.58       2.4722686     0.011954784
      4052.63       2.4354259     0.011935404
      4056.68       2.3965791     0.011998770
      4060.74       2.3635906     0.011977822
      4064.80       2.3298496     0.011957857
      4068.86       2.3012628     0.012020459
      4072.93       2.2712118     0.012002175
      4077.01       2.2470290     0.012064653
      4081.08       2.2223865     0.011964181
      4085.17       2.2003937     0.012030573
      4089.25       2.1815025     0.012008951
      4093.34       2.1751688     0.012072620
      4097.43       2.1636690     0.012052725
      4101.53       2.1563032     0.012033516
      4105.63       2.1440624     0.012099709
      4109.74       2.1345517     0.012079008
      4113.85       2.1257323     0.012145988
      4117.96       2.1204273     0.012126602
      4122.08       2.1157368     0.012195765
      4126.20       2.1144993     0.012174632
      4130.33       2.1107226     0.012154352
      4134.46       2.1132091     0.012139813
      4138.59       2.1102178     0.012117789
      4142.73       2.1095249     0.012186285
      4146.88       2.1135834     0.012165407
      4151.02       2.1066004     0.012145456
      4155.18       2.0957928     0.012218947
      4159.33       2.0910860     0.012197073
      4163.49       2.0821236     0.012268581
      4167.65       2.0736626     0.012247766
      4171.82       2.0679705     0.012227641
      4175.99       2.0628541     0.012303674
      4180.17       2.0653596     0.012281423
      4184.35       2.0634104     0.012356088
      4188.54       2.0639116     0.012335208
      4192.72       2.0595778     0.012314866
      4196.92       2.0574421     0.012394264
      4201.11       2.0647640     0.012371938
      4205.31       2.0673956     0.012350107
      4209.52       2.0755370     0.012428634
      4213.73       2.0832374     0.012407866
      4217.94       2.0831269     0.012492172
      4222.16       2.0750715     0.012469304
      4226.38       2.0794155     0.012447099
      4230.61       2.0788600     0.012528514
      4234.84       2.0820794     0.012506985
      4239.08       2.0822099     0.012485962
      4243.32       2.0769664     0.012573899
      4247.56       2.0905407     0.012550645
      4251.81       2.0988905     0.012527982
      4256.06       2.1061247     0.012613136
      4260.32       2.1094242     0.012701223
      4264.58       2.1022278     0.012569483
      4268.84       2.0976783     0.012548195
      4273.11       2.0791607     0.012639669
      4277.38       2.0560001     0.012616256
      4281.66       2.0413950     0.012593094
      4285.94       2.0245534     0.012570437
      4290.23       2.0007896     0.012439393
      4294.52       1.9698512     0.012417699
      4298.81       1.9379585     0.012396139
      4303.11       1.8880401     0.012374942
      4307.42       1.8426456     0.012353882
      4311.72       1.8005594     0.012333188
      4316.04       1.7604716     0.012418178
      4320.35       1.7169445     0.012288363
      4324.67       1.6746394     0.012266136
      4329.00       1.6482271     0.012243962
      4333.33       1.6182313     0.012222299
      4337.66       1.5974267     0.012200650
      4342.00       1.5742118     0.012179046
      4346.34       1.5541617     0.012157652
      4350.69       1.5341476     0.012136498
      4355.04       1.5104010     0.012012713
      4359.39       1.4954562     0.011990262
      4363.75       1.4925393     0.011968067
      4368.12       1.4888376     0.011945921
      4372.48       1.4916584     0.011924034
      4376.86       1.5013271     0.011902156
      4381.23       1.5179009     0.011880483
      4385.61       1.5260318     0.011858741
      4390.00       1.5435529     0.011939124
      4394.39       1.5721087     0.011917398
      4398.79       1.6085699     0.011800813
      4403.18       1.6438796     0.011778379
      4407.59       1.6937441     0.011756097
      4412.00       1.7523160     0.011733814
      4416.41       1.8022912     0.011711448
      4420.82       1.8585239     0.011689439
      4425.25       1.9047789     0.011667359
      4429.67       1.9412277     0.011645222
      4434.10       1.9688598     0.011623271
      4438.54       2.0071385     0.011601463
      4442.97       2.0503483     0.011579573
      4447.42       2.0831179     0.011557600
      4451.86       2.1191149     0.011535782
      4456.32       2.1514354     0.011514112
      4460.77       2.1845700     0.011492335
      4465.24       2.2149297     0.011470470
      4469.70       2.2408659     0.011448744
      4474.17       2.2721413     0.011331932
      4478.65       2.3014759     0.011310249
      4483.12       2.3208647     0.011195296
      4487.61       2.3451903     0.011173999
      4492.09       2.3699432     0.011153004
      4496.59       2.3962180     0.011131651
      4501.08       2.4182333     0.011110364
      4505.58       2.4360253     0.011089165
      4510.09       2.4442063     0.011068072
      4514.60       2.4480486     0.011046699
      4519.12       2.4546161     0.011025459
      4523.63       2.4704767     0.011004373
      4528.16       2.4760127     0.010983433
      4532.69       2.4752154     0.010962260
      4537.22       2.4755558     0.010941273
      4541.76       2.4688945     0.010920441
      4546.30       2.4620684     0.010899787
      4550.85       2.4544730     0.010878914
      4555.40       2.4416936     0.010858258
      4559.95       2.4312346     0.010744305
      4564.51       2.4129645     0.010723219
      4569.08       2.3907126     0.010702075
      4573.65       2.3731544     0.010680871
      4578.22       2.3607071     0.010746159
      4582.80       2.3481633     0.010725102
      4587.38       2.3287593     0.010704056
      4591.97       2.3037632     0.010682998
      4596.56       2.2855891     0.010662127
      4601.16       2.2632588     0.010641463
      4605.76       2.2363707     0.010620842
      4610.37       2.2104732     0.010512212
      4614.98       2.1830302     0.010490676
      4619.59       2.1580030     0.010469343
      4624.21       2.1293560     0.010448049
      4628.84       2.1016749     0.010426984
      4633.47       2.0791377     0.010405973
      4638.10       2.0557402     0.010385247
      4642.74       2.0365343     0.010281164
      4647.38       2.0204560     0.010261070
      4652.03       1.9996406     0.010241009
      4656.68       1.9749717     0.010300714
      4661.34       1.9469697     0.010279285
      4666.00       1.9112985     0.010257788
      4670.67       1.8620799     0.010236676
      4675.33       1.7933377     0.010133718
      4680.01       1.7247453     0.010113351
      4684.69       1.6524876     0.010093186
      4689.38       1.5758998     0.010073400
      4694.07       1.5030933     0.010053847
      4698.76       1.4365038     0.010034655
      4703.46       1.3735138     0.010007742
      4708.16       1.3276267    0.0099871575
      4712.87       1.2881547    0.0099670008
      4717.58       1.2620141    0.0099470930
      4722.30       1.2454198    0.0099276135
      4727.03       1.2426686    0.0098262739
      4731.75       1.2455197    0.0098054780
      4736.48       1.2616886    0.0097851089
      4741.22       1.2786422    0.0098414791
      4745.96       1.2848657    0.0098216810
      4750.71       1.2872485    0.0097228408
      4755.46       1.2774654    0.0097019038
      4760.22       1.2523181    0.0096813269
      4764.97       1.2122813    0.0096611101
      4769.74       1.1647748    0.0097168266
      4774.51       1.1182952    0.0096194340
      4779.29       1.0781099    0.0095983313
      4784.07       1.0428157    0.0095778203
      4788.85       1.0083791    0.0095576502
      4793.64      0.98997813    0.0094634661
      4798.43      0.97958755    0.0095159423
      4803.23      0.97605239    0.0094951000
      4808.03      0.98728921    0.0094746872
      4812.84       1.0164873    0.0093807648
      4817.66       1.0451852    0.0093616271
      4822.48       1.0883141    0.0094123924
      4827.30       1.1343975    0.0093918881
      4832.12       1.1788492    0.0092986552
      4836.96       1.2213919    0.0092793957
      4841.79       1.2659711    0.0092608937
      4846.63       1.3066875    0.0092364402
      4851.48       1.3363437    0.0092165921
      4856.33       1.3628226    0.0091975562
      4861.19       1.3891751    0.0091790821
      4866.05       1.4151423    0.0090860161
      4870.92       1.4317467    0.0091349476
      4875.79       1.4455862    0.0091160566
      4880.66       1.4533900    0.0090254110
      4885.55       1.4573336    0.0090053123
      4890.43       1.4523772    0.0090538691
      4895.32       1.4398996    0.0090352507
      4900.22       1.4192471    0.0089446217
      4905.12       1.3922240    0.0089249530
      4910.02       1.3491809    0.0089734985
      4914.94       1.3045945    0.0088843169
      4919.85       1.2600102    0.0088640662
      4924.77       1.2184426    0.0088449175
      4929.70       1.1775221    0.0088240496
      4934.62       1.1516340    0.0088035649
      4939.56       1.1345660    0.0087841980
      4944.50       1.1313617    0.0086990846
      4949.44       1.1370281    0.0087432909
      4954.39       1.1544977    0.0087237203
      4959.35       1.1733752    0.0086388817
      4964.31       1.2042414    0.0086830829
      4969.27       1.2352288    0.0086634662
      4974.24       1.2702777    0.0085791360
      4979.22       1.3078586    0.0086230297
      4984.20       1.3430866    0.0085379642
      4989.18       1.3726960    0.0085195768
      4994.17       1.3932636    0.0085026136
      4999.16       1.4079995    0.0084785347
      5004.16       1.4185064    0.0084604388
      5009.17       1.4266007    0.0083770679
      5014.18       1.4310624    0.0084192805
      5019.19       1.4327677    0.0084014911
      5024.21       1.4369094    0.0083182076
      5029.23       1.4421193    0.0083603869
      5034.26       1.4524475    0.0083430324
      5039.30       1.4678016    0.0082597104
      5044.34       1.4787943    0.0083018826
      5049.39       1.4911880    0.0082203045
      5054.43       1.5073702    0.0082014415
      5059.49       1.5205946    0.0081815876
      5064.55       1.5359655    0.0081620035
      5069.61       1.5562751    0.0081438074
      5074.68       1.5876601    0.0081229467
      5079.76       1.6171400    0.0081039074
      5084.84       1.6468173    0.0080843171
      5089.92       1.6769282    0.0080646619
      5095.01       1.7051516    0.0079870086
      5100.11       1.7379124    0.0080259156
      5105.21       1.7702715    0.0080072279
      5110.31       1.8005326    0.0079308400
      5115.42       1.8291332    0.0079679278
      5120.54       1.8582138    0.0078914508
      5125.66       1.8860244    0.0079291128
      5130.79       1.9072909    0.0078524306
      5135.92       1.9276385    0.0078362794
      5141.05       1.9413562    0.0078136536
      5146.20       1.9548900    0.0077971216
      5151.34       1.9662969    0.0077750754
      5156.49       1.9702728    0.0077582450
      5161.65       1.9754319    0.0077366905
      5166.81       1.9804149    0.0077196352
      5171.98       1.9943736    0.0076444942
      5177.15       2.0019944    0.0076811379
      5182.33       2.0066446    0.0076066422
      5187.51       2.0127975    0.0076428380
      5192.70       2.0208146    0.0075689425
      5197.89       2.0307445    0.0076047552
      5203.09       2.0372565    0.0075313972
      5208.29       2.0417068    0.0075137240
      5213.50       2.0466177    0.0074939496
      5218.72       2.0459933    0.0074761942
      5223.93       2.0495025    0.0074565521
      5229.16       2.0486435    0.0074388891
      5234.39       2.0493549    0.0074192597
      5239.62       2.0466283    0.0074016979
      5244.86       2.0407442    0.0073820240
      5250.11       2.0334589    0.0073113811
      5255.36       2.0261580    0.0073449319
      5260.61       2.0182291    0.0072747462
      5265.87       2.0045496    0.0073078392
      5271.14       1.9928024    0.0072381773
      5276.41       1.9763541    0.0072709459
      5281.69       1.9528013    0.0072017981
      5286.97       1.9365245    0.0072341419
      5292.26       1.9160637    0.0071656732
      5297.55       1.8961551    0.0071454649
      5302.85       1.8786076    0.0071298237
      5308.15       1.8536249    0.0071093786
      5313.46       1.8359937    0.0070941960
      5318.77       1.8133257    0.0070734442
      5324.09       1.7929097    0.0070061529
      5329.42       1.7693206    0.0070377727
      5334.75       1.7467808    0.0069703822
      5340.08       1.7224386    0.0070025057
      5345.42       1.6966381    0.0069349363
      5350.77       1.6737767    0.0069163484
      5356.12       1.6574145    0.0069470035
      5361.48       1.6407480    0.0068806765
      5366.83       1.6216771    0.0068628911
      5372.20       1.6039760    0.0068453672
      5377.58       1.5853349    0.0068270801
      5382.95       1.5720106    0.0068105287
      5388.34       1.5598601    0.0067917632
      5393.72       1.5521204    0.0067284504
      5399.12       1.5472167    0.0067569550
      5404.52       1.5408349    0.0067387545
      5409.92       1.5267027    0.0066750408
      5415.33       1.5227868    0.0067038551
      5420.75       1.5115056    0.0066416720
      5426.17       1.4978628    0.0066224035
      5431.60       1.4876420    0.0066510403
      5437.03       1.4741143    0.0065889081
      5442.47       1.4567015    0.0065700346
      5447.91       1.4435628    0.0065561759
      5453.36       1.4305760    0.0065367205
      5458.81       1.4223914    0.0065181170
      5464.27       1.4099853    0.0065041537
      5469.73       1.3993207    0.0064849368
      5475.20       1.3860879    0.0064665117
      5480.68       1.3774127    0.0064062369
      5486.16       1.3693857    0.0064336098
      5491.65       1.3565664    0.0063728449
      5497.14       1.3471856    0.0063552915
      5502.64       1.3376231    0.0063826724
      5508.14       1.3256340    0.0063223177
      5513.65       1.3134207    0.0063048116
      5519.16       1.3053914    0.0062879285
      5524.68       1.2975341    0.0062721319
      5530.20       1.2874698    0.0062546099
      5535.73       1.2778053    0.0062376549
      5541.27       1.2687919    0.0061796978
      5546.81       1.2600586    0.0062048370
      5552.36       1.2571346    0.0061877802
      5557.91       1.2512712    0.0061309262
      5563.47       1.2498495    0.0061133399
      5569.04       1.2459440    0.0061384149
      5574.60       1.2402699    0.0060827698
      5580.18       1.2393636    0.0060650218
      5585.76       1.2395947    0.0060476954
      5591.35       1.2378521    0.0060726232
      5596.94       1.2362269    0.0060174200
      5602.53       1.2344440    0.0059999035
      5608.14       1.2347447    0.0059828276
      5613.75       1.2353423    0.0059278354
      5619.36       1.2327646    0.0059529276
      5624.98       1.2280085    0.0059356478
      5630.60       1.2237306    0.0059187242
      5636.23       1.2160672    0.0058642539
      5641.87       1.2060810    0.0058481399
      5647.51       1.2006190    0.0058722253
      5653.16       1.1917132    0.0058553744
      5658.82       1.1884735    0.0058013473
      5664.47       1.1825307    0.0057852348
      5670.14       1.1789169    0.0057693375
      5675.81       1.1743849    0.0057537446
      5681.48       1.1678467    0.0057393217
      5687.17       1.1652124    0.0057231745
      5692.85       1.1578262    0.0057072718
      5698.55       1.1482227    0.0056915883
      5704.25       1.1341036    0.0056403813
      5709.95       1.1225879    0.0056245873
      5715.66       1.1114716    0.0056094355
      5721.38       1.1012533    0.0056321533
      5727.10       1.0909962    0.0056172191
      5732.83       1.0820346    0.0055678700
      5738.56       1.0776729    0.0055528053
      5744.30       1.0749219    0.0055390853
      5750.04       1.0790761    0.0055274661
      5755.79       1.0950787    0.0055172519
      5761.55       1.1127422    0.0054721526
      5767.31       1.1408451    0.0054624915
      5773.08       1.1730987    0.0054898685
      5778.85       1.2127902    0.0054803773
      5784.63       1.2549673    0.0054687514
      5790.41       1.2992714    0.0054555405
      5796.21       1.3390673    0.0054073033
      5802.00       1.3781528    0.0053929393
      5807.81       1.4107469    0.0053776752
      5813.61       1.4323627    0.0053617595
      5819.43       1.4498628    0.0053459681
      5825.25       1.4570291    0.0053306543
      5831.07       1.4642947    0.0053153841
      5836.90       1.4664981    0.0052665872
      5842.74       1.4545092    0.0052499560
      5848.58       1.4428817    0.0052328358
      5854.43       1.4239442    0.0052154952
      5860.29       1.4019378    0.0052329831
      5866.15       1.3766215    0.0052154958
      5872.01       1.3503102    0.0051973079
      5877.89       1.3244877    0.0051796700
      5883.76       1.3035466    0.0051633897
      5889.65       1.2818998    0.0051169868
      5895.54       1.2594945    0.0051003993
      5901.43       1.2426839    0.0050839644
      5907.34       1.2244865    0.0050684349
      5913.24       1.2054121    0.0050535901
      5919.16       1.1846045    0.0050390958
      5925.08       1.1660762    0.0050248508
      5931.00       1.1476121    0.0050109284
      5936.93       1.1323240    0.0049973148
      5942.87       1.1253975    0.0049837535
      5948.81       1.1116693    0.0049702120
      5954.76       1.1022511    0.0049568262
      5960.72       1.0971648    0.0049435689
      5966.68       1.0864476    0.0049304063
      5972.64       1.0781027    0.0048561849
      5978.62       1.0709050    0.0048433638
      5984.60       1.0691223    0.0048305389
      5990.58       1.0671189    0.0048178266
      5996.57       1.0635980    0.0048051600
      6002.57       1.0578120    0.0047925494
      6008.57       1.0530399    0.0047799937
      6014.58       1.0511041    0.0047675022
      6020.60       1.0443466    0.0047550846
      6026.62       1.0379132    0.0047427410
      6032.65       1.0319794    0.0047304745
      6038.68       1.0242995    0.0047182895
      6044.72       1.0139998    0.0047061837
      6050.76       1.0065653    0.0046941640
      6056.81      0.99932870    0.0046822322
      6062.87      0.98966975    0.0046398304
      6068.93      0.98128420    0.0046279203
      6075.00      0.97089687    0.0046160849
      6081.08      0.96199393    0.0046043469
      6087.16      0.95265334    0.0045927904
      6093.25      0.94634640    0.0045819207
      6099.34      0.93915917    0.0046003460
      6105.44      0.92720364    0.0045908734
      6111.54      0.91064859    0.0045500530
      6117.66      0.89735398    0.0045397005
      6123.78      0.88459558    0.0045321706
      6129.90      0.86752386    0.0045271623
      6136.03      0.85216512    0.0045244553
      6142.17      0.83879546    0.0045234076
      6148.31      0.81873917    0.0045230245
      6154.46      0.80103414    0.0044946550
      6160.61      0.78324162    0.0044920455
      6166.77      0.76516179    0.0044870532
      6172.94      0.74893533    0.0044791010
      6179.11      0.72881163    0.0044679064
      6185.29      0.71436001    0.0044781840
      6191.48      0.69494563    0.0044320240
      6197.67      0.68398899    0.0044130363
      6203.87      0.67369773    0.0043942367
      6210.07      0.66964848    0.0043772735
      6216.28      0.66245461    0.0043630547
      6222.50      0.65050535    0.0043216403
      6228.72      0.64294038    0.0043065061
      6234.95      0.63882580    0.0042924536
      6241.19      0.63995815    0.0043043530
      6247.42      0.64307583    0.0042919821
      6253.67      0.65332562    0.0042533116
      6259.93      0.66950524    0.0042414965
      6266.19      0.68626012    0.0042301370
      6272.46      0.71130230    0.0042193308
      6278.73      0.74121770    0.0042079823
      6285.01      0.77253497    0.0041977811
      6291.29      0.80784148    0.0041880556
      6297.58      0.83957205    0.0041787031
      6303.88      0.87699477    0.0041446233
      6310.19      0.90778275    0.0041362198
      6316.50      0.94839712    0.0041520840
      6322.81      0.98350578    0.0041451203
      6329.14       1.0134139    0.0041151626
      6335.47       1.0362393    0.0041102423
      6341.80       1.0559114    0.0041046839
      6348.14       1.0706279    0.0040971000
      6354.49       1.0848304    0.0040906921
      6360.85       1.0955752    0.0040841648
      6367.21       1.0984509    0.0040521260
      6373.57       1.1025255    0.0040434699
      6379.95       1.1084543    0.0040575206
      6386.33       1.1127511    0.0040480340
      6392.72       1.1195808    0.0040134801
      6399.11       1.1200687    0.0040039777
      6405.51       1.1217046    0.0040181805
      6411.92       1.1256346    0.0039857730
      6418.32       1.1277458    0.0039772803
      6424.74       1.1337144    0.0039686001
      6431.17       1.1407932    0.0039583899
      6437.60       1.1489271    0.0039486645
      6444.04       1.1551815    0.0039161120
      6450.48       1.1610811    0.0039077541
      6456.94       1.1706832    0.0039208835
      6463.39       1.1786940    0.0038884710
      6469.85       1.1849497    0.0038796751
      6476.33       1.1864557    0.0038927828
      6482.80       1.1806387    0.0038621869
      6489.28       1.1703226    0.0038551008
      6495.77       1.1611920    0.0038252988
      6502.27       1.1525988    0.0038398427
      6508.77       1.1412310    0.0038333897
      6515.28       1.1277362    0.0038040772
      6521.80       1.1109610    0.0038189382
      6528.32       1.1064534    0.0037902963
      6534.85       1.1004825    0.0037836688
      6541.38       1.0939828    0.0037989654
      6547.92       1.0910665    0.0037706120
      6554.47       1.0909296    0.0037644384
      6561.03       1.0957804    0.0037580102
      6567.59       1.1010445    0.0037517630
      6574.16       1.1060281    0.0037246825
      6580.73       1.1120138    0.0037395539
      6587.31       1.1175578    0.0037337543
      6593.90       1.1273584    0.0037277894
      6600.50       1.1279599    0.0037219562
      6607.10       1.1272766    0.0036955471
      6613.70       1.1261995    0.0037105599
      6620.32       1.1233668    0.0036842618
      6626.94       1.1192715    0.0036795629
      6633.57       1.1152437    0.0036733909
      6640.20       1.1107070    0.0036687472
      6646.84       1.1079958    0.0036629234
      6653.49       1.1028398    0.0036583250
      6660.14       1.0958204    0.0036530869
      6666.80       1.0896899    0.0036509585
      6673.47       1.0837289    0.0036372866
      6680.14       1.0793624    0.0036658816
      6686.82       1.0721191    0.0036372013
      6693.51       1.0620560    0.0036528808
      6700.20       1.0516249    0.0036423984
      6706.90       1.0399545    0.0036849419
      6713.61       1.0298061    0.0037027764
      6720.32       1.0244985    0.0037435178
      6727.05       1.0115453    0.0038029258
      6733.77      0.99919867    0.0038335005
      6740.51      0.98322729    0.0039068229
      6747.25      0.96716806    0.0039187228
      6754.00      0.95367146    0.0039630511
      6760.75      0.94252516    0.0039377279
      6767.51      0.92733038    0.0039397679
      6774.28      0.91350742    0.0038805156
      6781.05      0.89718583    0.0038281731
      6787.84      0.88716987    0.0037839663
      6794.62      0.87743799    0.0037356475
      6801.42      0.86637884    0.0037094982
      6808.22      0.85403878    0.0036846809
      6815.03      0.84431510    0.0036358577
      6821.85      0.83727881    0.0036285015
      6828.67      0.82733735    0.0035930256
      6835.50      0.81844566    0.0035979092
      6842.33      0.80849560    0.0035660960
      6849.17      0.80099332    0.0035553550
      6856.02      0.79056881    0.0035483400
      6862.88      0.77917753    0.0035432701
      6869.74      0.76681586    0.0035405531
      6876.61      0.76221662    0.0035375526
      6883.49      0.75796395    0.0035345683
      6890.37      0.75500346    0.0035111303
      6897.27      0.75390528    0.0035247582
      6904.16      0.76054986    0.0034999693
      6911.07      0.76561049    0.0034937588
      6917.98      0.77373263    0.0035079620
      6924.89      0.77966562    0.0034850582
      6931.82      0.78686350    0.0034805274
      6938.75      0.79477292    0.0034770040
      6945.69      0.80691835    0.0034732590
      6952.64      0.81836316    0.0034706124
      6959.59      0.82378534    0.0034693062
      6966.55      0.83236649    0.0034702606
      6973.52      0.83527146    0.0034543384
      6980.49      0.83831405    0.0034581714
      6987.47      0.84100579    0.0034809075
      6994.46      0.83784235    0.0034678889
      7001.46      0.83355360    0.0034804670
      7008.46      0.83149386    0.0035151857
      7015.46      0.82761836    0.0035228510
      7022.48      0.82518238    0.0035615267
      7029.51      0.82582574    0.0036059841
      7036.53      0.82164253    0.0036386496
      7043.57      0.81213555    0.0036724021
      7050.62      0.80117451    0.0036959587
      7057.66      0.79089501    0.0036876433
      7064.72      0.77706258    0.0036947598
      7071.79      0.76690008    0.0037139899
      7078.86      0.75784077    0.0036892173
      7085.94      0.74791582    0.0036807989
      7093.03      0.73805771    0.0036747026
      7100.12      0.73166527    0.0036548836
      7107.22      0.72084389    0.0036785587
      7114.33      0.71062334    0.0036844907
      7121.44      0.70552488    0.0036695316
      7128.56      0.69519099    0.0036708627
      7135.69      0.69051813    0.0036659416
      7142.83      0.68720019    0.0036739363
      7149.97      0.68684465    0.0036409243
      7157.12      0.68626974    0.0036275718
      7164.28      0.69057257    0.0036156399
      7171.44      0.69008756    0.0036015697
      7178.62      0.69240572    0.0035673209
      7185.80      0.69359611    0.0035690897
      7192.98      0.69337661    0.0035526586
      7200.17      0.69261057    0.0035391669
      7207.38      0.69252139    0.0035286095
      7214.58      0.69165300    0.0035022127
      7221.80      0.69100869    0.0034956603
      7229.02      0.69173035    0.0034920784
      7236.25      0.68747212    0.0034900558
      7243.49      0.67985650    0.0034708790
      7250.73      0.67503139    0.0034869238
      7257.98      0.66688544    0.0034849133
      7265.24      0.65757069    0.0034840516
      7272.51      0.64876450    0.0034841080
      7279.78      0.64139712    0.0034853544
      7287.06      0.63529766    0.0034691778
      7294.35      0.63129441    0.0034720370
      7301.64      0.63173279    0.0034752728
      7308.94      0.62948349    0.0034789904
      7316.25      0.63047482    0.0034835109
      7323.57      0.62674919    0.0034884906
      7330.89      0.62407998    0.0034749843
      7338.22      0.62411477    0.0034802598
      7345.56      0.62363548    0.0034859905
      7352.91      0.62574681    0.0034919902
      7360.26      0.62880508    0.0034982387
      7367.62      0.63004087    0.0035057696
      7374.99      0.62779117    0.0035224633
      7382.37      0.62869133    0.0035611803
      7389.75      0.62876302    0.0035860982
      7397.14      0.62548171    0.0036332725
      7404.53      0.62307335    0.0036009283
      7411.94      0.61958646    0.0036335828
      7419.35      0.61752658    0.0037209698
      7426.77      0.61416348    0.0038596147
      7434.20      0.61288992    0.0040513502
      7441.63      0.61161817    0.0042910525
      7449.07      0.60989438    0.0045683666
      7456.52      0.60555228    0.0048663192
      7463.98      0.59894509    0.0051555663
      7471.45      0.59885126    0.0053918824
      7478.92      0.59602661    0.0055259611
      7486.40      0.60304961    0.0055248801
      7493.88      0.60633546    0.0053922430
      7501.38      0.60865264    0.0051657692
      7508.88      0.60561464    0.0049053892
      7516.39      0.60622520    0.0046383299
      7523.91      0.60922688    0.0044008421
      7531.43      0.61544161    0.0042208136
      7538.96      0.61086402    0.0040767807
      7546.50      0.60766186    0.0039300761
      7554.05      0.60336794    0.0038556847
      7561.60      0.60198065    0.0038191886
      7569.16      0.60099099    0.0037901879
      7576.73      0.60013666    0.0037771447
      7584.31      0.60164949    0.0037608082
      7591.89      0.60216936    0.0037524213
      7599.49      0.60201964    0.0037505764
      7607.09      0.60626357    0.0037368848
      7614.70      0.60618273    0.0037429518
      7622.31      0.60672581    0.0037510641
      7629.93      0.60653875    0.0037603739
      7637.56      0.60544907    0.0037706148
      7645.20      0.61105505    0.0037817332
      7652.85      0.60646085    0.0037763909
      7660.50      0.61014188    0.0037880664
      7668.16      0.61212592    0.0038001372
      7675.83      0.61195695    0.0038124728
      7683.50      0.60428569    0.0038249200
      7691.19      0.60519009    0.0038378664
      7698.88      0.60261497    0.0038543660
      7706.58      0.60643866    0.0038689173
      7714.29      0.60888813    0.0038840560
      7722.00      0.61354362    0.0039001031
      7729.73      0.62049478    0.0039001205
      7737.45      0.62316415    0.0039168104
      7745.19      0.62668636    0.0039323759
      7752.94      0.62982496    0.0039468073
      7760.69      0.62610518    0.0039646049
      7768.45      0.63184610    0.0039781834
      7776.22      0.62804800    0.0039917871
      7784.00      0.63017928    0.0040053687
      7791.78      0.63285409    0.0040016412
      7799.57      0.62970586    0.0040156536
      7807.37      0.62969861    0.0040303826
      7815.18      0.62086008    0.0040667210
      7822.99      0.61165002    0.0040650122
      7830.82      0.60134220    0.0040809332
      7838.65      0.59263257    0.0040972308
      7846.49      0.58019954    0.0040954020
      7854.34      0.57399554    0.0041321441
      7862.19      0.56459413    0.0041469734
      7870.05      0.55846747    0.0041436694
      7877.93      0.55300812    0.0041588462
      7885.80      0.54332517    0.0041965215
      7893.69      0.54052195    0.0041937180
      7901.58      0.53347665    0.0042093660
      7909.49      0.52684197    0.0042270140
      7917.40      0.52664642    0.0042299849
      7925.31      0.51971465    0.0042745184
      7933.24      0.51831674    0.0043010726
      7941.17      0.51383660    0.0043146490
      7949.11      0.50826369    0.0043740047
      7957.06      0.49401994    0.0044170582
      7965.02      0.47768802    0.0044517459
      7972.98      0.46287554    0.0045068215
      7980.96      0.44169172    0.0045780706
      7988.94      0.41750226    0.0046427189
      7996.93      0.39403309    0.0047077547
      8004.93      0.37201632    0.0047667630
      8012.93      0.34547144    0.0047971731
      8020.95      0.32316946    0.0048008035
      8028.97      0.29923344    0.0048227084
      8036.99      0.27445759    0.0048441003
      8045.03      0.25811647    0.0048573857
      8053.08      0.23576963    0.0048670716
      8061.13      0.21883638    0.0048757957
      8069.20      0.21272634    0.0048821940
      8077.26      0.20855484    0.0048955521
      8085.34      0.20530178    0.0049087246
      8093.43      0.20633570    0.0048983265
      8101.52      0.21039838    0.0049306131
      8109.62      0.21805874    0.0049159311
      8117.73      0.22719823    0.0049219261
      8125.85      0.23226596    0.0049278094
      8133.98      0.23670466    0.0049353672
      8142.11      0.24110188    0.0049567909
      8150.25      0.24705921    0.0049782078
      8158.41      0.25400682    0.0049639208
      8166.56      0.25609633    0.0049821831
      8174.73      0.26285994    0.0049586628
      8182.91      0.27048787    0.0049845983
      8191.09      0.27625695    0.0049661802
      8199.28      0.28102164    0.0049739224
      8207.48      0.28423686    0.0049841444
      8215.69      0.29350713    0.0049911596
      8223.91      0.30602953    0.0050028633
      8232.13      0.31717316    0.0049942960
      8240.36      0.33037148    0.0050340660
      8248.60      0.34321615    0.0050291805
      8256.85      0.35402680    0.0050699123
      8265.11      0.36783196    0.0050666224
      8273.37      0.37575333    0.0051102101
      8281.65      0.38555088    0.0051097663
      8289.93      0.39671077    0.0051350763
      8298.22      0.40301328    0.0051568790
      8306.52      0.40835851    0.0051840015
      8314.83      0.41444563    0.0051862078
      8323.14      0.41947993    0.0052358757
      8331.46      0.43014672    0.0052395326
      8339.80      0.44011210    0.0052904199
      8348.13      0.44480042    0.0052937903
      8356.48      0.45277422    0.0053243687
      8364.84      0.45377471    0.0053483472
      8373.21      0.45556388    0.0053777609
      8381.58      0.45435011    0.0053803333
      8389.96      0.45592994    0.0054304589
      8398.35      0.45990686    0.0054598708
      8406.75      0.45687592    0.0054622982
      8415.16      0.45799435    0.0055139486
      8423.57      0.46140340    0.0055171736
      8432.00      0.46548384    0.0055469220
      8440.43      0.47133580    0.0055500740
      8448.87      0.46635554    0.0056032867
      8457.32      0.46221355    0.0056357210
      8465.78      0.45888937    0.0056409374
      8474.25      0.45690069    0.0056960681
      8482.72      0.45055917    0.0057010602
      8491.20      0.45534305    0.0057347221
      8499.69      0.45235636    0.0057686361
      8508.19      0.45341115    0.0057956507
      8516.70      0.45368739    0.0058290680
      8525.22      0.45351206    0.0058626431
      8533.75      0.45049761    0.0058670964
      8542.28      0.44374587    0.0058494886
      8550.82      0.44014803    0.0058274896
      8559.37      0.44356457    0.0058116751
      8567.93      0.44918812    0.0057971471
      8576.50      0.45268352    0.0057840430
      8585.08      0.46599610    0.0057664281
      8593.66      0.47466579    0.0057554790
      8602.26      0.48374215    0.0057453344
      8610.86      0.48486759    0.0057359353
      8619.47      0.48614983    0.0057456476
      8628.09      0.49006126    0.0057134177
      8636.72      0.49881613    0.0057060018
      8645.36      0.50646152    0.0056995901
      8654.00      0.51455018    0.0056947115
      8662.66      0.51691472    0.0056850318
      8671.32      0.52227133    0.0056826720
      8679.99      0.52648923    0.0056834918
      8688.67      0.52467320    0.0056859456
      8697.36      0.52167266    0.0056878701
      8706.06      0.52057309    0.0056722729
      8714.76      0.51836780    0.0056958078
      8723.48      0.51408314    0.0057060044
      8732.21      0.49954517    0.0057242912
      8740.93      0.48493144    0.0057505724
      8749.68      0.47509879    0.0057626877
      8758.43      0.46210072    0.0058084364
      8767.19      0.45507565    0.0058634481
      8775.96      0.44500485    0.0059232245
      8784.73      0.44206243    0.0059802333
      8793.52      0.42997472    0.0060299607
      8802.31      0.42274427    0.0060472688
      8811.11      0.41724612    0.0060964400
      8819.92      0.40532198    0.0061293216
      8828.75      0.39464804    0.0061606307
      8837.57      0.38524864    0.0061831427
      8846.41      0.38068526    0.0062009509
      8855.26      0.37857960    0.0061927405
      8864.12      0.37710092    0.0062027471
      8872.98      0.37716517    0.0062081345
      8881.85      0.37883512    0.0062104349
      8890.73      0.37876216    0.0062026123
      8899.63      0.37798470    0.0062116019
      8908.52      0.36955022    0.0062221737
      8917.43      0.36762418    0.0062756982
      8926.35      0.36722256    0.0063885153
      8935.28      0.36519243    0.0065169501
      8944.22      0.36115866    0.0066790321
      8953.16      0.36221024    0.0068583316
      8962.11      0.36119466    0.0070972157
      8971.08      0.36454275    0.0073635312
      8980.05      0.36726020    0.0077444251
      8989.03      0.36665706    0.0081572821
      8998.02      0.36505543    0.0087140491
      9007.02      0.35931335    0.0095077553
      9016.02      0.35775602     0.010376962
      9025.04      0.35744704     0.011685111
      9034.07      0.36064310     0.013101713
      9043.10      0.36480711     0.015237935
      9052.14      0.37227314     0.017624857
      9061.20      0.37536022     0.021180123
