# starting wavelength =        3458.6100
# ending wavelength =        7372.2100
# O2 telluric scale =        0
# O2 telluric shift =        0
# H2O telluric scale =        0
# H2O telluric shift =        0
      3460.58      0.54524726      0.17288032
      3464.04      0.48820820      0.14667343
      3467.51      0.49392371      0.12920827
      3470.98      0.49150764      0.11240395
      3474.45      0.48357106     0.099147310
      3477.92      0.46354824     0.088791698
      3481.40      0.47179855     0.080705446
      3484.88      0.45623583     0.073354509
      3488.37      0.42596657     0.068737518
      3491.86      0.39088924     0.065143363
      3495.35      0.35237935     0.062326881
      3498.84      0.31681721     0.060094180
      3502.34      0.32316182     0.058305353
      3505.84      0.32484864     0.056727460
      3509.35      0.29481413     0.055419074
      3512.86      0.29423895     0.054315956
      3516.37      0.27899500     0.053021070
      3519.89      0.27718518     0.052223164
      3523.41      0.27894615     0.051779395
      3526.93      0.28750337     0.051606135
      3530.46      0.31514331     0.051369279
      3533.99      0.31869096     0.051195093
      3537.53      0.33766207     0.051285524
      3541.06      0.33772773     0.051375878
      3544.60      0.34702173     0.050874272
      3548.15      0.33312374     0.050966042
      3551.70      0.33925175     0.050793605
      3555.25      0.34017059     0.050891954
      3558.80      0.34544156     0.050648050
      3562.36      0.35713756     0.050480799
      3565.92      0.37279481     0.050575284
      3569.49      0.35658513     0.050405078
      3573.06      0.37888819     0.050169273
      3576.64      0.38886558     0.050266382
      3580.21      0.41138676     0.050102513
      3583.79      0.45764426     0.050197740
      3587.38      0.48046950     0.049966860
      3590.96      0.50339327     0.049792547
      3594.55      0.50074917     0.049899634
      3598.15      0.51203683     0.050005022
      3601.75      0.50860522     0.049494667
      3605.35      0.50614201     0.049599740
      3608.96      0.46612002     0.049430898
      3612.56      0.45743934     0.049197961
      3616.18      0.46818192     0.049306063
      3619.79      0.44416257     0.049146049
      3623.41      0.45829016     0.049250659
      3627.04      0.45871065     0.049019099
      3630.66      0.46718248     0.048848132
      3634.29      0.47452321     0.048971663
      3637.93      0.50440607     0.048731090
      3641.57      0.52203268     0.048854856
      3645.21      0.53583294     0.048681913
      3648.86      0.49694863     0.048811930
      3652.50      0.48909769     0.048572956
      3656.16      0.48259615     0.048411376
      3659.81      0.46833201     0.048530663
      3663.47      0.46110451     0.048303983
      3667.14      0.43993292     0.048131325
      3670.80      0.41600456     0.048268753
      3674.48      0.41742314     0.048030202
      3678.15      0.41660740     0.048167865
      3681.83      0.41957174     0.047995204
      3685.51      0.41796897     0.047768415
      3689.20      0.44522621     0.047903140
      3692.88      0.46271816     0.047745675
      3696.58      0.48609799     0.047505952
      3700.27      0.51092342     0.047647403
      3703.98      0.50877228     0.047792809
      3707.68      0.50754747     0.047250047
      3711.39      0.49792349     0.047396238
      3715.10      0.49631146     0.047542499
      3718.81      0.54027155     0.047323318
      3722.53      0.52200004     0.047145330
      3726.26      0.53916552     0.047305881
      3729.98      0.58027363     0.047071147
      3733.71      0.58431209     0.047232598
      3737.45      0.60277857     0.047060301
      3741.18      0.58769011     0.046834606
      3744.93      0.58159256     0.046996355
      3748.67      0.56879597     0.047162988
      3752.42      0.54730430     0.046604397
      3756.17      0.53824542     0.046764877
      3759.93      0.49141577     0.046947276
      3763.69      0.47166925     0.046711795
      3767.45      0.47698191     0.046891955
      3771.22      0.46485197     0.046720369
      3774.99      0.45890849     0.046492826
      3778.77      0.44977388     0.046680727
      3782.54      0.44941213     0.046449323
      3786.33      0.44969559     0.046641167
      3790.11      0.44897237     0.046465648
      3793.90      0.45778431     0.046241811
      3797.70      0.46413893     0.046438573
      3801.50      0.45838456     0.046631555
      3805.30      0.47766904     0.046414076
      3809.10      0.47845439     0.046616001
      3812.91      0.48127498     0.046012937
      3816.73      0.52337149     0.046223729
      3820.54      0.53141305     0.046427608
      3824.36      0.55544547     0.046208800
      3828.19      0.56644636     0.046426005
      3832.02      0.56380141     0.046650209
      3835.85      0.56672157     0.046034589
      3839.68      0.58594037     0.046248673
      3843.52      0.63217846     0.046026901
      3847.37      0.64383165     0.046263898
      3851.22      0.67914006     0.046034947
      3855.07      0.69427081     0.045876610
      3858.92      0.70076090     0.045640463
      3862.78      0.71423186     0.045417717
      3866.64      0.73105217     0.045257229
      3870.51      0.72724660     0.045025531
      3874.38      0.74246449     0.044410305
      3878.26      0.77213511     0.044644030
      3882.13      0.76309084     0.044416875
      3886.02      0.74898769     0.043810063
      3889.90      0.75556390     0.044038962
      3893.79      0.78661136     0.043816073
      3897.69      0.78014619     0.043217603
      3901.59      0.79281032     0.043442425
      3905.49      0.78581272     0.043222108
      3909.39      0.77828318     0.042632412
      3913.30      0.83007406     0.042854235
      3917.22      0.87367255     0.042636808
      3921.13      0.87771111     0.042053293
      3925.06      0.89980497     0.041854796
      3928.98      0.89625263     0.041686246
      3932.91      0.89458300     0.041479633
      3936.84      0.88489003     0.041281097
      3940.78      0.86507055     0.041118630
      3944.72      0.83717613     0.040913301
      3948.67      0.83330223     0.040714965
      3952.61      0.82709350     0.040168328
      3956.57      0.81550196     0.040354944
      3960.52      0.81634808     0.040157140
      3964.48      0.84943879     0.039966425
      3968.45      0.87716750     0.039419708
      3972.42      0.87092186     0.039606434
      3976.39      0.87894102     0.039414437
      3980.37      0.88318014     0.038882327
      3984.35      0.90786064     0.038685405
      3988.33      0.94445631     0.038870100
      3992.32      0.94824379     0.038353788
      3996.31      0.94928812     0.038156668
      4000.31      0.95749723     0.037963739
      4004.31      0.95025117     0.038146989
      4008.31      0.93567494     0.037638037
      4012.32      0.92270278     0.037444321
      4016.33      0.90571835     0.037256657
      4020.35      0.89699637     0.037129921
      4024.37      0.87689294     0.036934509
      4028.40      0.86440944     0.036744906
      4032.42      0.87640377     0.036559054
      4036.46      0.88583254     0.036071072
      4040.50      0.89482250     0.036244623
      4044.54      0.89273539     0.036056997
      4048.58      0.89745721     0.035572376
      4052.63      0.88172165     0.035395203
      4056.68      0.85491592     0.035222463
      4060.74      0.83744461     0.035384543
      4064.80      0.82557264     0.034905958
      4068.86      0.80150791     0.034731719
      4072.93      0.78268997     0.034559709
      4077.01      0.76407142     0.034391646
      4081.08      0.74753031     0.034545545
      4085.17      0.72404012     0.034079000
      4089.25      0.72816001     0.033909102
      4093.34      0.72488367     0.033742048
      4097.43      0.71062335     0.033577777
      4101.53      0.68396859     0.033129725
      4105.63      0.66842190     0.033272373
      4109.74      0.67171140     0.033106378
      4113.85      0.66807759     0.032943469
      4117.96      0.67786980     0.032781780
      4122.08      0.69391822     0.032346296
      4126.20      0.68311801     0.032180734
      4130.33      0.67429276     0.032321260
      4134.46      0.66469123     0.032161048
      4138.59      0.68113152     0.031745141
      4142.73      0.68172894     0.031581740
      4146.88      0.67761014     0.031419749
      4151.02      0.68480117     0.031260465
      4155.18      0.68648068     0.031104455
      4159.33      0.68788556     0.031241213
      4163.49      0.66611642     0.030839992
      4167.65      0.66428226     0.030680998
      4171.82      0.66310549     0.030523778
      4175.99      0.66675796     0.030369637
      4180.17      0.65151525     0.030215583
      4184.35      0.65983138     0.029820249
      4188.54      0.66659953     0.029671271
      4192.72      0.66838194     0.029524342
      4196.92      0.69077567     0.029657350
      4201.11      0.68607107     0.029505161
      4205.31      0.67431095     0.029356289
      4209.52      0.69051428     0.029208622
      4213.73      0.68666537     0.028825480
      4217.94      0.70202202     0.028682624
      4222.16      0.69582349     0.028539191
      4226.38      0.67850533     0.028398461
      4230.61      0.68199713     0.028258071
      4234.84      0.66706375     0.028119178
      4239.08      0.66517939     0.027982318
      4243.32      0.65806373     0.027868040
      4247.56      0.66630018     0.027728738
      4251.81      0.66835998     0.027590652
      4256.06      0.68016074     0.027453057
      4260.32      0.67515439     0.027317810
      4264.58      0.69001042     0.027181855
      4268.84      0.68644759     0.027048310
      4273.11      0.68961076     0.026914963
      4277.38      0.69314340     0.026574615
      4281.66      0.66776183     0.026441857
      4285.94      0.66563850     0.026309103
      4290.23      0.66829156     0.026178458
      4294.52      0.65731402     0.026048421
      4298.81      0.64293420     0.025919192
      4303.11      0.63301150     0.025791511
      4307.42      0.62600243     0.025663695
      4311.72      0.62395857     0.025537840
      4316.04      0.60612071     0.025411769
      4320.35      0.59979559     0.025287252
      4324.67      0.57697092     0.025163319
      4329.00      0.56359470     0.024843417
      4333.33      0.55289104     0.024722157
      4337.66      0.55066972     0.024601620
      4342.00      0.54812754     0.024482087
      4346.34      0.55350485     0.024363017
      4350.69      0.54709814     0.024244692
      4355.04      0.56326882     0.024127100
      4359.39      0.56417051     0.024010285
      4363.75      0.56025209     0.023894562
      4368.12      0.58619858     0.023778820
      4372.48      0.61202285     0.023663909
      4376.86      0.63426101     0.023549650
      4381.23      0.63626715     0.023436204
      4385.61      0.64852212     0.023323385
      4390.00      0.65248416     0.023211300
      4394.39      0.64715151     0.023100054
      4398.79      0.63984273     0.022989286
      4403.18      0.65434071     0.022879239
      4407.59      0.66061747     0.022769874
      4412.00      0.67796224     0.022661315
      4416.41      0.68999551     0.022553917
      4420.82      0.67751834     0.022446519
      4425.25      0.68638420     0.022340065
      4429.67      0.69142827     0.022234346
      4434.10      0.68219348     0.022128939
      4438.54      0.68436755     0.022024625
      4442.97      0.67809688     0.021920639
      4447.42      0.67932263     0.021627153
      4451.86      0.67582769     0.021525901
      4456.32      0.66997155     0.021425287
      4460.77      0.66124462     0.021325476
      4465.24      0.64829168     0.021226476
      4469.70      0.64210929     0.021128287
      4474.17      0.65574152     0.021030927
      4478.65      0.66519110     0.020934531
      4483.12      0.67717899     0.020838729
      4487.61      0.71027909     0.020743770
      4492.09      0.72987366     0.020649660
      4496.59      0.74307389     0.020375687
      4501.08      0.76896794     0.020282034
      4505.58      0.79488109     0.020189389
      4510.09      0.81933702     0.020097433
      4514.60      0.84164117     0.020005982
      4519.12      0.86021173     0.019915807
      4523.63      0.88832014     0.019826059
      4528.16      0.90660846     0.019737658
      4532.69      0.91964363     0.019649840
      4537.22      0.92469200     0.019546290
      4541.76      0.93601188     0.019458000
      4546.30      0.95872292     0.019370358
      4550.85      0.97633335     0.019284002
      4555.40      0.98459526     0.019198231
      4559.95      0.99160080     0.019113886
      4564.51      0.99243332     0.019030244
      4569.08      0.99650427     0.018788087
      4573.65       1.0023303     0.018707160
      4578.22      0.99002363     0.018627436
      4582.80      0.98873717     0.018549057
      4587.38      0.99509049     0.018604536
      4591.97      0.99418471     0.018524497
      4596.56      0.97081378     0.018289848
      4601.16      0.97421277     0.018212847
      4605.76      0.98365672     0.018136453
      4610.37      0.97868167     0.018061389
      4614.98      0.97804063     0.017987759
      4619.59      0.97228337     0.017758954
      4624.21      0.97313536     0.017684805
      4628.84      0.97254837     0.017742718
      4633.47      0.98239610     0.017670568
      4638.10      0.98029147     0.017598948
      4642.74      0.98180994     0.017380868
      4647.38      0.99086735     0.017309005
      4652.03      0.99984866     0.017238209
      4656.68      0.99115492     0.017169268
      4661.34      0.98747528     0.017229160
      4666.00      0.98375616     0.017019302
      4670.67      0.97609166     0.016949539
      4675.33      0.96168154     0.016881986
      4680.01      0.94785788     0.016815114
      4684.69      0.92210271     0.016614118
      4689.38      0.92348275     0.016672218
      4694.07      0.91087030     0.016605893
      4698.76      0.88752999     0.016541554
      4703.46      0.87158827     0.016344404
      4708.16      0.84530286     0.016283750
      4712.87      0.83116316     0.016341138
      4717.58      0.81797396     0.016278442
      4722.30      0.79128250     0.016085402
      4727.03      0.77353623     0.016026438
      4731.75      0.76628334     0.015968726
      4736.48      0.75964939     0.016024973
      4741.22      0.75007356     0.015836741
      4745.96      0.73022364     0.015779675
      4750.71      0.72851383     0.015724941
      4755.46      0.72415596     0.015671124
      4760.22      0.71366913     0.015598750
      4764.97      0.70240544     0.015543660
      4769.74      0.69697190     0.015491057
      4774.51      0.69133102     0.015311302
      4779.29      0.69742030     0.015369769
      4784.07      0.68381759     0.015317462
      4788.85      0.67327057     0.015143861
      4793.64      0.67167442     0.015091276
      4798.43      0.67210692     0.015040085
      4803.23      0.67600876     0.015101902
      4808.03      0.67976063     0.014930494
      4812.84      0.66645306     0.014880774
      4817.66      0.67767748     0.014832635
      4822.48      0.70074165     0.014775921
      4827.30      0.70119920     0.014726727
      4832.12      0.70067465     0.014679948
      4836.96      0.68662430     0.014626359
      4841.79      0.69407996     0.014578461
      4846.63      0.69261683     0.014533092
      4851.48      0.70138582     0.014377139
      4856.33      0.71167836     0.014435782
      4861.19      0.72601719     0.014279825
      4866.05      0.72597713     0.014238402
      4870.92      0.73185897     0.014297770
      4875.79      0.74044169     0.014144918
      4880.66      0.75641563     0.014104841
      4885.55      0.77448255     0.014067390
      4890.43      0.80022208     0.014015063
      4895.32      0.81574034     0.013976965
      4900.22      0.83801410     0.013941260
      4905.12      0.85601685     0.013890691
      4910.02      0.89117144     0.013854480
      4914.94      0.89841967     0.013709167
      4919.85      0.89373045     0.013771349
      4924.77      0.89225286     0.013736818
      4929.70      0.88917484     0.013593185
      4934.62      0.88536929     0.013656797
      4939.56      0.87206621     0.013517491
      4944.50      0.87525990     0.013482524
      4949.44      0.88519481     0.013445198
      4954.39      0.88620480     0.013409816
      4959.35      0.88772822     0.013377203
      4964.31      0.90149579     0.013340007
      4969.27      0.92131263     0.013307098
      4974.24      0.93432235     0.013273135
      4979.22      0.93252841     0.013239971
      4984.20      0.93522919     0.013111847
      4989.18      0.94170876     0.013175607
      4994.17      0.95209628     0.013145216
      4999.16      0.94148575     0.013020601
      5004.16      0.93757955     0.013083091
      5009.17      0.91208450     0.012959273
      5014.18      0.89229549     0.013023769
      5019.19      0.86020755     0.012900534
      5024.21      0.83569827     0.012876467
      5029.23      0.80523245     0.012844229
      5034.26      0.78498884     0.012820472
      5039.30      0.78291255     0.012790298
      5044.34      0.77878634     0.012766669
      5049.39      0.77029471     0.012648373
      5054.43      0.77767106     0.012715210
      5059.49      0.78293557     0.012598983
      5064.55      0.80231082     0.012665950
      5069.61      0.81035111     0.012551632
      5074.68      0.81737533     0.012618784
      5079.76      0.81866541     0.012506179
      5084.84      0.82628316     0.012484457
      5089.92      0.82804202     0.012462951
      5095.01      0.83069493     0.012441725
      5100.11      0.83684930     0.012421507
      5105.21      0.84112459     0.012400935
      5110.31      0.84245872     0.012381923
      5115.42      0.83395086     0.012362027
      5120.54      0.83781148     0.012344075
      5125.66      0.84149952     0.012324980
      5130.79      0.84208243     0.012307972
      5135.92      0.85060876     0.012289900
      5141.05      0.85327415     0.012273880
      5146.20      0.85263652     0.012256740
      5151.34      0.85946835     0.012241489
      5156.49      0.85712028     0.012139437
      5161.65      0.86260393     0.012210825
      5166.81      0.86373684     0.012110267
      5171.98      0.87454539     0.012181898
      5177.15      0.87114860     0.012082881
      5182.33      0.87461582     0.012154668
      5187.51      0.88090911     0.012057445
      5192.70      0.90335341     0.012044507
      5197.89      0.91638292     0.012033968
      5203.09      0.92875685     0.012021366
      5208.29      0.93175171     0.012012350
      5213.50      0.93200780     0.012000029
      5218.72      0.94206252     0.011906627
      5223.93      0.96286484     0.011980567
      5229.16      0.98232079     0.011887342
      5234.39       1.0029190     0.011962978
      5239.62       1.0156839     0.011869845
      5244.86       1.0266442     0.011863476
      5250.11       1.0441027     0.011854451
      5255.36       1.0545201     0.011848022
      5260.61       1.0724222     0.011844514
      5265.87       1.0927102     0.011834465
      5271.14       1.1226600     0.011830789
      5276.41       1.1318521     0.011822879
      5281.69       1.1428775     0.011818998
      5286.97       1.1539648     0.011733838
      5292.26       1.1722769     0.011809194
      5297.55       1.1781853     0.011806987
      5302.85       1.1819224     0.011722483
      5308.15       1.1775206     0.011799156
      5313.46       1.1895662     0.011717347
      5318.77       1.2071050     0.011714444
      5324.09       1.2291384     0.011793002
      5329.42       1.2441219     0.011711195
      5334.75       1.2552421     0.011710341
      5340.08       1.2748755     0.011710398
      5345.42       1.2957031     0.011708975
      5350.77       1.3214550     0.011709038
      5356.12       1.3377051     0.011629538
      5361.48       1.3646518     0.011709787
      5366.83       1.3823111     0.011711434
      5372.20       1.4000124     0.011632647
      5377.58       1.4049498     0.011714391
      5382.95       1.4077279     0.011634833
      5388.34       1.4098874     0.011638975
      5393.72       1.4014009     0.011644281
      5399.12       1.3904775     0.011643014
      5404.52       1.3785691     0.011647786
      5409.92       1.3635079     0.011654156
      5415.33       1.3576966     0.011578984
      5420.75       1.3497108     0.011659816
      5426.17       1.3388998     0.011666603
      5431.60       1.3265605     0.011593282
      5437.03       1.3262793     0.011674499
      5442.47       1.3291496     0.011682001
      5447.91       1.3347974     0.011610637
      5453.36       1.3524457     0.011617253
      5458.81       1.3721701     0.011624954
      5464.27       1.3948456     0.011709004
      5469.73       1.4085812     0.011638012
      5475.20       1.4374006     0.011645945
      5480.68       1.4674686     0.011654907
      5486.16       1.4876040     0.011661862
      5491.65       1.5040181     0.011670178
      5497.14       1.5053244     0.011679413
      5502.64       1.5190582     0.011689614
      5508.14       1.5260492     0.011620244
      5513.65       1.5150961     0.011707066
      5519.16       1.5070428     0.011717320
      5524.68       1.4957880     0.011647685
      5530.20       1.4685691     0.011659510
      5535.73       1.4286673     0.011672075
      5541.27       1.3983918     0.011685354
      5546.81       1.3657295     0.011689988
      5552.36       1.3318395     0.011702542
      5557.91       1.3031891     0.011715677
      5563.47       1.2657793     0.011729613
      5569.04       1.2242446     0.011744141
      5574.60       1.1838748     0.011676954
      5580.18       1.1510898     0.011763527
      5585.76       1.1137332     0.011777783
      5591.35       1.0845092     0.011792538
      5596.94       1.0479518     0.011728063
      5602.53       1.0153052     0.011742055
      5608.14      0.99603022     0.011756364
      5613.75      0.96822378     0.011771430
      5619.36      0.93932769     0.011786737
      5624.98      0.92054834     0.011797896
      5630.60      0.89629047     0.011812480
      5636.23      0.86472992     0.011827732
      5641.87      0.83602554     0.011843166
      5647.51      0.82541575     0.011859264
      5653.16      0.82769686     0.011875545
      5658.82      0.82555369     0.011811797
      5664.47      0.83152548     0.011828727
      5670.14      0.82856340     0.011845907
      5675.81      0.83476207     0.011863586
      5681.48      0.84596957     0.011953528
      5687.17      0.86144542     0.011970650
      5692.85      0.88080122     0.011906621
      5698.55      0.90346829     0.011924203
      5704.25      0.92128760     0.011941673
      5709.95      0.94786289     0.011959783
      5715.66      0.97312683     0.011977759
      5721.38       1.0018311     0.011996280
      5727.10       1.0198256     0.012014743
      5732.83       1.0476934     0.011953566
      5738.56       1.0696148     0.011971418
      5744.30       1.0982410     0.011989531
      5750.04       1.1334794     0.012007882
      5755.79       1.1750277     0.012026215
      5761.55       1.2192569     0.012045039
      5767.31       1.2674710     0.012063543
      5773.08       1.3084562     0.012082639
      5778.85       1.3516950     0.012101611
      5784.63       1.3977424     0.012121326
      5790.41       1.4406313     0.012061250
      5796.21       1.4865534     0.012081994
      5802.00       1.5329925     0.012102120
      5807.81       1.5563167     0.012122426
      5813.61       1.5803256     0.012144024
      5819.43       1.5919135     0.012168179
      5825.25       1.6061401     0.012196569
      5831.07       1.6070312     0.012226524
      5836.90       1.6004881     0.012257080
      5842.74       1.6140121     0.012288483
      5848.58       1.6016027     0.012321739
      5854.43       1.5986546     0.012353493
      5860.29       1.5962634     0.012380913
      5866.15       1.5891115     0.012405142
      5872.01       1.5889573     0.012427421
      5877.89       1.5942056     0.012448221
      5883.76       1.5939486     0.012466282
      5889.65       1.6054351     0.012483305
      5895.54       1.6084585     0.012500175
      5901.43       1.6181125     0.012518308
      5907.34       1.6258500     0.012462308
      5913.24       1.6264389     0.012478256
      5919.16       1.6180734     0.012492895
      5925.08       1.6017787     0.012505819
      5931.00       1.5964500     0.012518617
      5936.93       1.5849612     0.012531399
      5942.87       1.5590891     0.012543174
      5948.81       1.5337443     0.012553032
      5954.76       1.5183968     0.012564318
      5960.72       1.4737403     0.012578537
      5966.68       1.4471159     0.012518585
      5972.64       1.4201252     0.012530491
      5978.62       1.3880020     0.012543148
      5984.60       1.3593084     0.012557922
      5990.58       1.3339667     0.012573777
      5996.57       1.3122492     0.012590355
      6002.57       1.2856369     0.012607253
      6008.57       1.2606411     0.012552558
      6014.58       1.2406810     0.012570476
      6020.60       1.2302551     0.012588458
      6026.62       1.2244898     0.012686175
      6032.65       1.2233355     0.012703168
      6038.68       1.2162315     0.012720529
      6044.72       1.2198504     0.012737914
      6050.76       1.2099693     0.012682303
      6056.81       1.2085663     0.012699665
      6062.87       1.2135049     0.012717212
      6068.93       1.2154677     0.012734750
      6075.00       1.2094275     0.012752481
      6081.08       1.2126045     0.012694270
      6087.16       1.2078721     0.012790812
      6093.25       1.1876580     0.012807181
      6099.34       1.1721739     0.012823657
      6105.44       1.1556415     0.012840383
      6111.54       1.1392360     0.012782050
      6117.66       1.1137585     0.012797193
      6123.78       1.0980903     0.012812440
      6129.90       1.0798661     0.012827725
      6136.03       1.0752502     0.012851025
      6142.17       1.0612695     0.012864735
      6148.31       1.0537894     0.012878698
      6154.46       1.0466331     0.012892819
      6160.61       1.0420705     0.012834812
      6166.77       1.0345147     0.012849986
      6172.94       1.0331163     0.012944867
      6179.11       1.0314187     0.012964270
      6185.29       1.0139553     0.012909527
      6191.48       1.0071068     0.012921193
      6197.67      0.99510151     0.012938036
      6203.87      0.97896137     0.013039713
      6210.07      0.95811619     0.012998734
      6216.28      0.94511244     0.013034959
      6222.50      0.93027398     0.013076155
      6228.72      0.92133289     0.013046792
      6234.95      0.90989536     0.013168594
      6241.19      0.90581376     0.013204022
      6247.42      0.90457582     0.013157090
      6253.67      0.90626652     0.013173434
      6259.93      0.90357061     0.013262167
      6266.19      0.91271805     0.013181463
      6272.46      0.91522369     0.013169601
      6278.73      0.92073541     0.013153919
      6285.01      0.92222241     0.013140285
      6291.29      0.92765923     0.013129572
      6297.58      0.93218210     0.013126828
      6303.88      0.93201962     0.013049847
      6310.19      0.95001085     0.013118418
      6316.50      0.95931321     0.013114120
      6322.81      0.96586249     0.013038567
      6329.14      0.97474247     0.013038231
      6335.47      0.98551338     0.013112875
      6341.80      0.99506683     0.013039053
      6348.14       1.0074497     0.013040807
      6354.49       1.0152284     0.013043809
      6360.85       1.0239559     0.013046040
      6367.21       1.0361944     0.013050250
      6373.57       1.0449830     0.013055715
      6379.95       1.0513260     0.013059435
      6386.33       1.0590275     0.012989399
      6392.72       1.0668134     0.013069965
      6399.11       1.0788340     0.013076708
      6405.51       1.0896284     0.013012755
      6411.92       1.1030298     0.013102052
      6418.32       1.1083239     0.013042968
      6424.74       1.1166415     0.013050771
      6431.17       1.1239726     0.013064751
      6437.60       1.1210945     0.013069258
      6444.04       1.1133053     0.013073751
      6450.48       1.1068741     0.013078943
      6456.94       1.0910951     0.013075444
      6463.39       1.0716155     0.012998286
      6469.85       1.0551200     0.013063819
      6476.33       1.0400685     0.012983059
      6482.80       1.0240718     0.013048951
      6489.28       1.0188936     0.012968908
      6495.77       1.0182786     0.012964173
      6502.27       1.0180155     0.012957110
      6508.77       1.0206636     0.012948976
      6515.28       1.0287904     0.012937217
      6521.80       1.0534750     0.012925309
      6528.32       1.0828196     0.012839713
      6534.85       1.1071610     0.012901350
      6541.38       1.1289317     0.012815965
      6547.92       1.1582809     0.012872295
      6554.47       1.1838671     0.012784742
      6561.03       1.2125750     0.012842658
      6567.59       1.2450724     0.012758110
      6574.16       1.2763561     0.012745693
      6580.73       1.2982534     0.012733094
      6587.31       1.3257426     0.012720307
      6593.90       1.3576779     0.012707069
      6600.50       1.3844200     0.012623234
      6607.10       1.4069268     0.012678496
      6613.70       1.4350101     0.012593763
      6620.32       1.4529951     0.012647507
      6626.94       1.4599241     0.012562240
      6633.57       1.4689744     0.012614509
      6640.20       1.4762096     0.012528219
      6646.84       1.4819770     0.012508543
      6653.49       1.4724997     0.012491436
      6660.14       1.4597990     0.012469963
      6666.80       1.4437319     0.012452101
      6673.47       1.4268182     0.012428493
      6680.14       1.4020741     0.012338839
      6686.82       1.3802366     0.012384377
      6693.51       1.3611409     0.012292857
      6700.20       1.3355130     0.012268645
      6706.90       1.3122851     0.012244362
      6713.61       1.2941305     0.012217872
      6720.32       1.2706186     0.012193210
      6727.05       1.2463590     0.012164289
      6733.77       1.2279449     0.012135739
      6740.51       1.2122659     0.012108013
      6747.25       1.1894574     0.012077897
      6754.00       1.1741669     0.011996838
      6760.75       1.1607410     0.012065167
      6767.51       1.1468478     0.012015227
      6774.28       1.1322208     0.011965914
      6781.05       1.1211010     0.011994827
      6787.84       1.1128188     0.011951697
      6794.62       1.0991588     0.012018538
      6801.42       1.0918952     0.012103885
      6808.22       1.0904490     0.012242558
      6815.03       1.0821133     0.012403676
      6821.85       1.0812096     0.012482718
      6828.67       1.0722009     0.012668140
      6835.50       1.0655609     0.012673000
      6842.33       1.0491586     0.012690033
      6849.17       1.0383421     0.012718388
      6856.02       1.0296919     0.012528731
      6862.88       1.0245430     0.012352636
      6869.74       1.0261199     0.012147230
      6876.61       1.0242995     0.011977199
      6883.49       1.0306776     0.011792442
      6890.37       1.0390550     0.011659262
      6897.27       1.0540747     0.011486382
      6904.16       1.0669388     0.011413178
      6911.07       1.0900549     0.011286026
      6917.98       1.1119011     0.011136224
      6924.89       1.1291184     0.011040535
      6931.82       1.1527235     0.010950558
      6938.75       1.1656917     0.010884086
      6945.69       1.1802838     0.010807824
      6952.64       1.2005335     0.010738107
      6959.59       1.2050590     0.010671629
      6966.55       1.2116186     0.010555395
      6973.52       1.2140105     0.010547592
      6980.49       1.2232098     0.010472212
      6987.47       1.2293997     0.010283735
      6994.46       1.2313056     0.010053230
      7001.46       1.2359120    0.0099304236
      7008.46       1.2341208    0.0097528487
      7015.46       1.2275777    0.0095809781
      7022.48       1.2208828    0.0094647833
      7029.51       1.2114293    0.0092989989
      7036.53       1.2013816    0.0091379721
      7043.57       1.1975086    0.0089879975
      7050.62       1.1861463    0.0088919308
      7057.66       1.1814823    0.0087187434
      7064.72       1.1710993    0.0085782972
      7071.79       1.1634542    0.0084391646
      7078.86       1.1589249    0.0083472551
      7085.94       1.1597205    0.0082255248
      7093.03       1.1561516    0.0081310563
      7100.12       1.1568933    0.0080572524
      7107.22       1.1538749    0.0079829579
      7114.33       1.1467573    0.0079318738
      7121.44       1.1515086    0.0078379105
      7128.56       1.1576818    0.0077385312
      7135.69       1.1623630    0.0076347898
      7142.83       1.1644336    0.0074968029
      7149.97       1.1708536    0.0074147227
      7157.12       1.1784543    0.0072918839
      7164.28       1.1799406    0.0071632929
      7171.44       1.1853447    0.0070273882
      7178.62       1.1800442    0.0068857853
      7185.80       1.1777452    0.0067427850
      7192.98       1.1796975    0.0065985892
      7200.17       1.1765077    0.0064532046
      7207.38       1.1703080    0.0063059148
      7214.58       1.1642555    0.0061886454
      7221.80       1.1606679    0.0060367382
      7229.02       1.1543473    0.0058850704
      7236.25       1.1521517    0.0057340455
      7243.49       1.1450238    0.0055869291
      7250.73       1.1414838    0.0054449211
      7257.98       1.1386511    0.0054788029
      7265.24       1.1359363    0.0055164133
      7272.51       1.1307198    0.0055763131
      7279.78       1.1291959    0.0056544489
      7287.06       1.1283583    0.0057567785
      7294.35       1.1257185    0.0058928972
      7301.64       1.1220401    0.0060780504
      7308.94       1.1177402    0.0063337234
      7316.25       1.1146015    0.0066842192
      7323.57       1.1124773    0.0071567996
      7330.89       1.1118931    0.0077765243
      7338.22       1.1106606    0.0085761220
      7345.56       1.1134274    0.0096075640
      7352.91       1.1155216     0.010927441
      7360.26       1.1173131     0.012600760
      7367.62       1.1208961     0.014701141
