# starting wavelength =        3729.4600
# ending wavelength =        9063.5800
# O2 telluric scale =        0
# O2 telluric shift =        0
# H2O telluric scale =        0
# H2O telluric shift =        0
      3729.98       1.2665326     0.071845412
      3733.71       1.1809156     0.060802569
      3737.45       1.1007709     0.053292835
      3741.18       1.0231238     0.046157887
      3744.93      0.96136031     0.040482834
      3748.67      0.91270839     0.035275767
      3752.42      0.87781876     0.031977989
      3756.17      0.84222355     0.029427639
      3759.93      0.80758296     0.027806472
      3763.69      0.77930276     0.026178619
      3767.45      0.75515792     0.024682189
      3771.22      0.73206093     0.023728311
      3774.99      0.71076865     0.022971948
      3778.77      0.69369045     0.022360603
      3782.54      0.69011075     0.021829304
      3786.33      0.68949784     0.021257153
      3790.11      0.68642294     0.020897311
      3793.90      0.68643906     0.020592358
      3797.70      0.70165766     0.020223091
      3801.50      0.72564815     0.020085468
      3805.30      0.75472309     0.020038339
      3809.10      0.75752454     0.020105532
      3812.91      0.76331105     0.019960251
      3816.73      0.77405260     0.020026603
      3820.54      0.78443648     0.020095353
      3824.36      0.81554858     0.019947975
      3828.19      0.84639210     0.020017283
      3832.02      0.86632170     0.019970835
      3835.85      0.89300356     0.020040568
      3839.68      0.91907577     0.020006090
      3843.52      0.95912919     0.019961293
      3847.37       1.0066051     0.020032009
      3851.22       1.0623742     0.019882661
      3855.07       1.1188479     0.019954289
      3858.92       1.1891320     0.019907931
      3862.78       1.2758477     0.019979536
      3866.64       1.3761583     0.019830221
      3870.51       1.4637610     0.019900476
      3874.38       1.5565243     0.019974260
      3878.26       1.6718424     0.019822237
      3882.13       1.7797841     0.019897108
      3886.02       1.8856894     0.019850386
      3889.90       1.9964040     0.019923167
      3893.79       2.0980539     0.019773281
      3897.69       2.2174962     0.019844865
      3901.59       2.3303424     0.019801106
      3905.49       2.4479368     0.019875614
      3909.39       2.5667590     0.019830632
      3913.30       2.6714768     0.019798679
      3917.22       2.7874829     0.019752696
      3921.13       2.8805854     0.019828082
      3925.06       2.9674457     0.019785978
      3928.98       3.0560060     0.019749404
      3932.91       3.1241637     0.019829565
      3936.84       3.1812315     0.019782722
      3940.78       3.2331747     0.019859974
      3944.72       3.2786895     0.019817025
      3948.67       3.3117779     0.019781925
      3952.61       3.3195894     0.019737498
      3956.57       3.3185472     0.019819077
      3960.52       3.3006361     0.019773047
      3964.48       3.2973991     0.019853743
      3968.45       3.3086705     0.019696381
      3972.42       3.3006915     0.019775122
      3976.39       3.2702464     0.019731357
      3980.37       3.2528552     0.019815061
      3984.35       3.2360488     0.019769273
      3988.33       3.2194273     0.019739950
      3992.32       3.1611431     0.019692622
      3996.31       3.1172816     0.019774380
      4000.31       3.0714558     0.019730417
      4004.31       3.0188493     0.019817561
      4008.31       2.9615450     0.019771653
      4012.32       2.8984157     0.019727423
      4016.33       2.8315150     0.019695302
      4020.35       2.7629478     0.019649382
      4024.37       2.6824752     0.019734812
      4028.40       2.5965674     0.019692111
      4032.42       2.5231295     0.019780251
      4036.46       2.4430043     0.019735198
      4040.50       2.3631909     0.019825635
      4044.54       2.2900183     0.019658492
      4048.58       2.2226685     0.019746202
      4052.63       2.1596770     0.019702394
      4056.68       2.0858457     0.019797171
      4060.74       2.0158572     0.019750877
      4064.80       1.9521470     0.019706308
      4068.86       1.8928676     0.019799769
      4072.93       1.8412223     0.019758070
      4077.01       1.8076335     0.019851279
      4081.08       1.7743067     0.019676415
      4085.17       1.7327442     0.019776073
      4089.25       1.7071420     0.019729154
      4093.34       1.6811590     0.019824279
      4097.43       1.6581853     0.019780306
      4101.53       1.6274626     0.019737555
      4105.63       1.6203894     0.019836779
      4109.74       1.5915873     0.019791685
      4113.85       1.5758605     0.019892139
      4117.96       1.5416255     0.019849307
      4122.08       1.5197926     0.019953283
      4126.20       1.5040999     0.019907694
      4130.33       1.4934625     0.019863600
      4134.46       1.5031679     0.019832587
      4138.59       1.5221578     0.019785818
      4142.73       1.5280847     0.019888666
      4146.88       1.5340199     0.019843871
      4151.02       1.5662557     0.019800689
      4155.18       1.5975209     0.019911644
      4159.33       1.6163023     0.019865399
      4163.49       1.6435430     0.019973091
      4167.65       1.6640584     0.019928708
      4171.82       1.6876093     0.019885546
      4175.99       1.7090030     0.020000525
      4180.17       1.7369067     0.019954018
      4184.35       1.7519534     0.020066713
      4188.54       1.7530522     0.020022543
      4192.72       1.7569954     0.019979340
      4196.92       1.7651711     0.020099670
      4201.11       1.7726869     0.020053363
      4205.31       1.7646514     0.020007957
      4209.52       1.7639142     0.020126820
      4213.73       1.7681007     0.020083245
      4217.94       1.7732557     0.020211409
      4222.16       1.7847411     0.020164536
      4226.38       1.7819978     0.020118834
      4230.61       1.7807717     0.020242280
      4234.84       1.7729632     0.020197785
      4239.08       1.7617300     0.020154208
      4243.32       1.7709475     0.020288130
      4247.56       1.7752196     0.020241058
      4251.81       1.7931804     0.020195047
      4256.06       1.7811061     0.020324428
      4260.32       1.7925245     0.020455335
      4264.58       1.8103046     0.020235423
      4268.84       1.8230056     0.020191936
      4273.11       1.8226352     0.020331451
      4277.38       1.8429034     0.020284663
      4281.66       1.8662802     0.020238369
      4285.94       1.8968457     0.020192997
      4290.23       1.9217023     0.019975152
      4294.52       1.9379907     0.019931594
      4298.81       1.9452905     0.019888346
      4303.11       1.9384367     0.019845780
      4307.42       1.9363260     0.019803540
      4311.72       1.9180110     0.019761982
      4316.04       1.9118867     0.019891186
      4320.35       1.9000082     0.019676389
      4324.67       1.8905484     0.019632647
      4329.00       1.8907943     0.019589086
      4333.33       1.8839860     0.019546443
      4337.66       1.8407551     0.019503923
      4342.00       1.8129192     0.019461571
      4346.34       1.7542436     0.019419652
      4350.69       1.6812279     0.019378215
      4355.04       1.6185437     0.019174319
      4359.39       1.5544078     0.019131054
      4363.75       1.4819454     0.019088297
      4368.12       1.4126879     0.019045717
      4372.48       1.3384008     0.019003646
      4376.86       1.2588754     0.018961684
      4381.23       1.1676583     0.018920144
      4385.61       1.0996029     0.018878594
      4390.00       1.0360490     0.019000797
      4394.39      0.98359247     0.018959388
      4398.79      0.95030622     0.018768333
      4403.18      0.93410244     0.018726032
      4407.59      0.91874588     0.018684064
      4412.00      0.91769735     0.018642188
      4416.41      0.92120434     0.018600278
      4420.82      0.92512710     0.018559033
      4425.25      0.94237097     0.018517768
      4429.67      0.96118354     0.018476503
      4434.10      0.99544379     0.018435630
      4438.54       1.0365803     0.018395082
      4442.97       1.0644593     0.018354483
      4447.42       1.0969999     0.018313854
      4451.86       1.1262770     0.018273566
      4456.32       1.1678200     0.018233602
      4460.77       1.1997064     0.018193559
      4465.24       1.2305703     0.018153468
      4469.70       1.2789693     0.018113691
      4474.17       1.3235634     0.017924489
      4478.65       1.3672672     0.017884993
      4483.12       1.4269328     0.017697310
      4487.61       1.4809664     0.017658658
      4492.09       1.5326653     0.017620575
      4496.59       1.5980655     0.017582016
      4501.08       1.6776216     0.017543647
      4505.58       1.7444448     0.017505506
      4510.09       1.8193537     0.017467616
      4514.60       1.8963303     0.017429384
      4519.12       1.9637332     0.017391439
      4523.63       2.0359036     0.017353831
      4528.16       2.1093382     0.017316534
      4532.69       2.1772469     0.017278963
      4537.22       2.2474879     0.017241766
      4541.76       2.3284415     0.017204903
      4546.30       2.3842175     0.017168405
      4550.85       2.4413319     0.017131647
      4555.40       2.4894881     0.017095317
      4559.95       2.5225573     0.016911619
      4564.51       2.5434557     0.016874828
      4569.08       2.5654371     0.016838029
      4573.65       2.5855315     0.016801219
      4578.22       2.5909939     0.016899955
      4582.80       2.6054218     0.016863534
      4587.38       2.6199996     0.016827210
      4591.97       2.6106145     0.016790956
      4596.56       2.5881140     0.016755073
      4601.16       2.5654005     0.016719602
      4605.76       2.5297993     0.016684285
      4610.37       2.4904967     0.016510368
      4614.98       2.4629205     0.016473811
      4619.59       2.4295395     0.016437654
      4624.21       2.4020825     0.016401634
      4628.84       2.3723354     0.016366065
      4633.47       2.3408701     0.016330665
      4638.10       2.3159869     0.016295793
      4642.74       2.2983662     0.016129852
      4647.38       2.2654763     0.016096134
      4652.03       2.2325657     0.016062620
      4656.68       2.2030055     0.016153865
      4661.34       2.1833068     0.016118311
      4666.00       2.1540076     0.016082730
      4670.67       2.1371224     0.016047834
      4675.33       2.1145148     0.015884458
      4680.01       2.0812405     0.015850911
      4684.69       2.0372934     0.015817759
      4689.38       1.9913311     0.015785278
      4694.07       1.9410508     0.015753241
      4698.76       1.8816268     0.015721843
      4703.46       1.8218605     0.015678029
      4708.16       1.7514555     0.015644628
      4712.87       1.6856653     0.015611975
      4717.58       1.6153239     0.015579789
      4722.30       1.5580671     0.015548346
      4727.03       1.4966354     0.015388663
      4731.75       1.4282924     0.015355299
      4736.48       1.3582588     0.015322736
      4741.22       1.2728875     0.015410270
      4745.96       1.2027992     0.015378728
      4750.71       1.1467580     0.015223451
      4755.46       1.0879158     0.015190289
      4760.22       1.0394025     0.015157765
      4764.97       1.0021165     0.015125877
      4769.74      0.97125112     0.015212907
      4774.51      0.93738201     0.015060362
      4779.29      0.91782635     0.015027328
      4784.07      0.89662526     0.014995291
      4788.85      0.87928123     0.014963862
      4793.64      0.86065571     0.014816685
      4798.43      0.84666763     0.014899189
      4803.23      0.84788733     0.014866939
      4808.03      0.84599281     0.014835436
      4812.84      0.85533283     0.014689014
      4817.66      0.86502680     0.014659653
      4822.48      0.87183956     0.014739932
      4827.30      0.88611109     0.014708586
      4832.12      0.88839840     0.014563563
      4836.96      0.89976460     0.014534318
      4841.79      0.91695308     0.014506320
      4846.63      0.92772921     0.014469433
      4851.48      0.94637455     0.014439486
      4856.33      0.96751879     0.014410869
      4861.19      0.97527832     0.014383213
      4866.05      0.99495886     0.014238978
      4870.92       1.0154406     0.014317317
      4875.79       1.0226418     0.014289226
      4880.66       1.0458023     0.014149006
      4885.55       1.0635305     0.014119147
      4890.43       1.0798634     0.014197286
      4895.32       1.1054482     0.014169903
      4900.22       1.1206141     0.014029982
      4905.12       1.1542393     0.014001077
      4910.02       1.1972327     0.014079587
      4914.94       1.2469779     0.013942135
      4919.85       1.2895032     0.013912529
      4924.77       1.3265135     0.013884717
      4929.70       1.3628625     0.013855054
      4934.62       1.4011112     0.013825288
      4939.56       1.4311167     0.013797339
      4944.50       1.4465503     0.013666616
      4949.44       1.4649735     0.013739099
      4954.39       1.4757335     0.013711036
      4959.35       1.4932377     0.013580919
      4964.31       1.4740848     0.013653697
      4969.27       1.4498087     0.013625764
      4974.24       1.4181261     0.013496612
      4979.22       1.3719633     0.013569216
      4984.20       1.3061282     0.013439016
      4989.18       1.2530871     0.013413264
      4994.17       1.2052188     0.013389811
      4999.16       1.1649974     0.013356332
      5004.16       1.1306261     0.013331233
      5009.17       1.0915985     0.013203921
      5014.18       1.0526786     0.013274574
      5019.19       1.0245381     0.013250150
      5024.21      0.99962332     0.013123108
      5029.23      0.98550060     0.013194021
      5034.26      0.97572154     0.013170475
      5039.30      0.97992439     0.013043497
      5044.34      0.99546583     0.013114717
      5049.39       1.0049788     0.012990577
      5054.43       1.0322306     0.012964866
      5059.49       1.0579524     0.012939049
      5064.55       1.0910631     0.012912324
      5069.61       1.1193111     0.012887850
      5074.68       1.1501698     0.012860686
      5079.76       1.1818015     0.012835000
      5084.84       1.2410123     0.012810026
      5089.92       1.2921968     0.012783478
      5095.01       1.3330230     0.012665832
      5100.11       1.3699548     0.012733043
      5105.21       1.4040026     0.012708207
      5110.31       1.4201319     0.012592658
      5115.42       1.4451304     0.012657299
      5120.54       1.4522196     0.012541667
      5125.66       1.4645591     0.012607443
      5130.79       1.4581855     0.012491538
      5135.92       1.4615337     0.012471046
      5141.05       1.4514246     0.012442072
      5146.20       1.4480015     0.012421090
      5151.34       1.4517459     0.012393190
      5156.49       1.4463599     0.012371854
      5161.65       1.4484562     0.012344892
      5166.81       1.4539836     0.012323306
      5171.98       1.4655042     0.012209980
      5177.15       1.4907985     0.012275201
      5182.33       1.5124497     0.012162940
      5187.51       1.5342484     0.012227668
      5192.70       1.5548756     0.012116401
      5197.89       1.5896950     0.012180750
      5203.09       1.6343823     0.012070367
      5208.29       1.6544274     0.012048173
      5213.50       1.7019387     0.012024734
      5218.72       1.7432903     0.012002515
      5223.93       1.7950951     0.011979433
      5229.16       1.8326563     0.011957466
      5234.39       1.8870164     0.011934548
      5239.62       1.9362874     0.011912839
      5244.86       1.9833816     0.011889990
      5250.11       2.0255855     0.011783981
      5255.36       2.0616527     0.011845902
      5260.61       2.1025400     0.011740637
      5265.87       2.1294580     0.011802047
      5271.14       2.1485261     0.011697630
      5276.41       2.1681924     0.011758745
      5281.69       2.1674215     0.011655158
      5286.97       2.1664483     0.011715812
      5292.26       2.1782049     0.011613321
      5297.55       2.1768946     0.011590219
      5302.85       2.1653290     0.011572152
      5308.15       2.1324929     0.011548789
      5313.46       2.1282623     0.011531563
      5318.77       2.1115528     0.011507826
      5324.09       2.0822039     0.011407152
      5329.42       2.0505468     0.011467504
      5334.75       2.0200744     0.011366642
      5340.08       1.9933908     0.011428043
      5345.42       1.9684256     0.011326869
      5350.77       1.9404929     0.011306956
      5356.12       1.8977533     0.011366323
      5361.48       1.8598449     0.011267134
      5366.83       1.8348993     0.011248725
      5372.20       1.8129469     0.011228095
      5377.58       1.7922142     0.011208975
      5382.95       1.7629163     0.011190018
      5388.34       1.7370271     0.011170227
      5393.72       1.7132220     0.011075805
      5399.12       1.6851778     0.011132500
      5404.52       1.6743163     0.011113814
      5409.92       1.6647621     0.011019071
      5415.33       1.6644033     0.011076225
      5420.75       1.6633898     0.010983555
      5426.17       1.6412541     0.010963241
      5431.60       1.6339587     0.011020872
      5437.03       1.6410954     0.010928204
      5442.47       1.6476313     0.010908705
      5447.91       1.6523448     0.010894603
      5453.36       1.6582825     0.010874232
      5458.81       1.6537048     0.010855330
      5464.27       1.6568843     0.010841176
      5469.73       1.6721348     0.010821344
      5475.20       1.6647944     0.010802892
      5480.68       1.6572294     0.010712988
      5486.16       1.6458506     0.010769616
      5491.65       1.6361066     0.010678824
      5497.14       1.6238896     0.010662033
      5502.64       1.6206737     0.010718865
      5508.14       1.6104888     0.010628703
      5513.65       1.6001416     0.010612030
      5519.16       1.5805733     0.010596454
      5524.68       1.5702713     0.010579515
      5530.20       1.5513893     0.010562945
      5535.73       1.5367698     0.010547387
      5541.27       1.5243109     0.010460846
      5546.81       1.5075125     0.010514934
      5552.36       1.5039575     0.010499328
      5557.91       1.4998644     0.010414519
      5563.47       1.4892015     0.010398005
      5569.04       1.4782896     0.010452451
      5574.60       1.4695362     0.010369582
      5580.18       1.4499755     0.010352879
      5585.76       1.4401003     0.010336961
      5591.35       1.4377595     0.010391632
      5596.94       1.4334306     0.010309275
      5602.53       1.4292569     0.010293120
      5608.14       1.4240758     0.010277798
      5613.75       1.4086505     0.010195557
      5619.36       1.4026851     0.010251006
      5624.98       1.3975829     0.010235412
      5630.60       1.4050846     0.010220465
      5636.23       1.3934284     0.010138882
      5641.87       1.3758382     0.010125292
      5647.51       1.3652764     0.010179609
      5653.16       1.3540745     0.010164914
      5658.82       1.3604255     0.010083838
      5664.47       1.3521166     0.010070384
      5670.14       1.3402971     0.010057327
      5675.81       1.3415513     0.010044860
      5681.48       1.3278277     0.010030752
      5687.17       1.3103881     0.010017351
      5692.85       1.2939985     0.010004409
      5698.55       1.2744847    0.0099918792
      5704.25       1.2459840    0.0099150796
      5709.95       1.2198841    0.0099022934
      5715.66       1.1830057    0.0098906455
      5721.38       1.1493094    0.0099439562
      5727.10       1.1267971    0.0099328500
      5732.83       1.1038039    0.0098589534
      5738.56       1.0729674    0.0098475775
      5744.30       1.0390928    0.0098385895
      5750.04       1.0324958    0.0098333252
      5755.79       1.0283612    0.0098306135
      5761.55       1.0430222    0.0097638463
      5767.31       1.0762855    0.0097621931
      5773.08       1.1055247    0.0098248737
      5778.85       1.1538529    0.0098237364
      5784.63       1.2176519    0.0098189010
      5790.41       1.2687130    0.0098112828
      5796.21       1.3287308    0.0097385787
      5802.00       1.3931520    0.0097287440
      5807.81       1.4445242    0.0097172685
      5813.61       1.4961772    0.0097046164
      5819.43       1.5479308    0.0096921982
      5825.25       1.5755158    0.0096806828
      5831.07       1.6026230    0.0096692841
      5836.90       1.6184253    0.0095947803
      5842.74       1.6105672    0.0095807621
      5848.58       1.5958630    0.0095658221
      5854.43       1.5804870    0.0095504637
      5860.29       1.5705236    0.0095968990
      5866.15       1.5384640    0.0095813624
      5872.01       1.5212061    0.0095644690
      5877.89       1.5060229    0.0095485798
      5883.76       1.4930447    0.0095352306
      5889.65       1.4749389    0.0094640954
      5895.54       1.4616205    0.0094499923
      5901.43       1.4394100    0.0094361319
      5907.34       1.4270272    0.0094239648
      5913.24       1.4107663    0.0094130768
      5919.16       1.4020657    0.0094028329
      5925.08       1.3970790    0.0093930453
      5931.00       1.3892054    0.0093838622
      5936.93       1.3839631    0.0093752678
      5942.87       1.3836878    0.0093667599
      5948.81       1.3738691    0.0093582847
      5954.76       1.3664426    0.0093500992
      5960.72       1.3639775    0.0093421576
      5966.68       1.3557697    0.0093343902
      5972.64       1.3456141    0.0092108642
      5978.62       1.3357829    0.0092035118
      5984.60       1.3263708    0.0091961493
      5990.58       1.3180646    0.0091889842
      5996.57       1.3037936    0.0091818993
      6002.57       1.2707220    0.0091749089
      6008.57       1.2534397    0.0091680220
      6014.58       1.2225598    0.0091612376
      6020.60       1.1967393    0.0091545829
      6026.62       1.1788049    0.0091480566
      6032.65       1.1716927    0.0091416639
      6038.68       1.1580846    0.0091354124
      6044.72       1.1442877    0.0091292993
      6050.76       1.1394926    0.0091233352
      6056.81       1.1333896    0.0091175242
      6062.87       1.1258153    0.0090544479
      6068.93       1.1304054    0.0090485311
      6075.00       1.1368135    0.0090427382
      6081.08       1.1420230    0.0090371110
      6087.16       1.1483827    0.0090318170
      6093.25       1.1490950    0.0090277992
      6099.34       1.1446117    0.0090836488
      6105.44       1.1545821    0.0090823850
      6111.54       1.1469773    0.0090214013
      6117.66       1.1460689    0.0090183647
      6123.78       1.1579928    0.0090208117
      6129.90       1.1616859    0.0090282494
      6136.03       1.1642085    0.0090403018
      6142.17       1.1625708    0.0090557606
      6148.31       1.1530973    0.0090726959
      6154.46       1.1360712    0.0090358066
      6160.61       1.1190965    0.0090485206
      6166.77       1.0902624    0.0090565454
      6172.94       1.0549852    0.0090586395
      6179.11       1.0262530    0.0090541364
      6185.29      0.98913684    0.0090953636
      6191.48      0.95605698    0.0090217480
      6197.67      0.91941137    0.0090008300
      6203.87      0.86383730    0.0089801205
      6210.07      0.81272616    0.0089630977
      6216.28      0.77270082    0.0089517399
      6222.50      0.73334144    0.0088865920
      6228.72      0.69078206    0.0088728573
      6234.95      0.66970124    0.0088612912
      6241.19      0.65974641    0.0089055573
      6247.42      0.66000079    0.0088974767
      6253.67      0.65545932    0.0088369180
      6259.93      0.65679791    0.0088297679
      6266.19      0.68228600    0.0088235066
      6272.46      0.70924009    0.0088183415
      6278.73      0.74983902    0.0088163210
      6285.01      0.78199966    0.0088122891
      6291.29      0.82849489    0.0088091825
      6297.58      0.88068243    0.0088068172
      6303.88      0.91858981    0.0087543705
      6310.19      0.96603306    0.0087538261
      6316.50       1.0111499    0.0088068393
      6322.81       1.0449207    0.0088093268
      6329.14       1.0937846    0.0087649112
      6335.47       1.1352055    0.0087715666
      6341.80       1.1653697    0.0087769341
      6348.14       1.1864334    0.0087822990
      6354.49       1.2127364    0.0087858112
      6360.85       1.2412782    0.0087890125
      6367.21       1.2547183    0.0087393062
      6373.57       1.2558922    0.0087377100
      6379.95       1.2646609    0.0087873194
      6386.33       1.2809847    0.0087838277
      6392.72       1.2879352    0.0087278613
      6399.11       1.2948207    0.0087240428
      6405.51       1.3021910    0.0087740113
      6411.92       1.3060700    0.0087221538
      6418.32       1.3081199    0.0087203220
      6424.74       1.3077403    0.0087179793
      6431.17       1.3120751    0.0087163384
      6437.60       1.3100678    0.0087114901
      6444.04       1.3014061    0.0086581767
      6450.48       1.3022292    0.0086561344
      6456.94       1.2916498    0.0087037516
      6463.39       1.2792839    0.0086500750
      6469.85       1.2652764    0.0086466739
      6476.33       1.2584210    0.0086941383
      6482.80       1.2415327    0.0086439080
      6489.28       1.2138246    0.0086440920
      6495.77       1.1912330    0.0085951483
      6502.27       1.1764361    0.0086457487
      6508.77       1.1579420    0.0086470983
      6515.28       1.1363350    0.0085986720
      6521.80       1.1092885    0.0086499851
      6528.32       1.0864733    0.0086026664
      6534.85       1.0568505    0.0086031664
      6541.38       1.0326245    0.0086554747
      6547.92       1.0073212    0.0086082188
      6554.47      0.98563100    0.0086094760
      6561.03      0.96996636    0.0086138730
      6567.59      0.96227303    0.0086147609
      6574.16      0.96619839    0.0085695070
      6580.73      0.98002996    0.0086206725
      6587.31       1.0062993    0.0086222923
      6593.90       1.0393775    0.0086271553
      6600.50       1.0652723    0.0086284825
      6607.10       1.0899594    0.0085837487
      6613.70       1.1263455    0.0086351294
      6620.32       1.1586962    0.0085902296
      6626.94       1.1904309    0.0085936948
      6633.57       1.2121501    0.0085971922
      6640.20       1.2259030    0.0086005650
      6646.84       1.2411870    0.0086046004
      6653.49       1.2445862    0.0086078565
      6660.14       1.2369052    0.0086129685
      6666.80       1.2306041    0.0086216359
      6673.47       1.2199295    0.0086037949
      6680.14       1.2086653    0.0086859925
      6686.82       1.1988816    0.0086335115
      6693.51       1.1854553    0.0086863179
      6700.20       1.1735256    0.0086759503
      6706.90       1.1705742    0.0087916340
      6713.61       1.1580277    0.0088483151
      6720.32       1.1500050    0.0089584425
      6727.05       1.1269634    0.0091170879
      6733.77       1.1139495    0.0092057487
      6740.51       1.1070986    0.0093982081
      6747.25       1.0911956    0.0094437417
      6754.00       1.0778619    0.0095681458
      6760.75       1.0549714    0.0095243213
      6767.51       1.0418169    0.0095461780
      6774.28       1.0340858    0.0094184060
      6781.05       1.0073368    0.0093076042
      6787.84      0.99375607    0.0092123014
      6794.62      0.97745763    0.0091095262
      6801.42      0.96897554    0.0090580853
      6808.22      0.96000712    0.0090128532
      6815.03      0.96127295    0.0089059172
      6821.85      0.96057455    0.0089000141
      6828.67      0.96624701    0.0088253740
      6835.50      0.97035275    0.0088495631
      6842.33      0.96405767    0.0087831693
      6849.17      0.96716346    0.0087696762
      6856.02      0.95778467    0.0087626623
      6862.88      0.95270705    0.0087629699
      6869.74      0.94464325    0.0087690296
      6876.61      0.93200822    0.0087717339
      6883.49      0.91895018    0.0087768181
      6890.37      0.89810771    0.0087295887
      6897.27      0.88714020    0.0087743237
      6904.16      0.87388886    0.0087231423
      6911.07      0.86023895    0.0087191996
      6917.98      0.85743640    0.0087649716
      6924.89      0.85030483    0.0087177753
      6931.82      0.85812995    0.0087173644
      6938.75      0.86700296    0.0087171034
      6945.69      0.88366548    0.0087182166
      6952.64      0.89937854    0.0087218477
      6959.59      0.91679130    0.0087265907
      6966.55      0.93414699    0.0087386963
      6973.52      0.95285570    0.0087070126
      6980.49      0.97616752    0.0087259461
      6987.47      0.99487311    0.0087916123
      6994.46       1.0090956    0.0087667556
      7001.46       1.0162233    0.0088073063
      7008.46       1.0263278    0.0089029612
      7015.46       1.0265573    0.0089298584
      7022.48       1.0147728    0.0090360051
      7029.51       1.0073572    0.0091568184
      7036.53      0.99781312    0.0092462718
      7043.57      0.98431779    0.0093403876
      7050.62      0.96943630    0.0094086948
      7057.66      0.95445768    0.0093948089
      7064.72      0.94554148    0.0094207180
      7071.79      0.93178500    0.0094764420
      7078.86      0.91600476    0.0094194069
      7085.94      0.90193204    0.0094043844
      7093.03      0.88239208    0.0093949201
      7100.12      0.87004344    0.0093495101
      7107.22      0.85684251    0.0094153300
      7114.33      0.84391123    0.0094361547
      7121.44      0.83408458    0.0094026800
      7128.56      0.83810781    0.0094112024
      7135.69      0.83028669    0.0094033406
      7142.83      0.83103769    0.0094278384
      7149.97      0.83565913    0.0093467978
      7157.12      0.83667133    0.0093164287
      7164.28      0.84447918    0.0092894783
      7171.44      0.85297930    0.0092567206
      7178.62      0.85616953    0.0091713743
      7185.80      0.86903947    0.0091784228
      7192.98      0.87383047    0.0091386298
      7200.17      0.87899763    0.0091061112
      7207.38      0.86722549    0.0090808529
      7214.58      0.86456573    0.0090143549
      7221.80      0.86054071    0.0089988713
      7229.02      0.84871178    0.0089907778
      7236.25      0.83432895    0.0089864362
      7243.49      0.82269879    0.0089375738
      7250.73      0.80851330    0.0089792662
      7257.98      0.79841819    0.0089742126
      7265.24      0.80280711    0.0089718510
      7272.51      0.79736358    0.0089715854
      7279.78      0.79410944    0.0089741146
      7287.06      0.80178202    0.0089315883
      7294.35      0.80438434    0.0089377636
      7301.64      0.81075616    0.0089446398
      7308.94      0.80445280    0.0089524869
      7316.25      0.79575654    0.0089621255
      7323.57      0.79126971    0.0089726743
      7330.89      0.78744387    0.0089356416
      7338.22      0.78661317    0.0089464411
      7345.56      0.77750428    0.0089581326
      7352.91      0.78172167    0.0089702391
      7360.26      0.78225961    0.0089827065
      7367.62      0.78036946    0.0089982112
      7374.99      0.77644831    0.0090371753
      7382.37      0.77905599    0.0091329887
      7389.75      0.77476353    0.0091940568
      7397.14      0.77824465    0.0093112731
      7404.53      0.79452656    0.0092218003
      7411.94      0.79884923    0.0093000151
      7419.35      0.79562245    0.0095187785
      7426.77      0.79822605    0.0098683237
      7434.20      0.79212315     0.010353104
      7441.63      0.78003332     0.010959701
      7449.07      0.76263247     0.011660953
      7456.52      0.74936880     0.012412320
      7463.98      0.72880354     0.013137572
      7471.45      0.72002007     0.013723139
      7478.92      0.69997439     0.014044342
      7486.40      0.68099555     0.014020532
      7493.88      0.67204740     0.013664787
      7501.38      0.68110026     0.013075273
      7508.88      0.69145959     0.012404785
      7516.39      0.70181176     0.011718941
      7523.91      0.70689936     0.011108459
      7531.43      0.71342746     0.010642082
      7538.96      0.71981562     0.010268672
      7546.50      0.71621244    0.0098892116
      7554.05      0.71131883    0.0096922841
      7561.60      0.70660539    0.0095896287
      7569.16      0.70525957    0.0095063760
      7576.73      0.70478977    0.0094625874
      7584.31      0.70507418    0.0094110213
      7591.89      0.70537109    0.0093788592
      7599.49      0.69624694    0.0093625816
      7607.09      0.69569076    0.0093150331
      7614.70      0.69499820    0.0093176441
      7622.31      0.68924865    0.0093249691
      7629.93      0.69343173    0.0093349268
      7637.56      0.69348007    0.0093468752
      7645.20      0.72066266    0.0093606774
      7652.85      0.72984521    0.0093320511
      7660.50      0.73202602    0.0093466351
      7668.16      0.73587321    0.0093619043
      7675.83      0.73329956    0.0093775289
      7683.50      0.73318386    0.0093930950
      7691.19      0.72060842    0.0094095669
      7698.88      0.72030751    0.0094313485
      7706.58      0.72014464    0.0094510973
      7714.29      0.71771418    0.0094719223
      7722.00      0.71805973    0.0094946340
      7729.73      0.72431644    0.0094763943
      7737.45      0.71841963    0.0095000349
      7745.19      0.71168887    0.0095205018
      7752.94      0.70933408    0.0095378197
      7760.69      0.70417779    0.0095593781
      7768.45      0.70810280    0.0095740597
      7776.22      0.73183295    0.0095885601
      7784.00      0.73789497    0.0096027175
      7791.78      0.74986183    0.0095732575
      7799.57      0.75413738    0.0095878725
      7807.37      0.75661125    0.0096038846
      7815.18      0.76134037    0.0096689561
      7822.99      0.75943571    0.0096431449
      7830.82      0.76718032    0.0096609065
      7838.65      0.75943625    0.0096792536
      7846.49      0.76807020    0.0096524787
      7854.34      0.76178341    0.0097162541
      7862.19      0.76561922    0.0097301641
      7870.05      0.76500720    0.0096991347
      7877.93      0.75830599    0.0097131997
      7885.80      0.74423431    0.0097771873
      7893.69      0.73312205    0.0097467033
      7901.58      0.71624339    0.0097613179
      7909.49      0.70594303    0.0097803397
      7917.40      0.69997982    0.0097630265
      7925.31      0.69312144    0.0098411479
      7933.24      0.66911299    0.0098797579
      7941.17      0.65815177    0.0098858983
      7949.11      0.66478180    0.0099961577
      7957.06      0.65949504     0.010070948
      7965.02      0.65527873     0.010123838
      7972.98      0.64953397     0.010224447
      7980.96      0.65215729     0.010355593
      7988.94      0.64038452     0.010476073
      7996.93      0.63492196     0.010596526
      8004.93      0.62372058     0.010695168
      8012.93      0.62533666     0.010733219
      8020.95      0.61014602     0.010708937
      8028.97      0.59641465     0.010729163
      8036.99      0.57712472     0.010742878
      8045.03      0.55469300     0.010744452
      8053.08      0.53980845     0.010737637
      8061.13      0.51320635     0.010722325
      8069.20      0.50359577     0.010707333
      8077.26      0.49000884     0.010701431
      8085.34      0.47554903     0.010700824
      8093.43      0.48191484     0.010646006
      8101.52      0.48777101     0.010683957
      8109.62      0.48939674     0.010620123
      8117.73      0.48208660     0.010604200
      8125.85      0.48423804     0.010582473
      8133.98      0.48616274     0.010569541
      8142.11      0.48383707     0.010578502
      8150.25      0.48163213     0.010592329
      8158.41      0.48034679     0.010528343
      8166.56      0.48217409     0.010534833
      8174.73      0.48310474     0.010452334
      8182.91      0.47238250     0.010473701
      8191.09      0.46312386     0.010401703
      8199.28      0.46590704     0.010387397
      8207.48      0.45987591     0.010372231
      8215.69      0.44408797     0.010356635
      8223.91      0.43422160     0.010344619
      8232.13      0.41797013     0.010293500
      8240.36      0.40162363     0.010341532
      8248.60      0.39454785     0.010297663
      8256.85      0.37543359     0.010347000
      8265.11      0.36032192     0.010306166
      8273.37      0.34922614     0.010360244
      8281.65      0.34032003     0.010324675
      8289.93      0.32571449     0.010337799
      8298.22      0.31400377     0.010349923
      8306.52      0.31159232     0.010365990
      8314.83      0.31291955     0.010335143
      8323.14      0.31880204     0.010398388
      8331.46      0.32894741     0.010369911
      8339.80      0.32627390     0.010434490
      8348.13      0.33769463     0.010404996
      8356.48      0.35190349     0.010425339
      8364.84      0.35816736     0.010439036
      8373.21      0.37086579     0.010456331
      8381.58      0.37151610     0.010424588
      8389.96      0.38094810     0.010484522
      8398.35      0.39014878     0.010500620
      8406.75      0.39646465     0.010468074
      8415.16      0.41006169     0.010529399
      8423.57      0.41302081     0.010498038
      8432.00      0.42993336     0.010513430
      8440.43      0.44310107     0.010481699
      8448.87      0.45266062     0.010544100
      8457.32      0.46303403     0.010563335
      8465.78      0.48313769     0.010534843
      8474.25      0.49584191     0.010599156
      8482.72      0.51107445     0.010569853
      8491.20      0.52321238     0.010589868
      8499.69      0.53272684     0.010609839
      8508.19      0.55028826     0.010623858
      8516.70      0.55349711     0.010642106
      8525.22      0.56895183     0.010660191
      8533.75      0.57950279     0.010628809
      8542.28      0.59807734     0.010554121
      8550.82      0.61707670     0.010479022
      8559.37      0.62898884     0.010408242
      8567.93      0.64514480     0.010340033
      8576.50      0.65416846     0.010274612
      8585.08      0.67387711     0.010208441
      8593.66      0.67406243     0.010147367
      8602.26      0.67329024     0.010087993
      8610.86      0.68077946     0.010030128
      8619.47      0.67932589     0.010009088
      8628.09      0.67723066    0.0099153579
      8636.72      0.66763933    0.0098615450
      8645.36      0.66059731    0.0098096843
      8654.00      0.63963962    0.0097607719
      8662.66      0.62136495    0.0097106859
      8671.32      0.60200445    0.0096667097
      8679.99      0.58059437    0.0096287557
      8688.67      0.55952992    0.0095938475
      8697.36      0.53830379    0.0095577826
      8706.06      0.52173050    0.0094965390
      8714.76      0.50811130    0.0095003310
      8723.48      0.50036465    0.0094780830
      8732.21      0.49201443    0.0094695875
      8740.93      0.49105097    0.0094741401
      8749.68      0.47950631    0.0094583769
      8758.43      0.46424626    0.0094950709
      8767.19      0.45619366    0.0095470717
      8775.96      0.45263567    0.0096062847
      8784.73      0.44907031    0.0096589140
      8793.52      0.45122263    0.0096969562
      8802.31      0.45555269    0.0096850021
      8811.11      0.45099306    0.0097223062
      8819.92      0.44673388    0.0097297508
      8828.75      0.44552910    0.0097354926
      8837.57      0.44825610    0.0097264871
      8846.41      0.44696882    0.0097105260
      8855.26      0.44660497    0.0096580395
      8864.12      0.44630841    0.0096309903
      8872.98      0.43564057    0.0095968202
      8881.85      0.43272261    0.0095580169
      8890.73      0.42939603    0.0095014371
      8899.63      0.42692622    0.0094749467
      8908.52      0.42102507    0.0094507410
      8917.43      0.42133976    0.0095112791
      8926.35      0.41458510    0.0096638577
      8935.28      0.40896270    0.0098388163
      8944.22      0.40580253     0.010063707
      8953.16      0.40276893     0.010312921
      8962.11      0.40024117     0.010651611
      8971.08      0.39919176     0.011027883
      8980.05      0.39795154     0.011576006
      8989.03      0.39022931     0.012166022
      8998.02      0.38759855     0.012974547
      9007.02      0.37652448     0.014130650
      9016.02      0.37051184     0.015386262
      9025.04      0.36144164     0.017296244
      9034.07      0.35240616     0.019349857
      9043.10      0.34686656     0.022471744
      9052.14      0.34081029     0.025940555
      9061.20      0.33311761     0.031131291
