# starting wavelength =        6080.4400
# ending wavelength =        9517.2100
# O2 telluric scale =        0
# O2 telluric shift =        0
# H2O telluric scale =        0
# H2O telluric shift =        0
      6081.08       1.0885744     0.015789205
      6087.16       1.1066271     0.013017121
      6093.25       1.1157735     0.011408961
      6099.34       1.1194371    0.0096704497
      6105.44       1.1196678    0.0085102455
      6111.54       1.1186649    0.0077526913
      6117.66       1.1162247    0.0069221207
      6123.78       1.1156136    0.0063820126
      6129.90       1.1163452    0.0060417434
      6136.03       1.1203161    0.0056696682
      6142.17       1.1253251    0.0054333588
      6148.31       1.1335843    0.0052731485
      6154.46       1.1450936    0.0051022961
      6160.61       1.1553599    0.0049957406
      6166.77       1.1682227    0.0049068126
      6172.94       1.1802306    0.0048193266
      6179.11       1.1916296    0.0047530918
      6185.29       1.2002221    0.0047370466
      6191.48       1.2070180    0.0047594191
      6197.67       1.2098660    0.0048066644
      6203.87       1.2149732    0.0048729684
      6210.07       1.2259548    0.0049212396
      6216.28       1.2355676    0.0049424449
      6222.50       1.2475923    0.0049917369
      6228.72       1.2611189    0.0050645361
      6234.95       1.2726332    0.0051212563
      6241.19       1.2815945    0.0051782496
      6247.42       1.2864236    0.0052020968
      6253.67       1.2884294    0.0052798936
      6259.93       1.2790862    0.0053377200
      6266.19       1.2676419    0.0053962141
      6272.46       1.2529052    0.0054798755
      6278.73       1.2322924    0.0055419965
      6285.01       1.2124014    0.0055708049
      6291.29       1.1911183    0.0056363361
      6297.58       1.1687482    0.0057294633
      6303.88       1.1450923    0.0057989486
      6310.19       1.1222497    0.0058695343
      6316.50       1.1011909    0.0059415464
      6322.81       1.0832387    0.0060448014
      6329.14       1.0669958    0.0060789776
      6335.47       1.0535802    0.0061545522
      6341.80       1.0458528    0.0062315901
      6348.14       1.0368829    0.0063425638
      6354.49       1.0289671    0.0064205628
      6360.85       1.0223818    0.0064996357
      6367.21       1.0176180    0.0065790880
      6373.57       1.0153745    0.0066955633
      6379.95       1.0144728    0.0067771134
      6386.33       1.0185970    0.0068603483
      6392.72       1.0201458    0.0069451318
      6399.11       1.0197455    0.0070192403
      6405.51       1.0241188    0.0071094738
      6411.92       1.0248695    0.0071976741
      6418.32       1.0294205    0.0072884117
      6424.74       1.0249740    0.0074293230
      6431.17       1.0122725    0.0074730532
      6437.60      0.99277468    0.0075065596
      6444.04      0.96971089    0.0074889569
      6450.48      0.93346745    0.0075821768
      6456.94      0.88842841    0.0075649642
      6463.39      0.84570201    0.0075963549
      6469.85      0.80690330    0.0076943012
      6476.33      0.77320258    0.0076786067
      6482.80      0.75141789    0.0077121091
      6489.28      0.73441177    0.0077623480
      6495.77      0.73587722    0.0077955468
      6502.27      0.74431746    0.0078302556
      6508.77      0.77307114    0.0078797348
      6515.28      0.81142151    0.0079135387
      6521.80      0.85759870    0.0079643972
      6528.32      0.91463269    0.0079980582
      6534.85      0.98102431    0.0079824840
      6541.38       1.0534242    0.0080829652
      6547.92       1.1201705    0.0080660064
      6554.47       1.1770372    0.0081021982
      6561.03       1.2348728    0.0081502718
      6567.59       1.2777323    0.0081858623
      6574.16       1.3030869    0.0082343059
      6580.73       1.3180366    0.0082694988
      6587.31       1.3242817    0.0083067142
      6593.90       1.3222838    0.0083537284
      6600.50       1.3177272    0.0083902491
      6607.10       1.3126415    0.0084378315
      6613.70       1.3057680    0.0084743525
      6620.32       1.2898888    0.0085224480
      6626.94       1.2720884    0.0085584455
      6633.57       1.2538252    0.0085371771
      6640.20       1.2392283    0.0086427843
      6646.84       1.2280676    0.0086225654
      6653.49       1.2262988    0.0087368706
      6660.14       1.2215889    0.0087439011
      6666.80       1.2208231    0.0088118815
      6673.47       1.2115525    0.0088357958
      6680.14       1.1990385    0.0089018027
      6686.82       1.1842751    0.0089754689
      6693.51       1.1619595    0.0091184243
      6700.20       1.1376206    0.0092448274
      6706.90       1.1124610    0.0093488546
      6713.61       1.0920453    0.0096096328
      6720.32       1.0817096    0.0097232086
      6727.05       1.0800514    0.0099789604
      6733.77       1.0810396     0.010041535
      6740.51       1.0765581     0.010150354
      6747.25       1.0656327     0.010187787
      6754.00       1.0580683     0.010178884
      6760.75       1.0561135     0.010136414
      6767.51       1.0660152     0.010052050
      6774.28       1.0732562    0.0099864175
      6781.05       1.0803933    0.0099236175
      6787.84       1.0804980    0.0098382329
      6794.62       1.0765904    0.0098982816
      6801.42       1.0666404    0.0097980481
      6808.22       1.0494639    0.0098507381
      6815.03       1.0213460    0.0098601238
      6821.85      0.98487974    0.0098045725
      6828.67      0.94659959    0.0098842102
      6835.50      0.90547557    0.0098398333
      6842.33      0.87471942    0.0099371981
      6849.17      0.84329631    0.0099034604
      6856.02      0.81779035    0.0099506405
      6862.88      0.79563932    0.0099819632
      6869.74      0.77250888     0.010025806
      6876.61      0.76309246    0.0099896611
      6883.49      0.76221764     0.010086939
      6890.37      0.77539531     0.010121035
      6897.27      0.79050212     0.010143452
      6904.16      0.81499809     0.010181607
      6911.07      0.84553906     0.010143730
      6917.98      0.88936466     0.010244039
      6924.89      0.93058103     0.010283193
      6931.82      0.96682879     0.010245616
      6938.75       1.0005111     0.010350658
      6945.69       1.0261966     0.010320749
      6952.64       1.0490757     0.010373475
      6959.59       1.0636429     0.010490552
      6966.55       1.0685121     0.010472410
      6973.52       1.0718505     0.010534034
      6980.49       1.0750236     0.010587071
      6987.47       1.0761691     0.010673043
      6994.46       1.0760012     0.010785777
      7001.46       1.0741041     0.010847383
      7008.46       1.0775858     0.011065799
      7015.46       1.0771743     0.011155048
      7022.48       1.0782355     0.011323636
      7029.51       1.0758016     0.011529307
      7036.53       1.0730184     0.011543332
      7043.57       1.0772335     0.011629806
      7050.62       1.0879140     0.011690944
      7057.66       1.0901975     0.011714397
      7064.72       1.0928677     0.011733398
      7071.79       1.0955670     0.011750668
      7078.86       1.1012106     0.011696665
      7085.94       1.1024462     0.011813269
      7093.03       1.1004572     0.011875889
      7100.12       1.0998596     0.011843303
      7107.22       1.0974479     0.011896396
      7114.33       1.1009519     0.012011107
      7121.44       1.1061469     0.011941322
      7128.56       1.1047041     0.011933078
      7135.69       1.1108201     0.011920520
      7142.83       1.1193992     0.011994567
      7149.97       1.1267676     0.011907983
      7157.12       1.1359310     0.011889622
      7164.28       1.1304132     0.011862092
      7171.44       1.1256791     0.011841677
      7178.62       1.1293660     0.011817768
      7185.80       1.1399990     0.011804305
      7192.98       1.1459277     0.011798746
      7200.17       1.1380220     0.011720669
      7207.38       1.1305782     0.011806600
      7214.58       1.1350744     0.011822601
      7221.80       1.1478639     0.011761678
      7229.02       1.1484240     0.011782832
      7236.25       1.1395391     0.011801667
      7243.49       1.1396936     0.011821900
      7250.73       1.1488743     0.011834459
      7257.98       1.1584666     0.011859271
      7265.24       1.1519690     0.011888074
      7272.51       1.1480422     0.011919521
      7279.78       1.1575110     0.011952874
      7287.06       1.1661339     0.011900977
      7294.35       1.1611147     0.012006276
      7301.64       1.1476797     0.012042162
      7308.94       1.1446742     0.012079058
      7316.25       1.1498212     0.012032189
      7323.57       1.1418916     0.012068256
      7330.89       1.1151574     0.012105379
      7338.22       1.0884399     0.012143017
      7345.56       1.0821175     0.012181405
      7352.91       1.0859716     0.012214822
      7360.26       1.0824270     0.012295871
      7367.62       1.0662490     0.012457646
      7374.99       1.0582812     0.012637683
      7382.37       1.0742180     0.012696019
      7389.75       1.0868666     0.012692245
      7397.14       1.0909706     0.012771172
      7404.53       1.0909725     0.013152736
      7411.94       1.1091537     0.013725499
      7419.35       1.1456768     0.014488494
      7426.77       1.1624520     0.015415188
      7434.20       1.1693662     0.016401128
      7441.63       1.1865690     0.017266835
      7449.07       1.2323226     0.018290295
      7456.52       1.2623824     0.019080585
      7463.98       1.2378759     0.019454901
      7471.45       1.2140086     0.019317644
      7478.92       1.2184101     0.018721945
      7486.40       1.2299697     0.017834839
      7493.88       1.2436258     0.016843211
      7501.38       1.2387377     0.015961345
      7508.88       1.2187098     0.015176227
      7516.39       1.1948435     0.014595387
      7523.91       1.1857534     0.014106434
      7531.43       1.1719787     0.013728583
      7538.96       1.1613137     0.013518365
      7546.50       1.1412368     0.013396818
      7554.05       1.1063702     0.013290741
      7561.60       1.0615589     0.013207659
      7569.16       1.0158594     0.013153455
      7576.73      0.97022796     0.013052750
      7584.31      0.92674317     0.013040630
      7591.89      0.88000732     0.013044562
      7599.49      0.81758861     0.013059128
      7607.09      0.74721217     0.013079534
      7614.70      0.69540000     0.013102904
      7622.31      0.66343696     0.013129102
      7629.93      0.64421066     0.013157013
      7637.56      0.63569272     0.013185170
      7645.20      0.62864532     0.013212924
      7652.85      0.62215978     0.013241460
      7660.50      0.64326157     0.013269724
      7668.16      0.68850553     0.013297832
      7675.83      0.75007329     0.013327462
      7683.50      0.83674704     0.013359738
      7691.19      0.90885510     0.013393697
      7698.88      0.97305136     0.013428776
      7706.58       1.0263588     0.013389155
      7714.29       1.0839861     0.013428189
      7722.00       1.1241527     0.013464946
      7729.73       1.1664680     0.013495108
      7737.45       1.1906731     0.013521497
      7745.19       1.2099214     0.013546412
      7752.94       1.2299796     0.013570046
      7760.69       1.2400686     0.013592729
      7768.45       1.2458844     0.013614399
      7776.22       1.2420832     0.013635471
      7784.00       1.2169850     0.013576968
      7791.78       1.2000104     0.013599963
      7799.57       1.1777334     0.013625079
      7807.37       1.1742706     0.013649687
      7815.18       1.1820956     0.013673305
      7822.99       1.2022958     0.013697093
      7830.82       1.2304000     0.013719475
      7838.65       1.2334177     0.013738439
      7846.49       1.2225741     0.013675772
      7854.34       1.2129422     0.013692316
      7862.19       1.2082415     0.013797472
      7870.05       1.1985720     0.013812963
      7877.93       1.1926773     0.013826690
      7885.80       1.1797073     0.013845158
      7893.69       1.1602859     0.013794076
      7901.58       1.1363761     0.013825582
      7909.49       1.0954187     0.013868459
      7917.40       1.0587731     0.013921877
      7925.31       1.0209081     0.013984571
      7933.24      0.97606977     0.014067322
      7941.17      0.94284359     0.014106299
      7949.11      0.91520161     0.014333143
      7957.06      0.90241383     0.014473641
      7965.02      0.89918962     0.014627471
      7972.98      0.90076299     0.014795007
      7980.96      0.91781234     0.014870805
      7988.94      0.93165466     0.014946021
      7996.93      0.94122603     0.014980309
      8004.93      0.96555029     0.015103571
      8012.93      0.99277712     0.015021679
      8020.95       1.0014042     0.015016693
      8028.97       1.0033294     0.015001529
      8036.99       1.0040234     0.014973169
      8045.03      0.98944604     0.014847290
      8053.08      0.97171437     0.014814213
      8061.13      0.96393064     0.014880507
      8069.20      0.95390079     0.014863486
      8077.26      0.94337555     0.014745148
      8085.34      0.93250476     0.014713051
      8093.43      0.91629459     0.014676590
      8101.52      0.90142315     0.014713709
      8109.62      0.88201975     0.014583078
      8117.73      0.86266473     0.014555440
      8125.85      0.84074375     0.014553955
      8133.98      0.81999651     0.014458166
      8142.11      0.78737481     0.014479459
      8150.25      0.75767510     0.014408975
      8158.41      0.73185305     0.014257704
      8166.56      0.71629145     0.014202646
      8174.73      0.69239089     0.014235829
      8182.91      0.67953361     0.014110161
      8191.09      0.66590109     0.014066948
      8199.28      0.65388676     0.014025268
      8207.48      0.65068416     0.013987685
      8215.69      0.65600434     0.013960545
      8223.91      0.65389076     0.013939620
      8232.13      0.64835481     0.013837976
      8240.36      0.64416197     0.013897726
      8248.60      0.62284618     0.013879539
      8256.85      0.59369939     0.013785792
      8265.11      0.55161747     0.013774742
      8273.37      0.50890877     0.013842274
      8281.65      0.45612276     0.013754443
      8289.93      0.40916164     0.013746540
      8298.22      0.35771274     0.013738512
      8306.52      0.32471142     0.013732263
      8314.83      0.29621830     0.013727191
      8323.14      0.27685318     0.013719632
      8331.46      0.26903338     0.013712412
      8339.80      0.26881512     0.013625700
      8348.13      0.28038661     0.013613866
      8356.48      0.29803667     0.013680517
      8364.84      0.32273787     0.013587437
      8373.21      0.34535676     0.013572110
      8381.58      0.37422106     0.013556939
      8389.96      0.39555919     0.013540871
      8398.35      0.41167808     0.013603905
      8406.75      0.42607400     0.013508789
      8415.16      0.44264966     0.013491495
      8423.57      0.45284131     0.013474970
      8432.00      0.46246073     0.013458379
      8440.43      0.46635577     0.013368775
      8448.87      0.47212973     0.013429064
      8457.32      0.48661785     0.013337346
      8465.78      0.49962312     0.013323080
      8474.25      0.50894918     0.013303845
      8482.72      0.52894020     0.013287063
      8491.20      0.55257550     0.013265201
      8499.69      0.59299670     0.013245812
      8508.19      0.63862674     0.013148561
      8516.70      0.69298843     0.013199271
      8525.22      0.73916525     0.013101044
      8533.75      0.78115952     0.013150190
      8542.28      0.83458704     0.013051921
      8550.82      0.89405898     0.013100679
      8559.37      0.96018919     0.013003709
      8567.93       1.0329298     0.012979739
      8576.50       1.0958312     0.012953330
      8585.08       1.1487371     0.012929505
      8593.66       1.1964964     0.012903303
      8602.26       1.2365482     0.012877837
      8610.86       1.2788018     0.012849935
      8619.47       1.3156151     0.012823326
      8628.09       1.3419520     0.012793647
      8636.72       1.3606700     0.012694266
      8645.36       1.3684896     0.012735898
      8654.00       1.3644365     0.012638009
      8662.66       1.3592183     0.012679628
      8671.32       1.3389715     0.012584316
      8679.99       1.3267464     0.012629770
      8688.67       1.3125494     0.012547431
      8697.36       1.2956579     0.012531882
      8706.06       1.2794358     0.012522546
      8714.76       1.2634666     0.012535696
      8723.48       1.2548332     0.012556916
      8732.21       1.2433319     0.012599322
      8740.93       1.2247761     0.012605359
      8749.68       1.2161771     0.012768454
      8758.43       1.2116500     0.012818140
      8767.19       1.2078164     0.012961504
      8775.96       1.1974115     0.013075952
      8784.73       1.1788213     0.013205377
      8793.52       1.1533906     0.013206870
      8802.31       1.1295947     0.013306437
      8811.11       1.0790604     0.013256245
      8819.92       1.0289519     0.013168383
      8828.75      0.96827063     0.013035315
      8837.57      0.90279878     0.012844442
      8846.41      0.84422253     0.012734581
      8855.26      0.78215963     0.012673854
      8864.12      0.70462928     0.012608788
      8872.98      0.62253277     0.012575157
      8881.85      0.55929944     0.012575601
      8890.73      0.50533699     0.012578976
      8899.63      0.45637796     0.012514888
      8908.52      0.41533394     0.012568359
      8917.43      0.39021816     0.012529506
      8926.35      0.36842067     0.012407744
      8935.28      0.35780506     0.012334898
      8944.22      0.35150657     0.012325541
      8953.16      0.37355996     0.012168633
      8962.11      0.40456616     0.012061455
      8971.08      0.43271088     0.011949758
      8980.05      0.45636481     0.011784412
      8989.03      0.47919320     0.011615413
      8998.02      0.49182864     0.011422184
      9007.02      0.49620715     0.011342548
      9016.02      0.50491995     0.011219940
      9025.04      0.49920602     0.011095549
      9034.07      0.48885479     0.011044469
      9043.10      0.47216213     0.011031519
      9052.14      0.44908725     0.011111752
      9061.20      0.41622945     0.011145919
      9070.26      0.37907282     0.011302263
      9079.33      0.33758938     0.011566038
      9088.41      0.29523647     0.011874570
      9097.50      0.25288292     0.012356853
      9106.60      0.21356681     0.012939815
      9115.70      0.18153861     0.013463933
      9124.82      0.16759423     0.014097925
      9133.94      0.14982869     0.014640521
      9143.08      0.13374101     0.015075029
      9152.22      0.11979478     0.015084629
      9161.37      0.10843155     0.014941153
      9170.54      0.10226217     0.014589177
      9179.71      0.10216999     0.013960150
      9188.89     0.093763258     0.013365211
      9198.08     0.085525057     0.012878982
      9207.28     0.083563789     0.012431715
      9216.48     0.079016657     0.012089160
      9225.70     0.080888557     0.011802602
      9234.92     0.076748915     0.011499395
      9244.16     0.074391824     0.011254594
      9253.40     0.074886159     0.011044744
      9262.66     0.077872161     0.010752328
      9271.92     0.081748123     0.010506116
      9281.20     0.083982799     0.010143729
      9290.48     0.081811692    0.0098452871
      9299.77     0.078164536    0.0095312515
      9309.07     0.078909665    0.0092286039
      9318.38     0.071505025    0.0088560823
      9327.69     0.066295013    0.0085442174
      9337.02     0.062047534    0.0082435645
      9346.36     0.054312750    0.0078843894
      9355.71     0.055269135    0.0076096432
      9365.07     0.051279047    0.0073374606
      9374.43     0.048821890    0.0071728754
      9383.80     0.045703804    0.0072064871
      9393.19     0.042235111    0.0072680846
      9402.58     0.039746402    0.0073769395
      9411.98     0.035939538    0.0075118001
      9421.40     0.032473782    0.0076760520
      9430.82     0.027450978    0.0079206418
      9440.25     0.022154964    0.0083478688
      9449.69     0.019880060    0.0088380093
      9459.14     0.015987133    0.0094193197
      9468.60     0.013974342     0.010268952
      9478.07     0.012560970     0.011572760
      9487.55     0.010522080     0.013006708
      9497.04    0.0098049437     0.014664881
      9506.53    0.0096098261     0.016995246
      9516.04     0.012696419     0.020131866
