# starting wavelength =        3459.9060
# ending wavelength =        7279.5200
# O2 telluric scale =        0
# O2 telluric shift =        0
# H2O telluric scale =        0
# H2O telluric shift =        0
      3460.58       1.4245121     0.024619492
      3464.04       1.4320047     0.023755541
      3467.51       1.4254720     0.022882998
      3470.98       1.4160078     0.022326972
      3474.45       1.4281903     0.021862629
      3477.92       1.4318961     0.021469438
      3481.40       1.4264186     0.021022685
      3484.88       1.4219554     0.020713928
      3488.37       1.4214912     0.020652982
      3491.86       1.4200590     0.020594433
      3495.35       1.4086487     0.020645407
      3498.84       1.3931763     0.020457371
      3502.34       1.3847235     0.020506861
      3505.84       1.3782149     0.020556785
      3509.35       1.3733921     0.020498978
      3512.86       1.3509375     0.020420360
      3516.37       1.3388161     0.020361904
      3519.89       1.3373995     0.020414598
      3523.41       1.3420570     0.020465588
      3526.93       1.3254655     0.020277239
      3530.46       1.3164971     0.020328795
      3533.99       1.3189983     0.020271643
      3537.53       1.3116070     0.020192925
      3541.06       1.3127364     0.020245816
      3544.60       1.3020512     0.020191087
      3548.15       1.3109501     0.020242819
      3551.70       1.2984079     0.020165917
      3555.25       1.3052259     0.020106635
      3558.80       1.3043937     0.020163990
      3562.36       1.3086072     0.020220135
      3565.92       1.3039563     0.020027851
      3569.49       1.2994493     0.020084041
      3573.06       1.2992314     0.020143276
      3576.64       1.3059851     0.019948898
      3580.21       1.3008413     0.020007180
      3583.79       1.2978589     0.020067280
      3587.38       1.2972829     0.020009307
      3590.96       1.3157481     0.019931550
      3594.55       1.3134344     0.019992389
      3598.15       1.3094143     0.019938635
      3601.75       1.3023912     0.019857029
      3605.35       1.3176950     0.019920289
      3608.96       1.3074586     0.019861785
      3612.56       1.3063413     0.019785136
      3616.18       1.3031098     0.019848415
      3619.79       1.3032071     0.019794784
      3623.41       1.2998732     0.019856387
      3627.04       1.3140718     0.019779298
      3630.66       1.3341581     0.019846326
      3634.29       1.3296944     0.019792934
      3637.93       1.3158626     0.019711058
      3641.57       1.3214909     0.019779887
      3645.21       1.3191455     0.019722114
      3648.86       1.3170984     0.019644709
      3652.50       1.3237504     0.019715907
      3656.16       1.3330021     0.019787437
      3659.81       1.3219511     0.019581443
      3663.47       1.3403126     0.019651967
      3667.14       1.3373341     0.019728364
      3670.80       1.3436536     0.019648955
      3674.48       1.3655926     0.019593880
      3678.15       1.3718385     0.019666382
      3681.83       1.3923081     0.019591097
      3685.51       1.4191459     0.019668057
      3689.20       1.4383059     0.019615342
      3692.88       1.4590244     0.019533298
      3696.58       1.4686482     0.019612302
      3700.27       1.4915808     0.019696396
      3703.98       1.5018013     0.019476701
      3707.68       1.4849985     0.019561994
      3711.39       1.4674107     0.019642444
      3715.10       1.4409297     0.019567011
      3718.81       1.4208533     0.019653185
      3722.53       1.3899462     0.019601771
      3726.26       1.3319019     0.019518339
      3729.98       1.2618140     0.019604703
      3733.71       1.1898011     0.019530552
      3737.45       1.1183702     0.019619445
      3741.18       1.0470258     0.019566997
      3744.93      0.96742029     0.019484528
      3748.67      0.88378576     0.019576566
      3752.42      0.81472329     0.019676938
      3756.17      0.74331233     0.019596561
      3759.93      0.70003585     0.019696945
      3763.69      0.67561847     0.019461252
      3767.45      0.64416358     0.019558097
      3771.22      0.63151631     0.019664526
      3774.99      0.61673775     0.019583748
      3778.77      0.61145212     0.019688953
      3782.54      0.61497689     0.019799677
      3786.33      0.59899385     0.019550028
      3790.11      0.57504748     0.019664569
      3793.90      0.56725326     0.019582557
      3797.70      0.56857987     0.019692438
      3801.50      0.56207077     0.019811965
      3805.30      0.56116130     0.019730731
      3809.10      0.54939952     0.019850144
      3812.91      0.52804321     0.019594318
      3816.73      0.52786521     0.019515229
      3820.54      0.52936946     0.019461362
      3824.36      0.53657544     0.019378779
      3828.19      0.55801673     0.019301383
      3832.02      0.57130029     0.019246747
      3835.85      0.59746310     0.019165744
      3839.68      0.62588607     0.018918093
      3843.52      0.64500832     0.019034837
      3847.37      0.66590100     0.018955432
      3851.22      0.70235114     0.018710429
      3855.07      0.73765907     0.018825830
      3858.92      0.77562360     0.018746738
      3862.78      0.80576909     0.018504477
      3866.64      0.85862412     0.018434141
      3870.51      0.90320334     0.018540726
      3874.38      0.95712327     0.018300364
      3878.26       1.0177660     0.018230227
      3882.13       1.0668613     0.018336719
      3886.02       1.1293944     0.018098501
      3889.90       1.2071899     0.018028458
      3893.79       1.2915271     0.017961759
      3897.69       1.3774883     0.017898560
      3901.59       1.4713272     0.017828465
      3905.49       1.5426542     0.017761506
      3909.39       1.6147466     0.017701323
      3913.30       1.6890856     0.017630739
      3917.22       1.7383269     0.017563054
      3921.13       1.7704278     0.017340352
      3925.06       1.8084410     0.017435466
      3928.98       1.8289260     0.017367268
      3932.91       1.8495078     0.017150271
      3936.84       1.8684950     0.017079207
      3940.78       1.8873905     0.017173888
      3944.72       1.8974981     0.017107250
      3948.67       1.9081358     0.016891320
      3952.61       1.9117949     0.016821859
      3956.57       1.9144759     0.016915789
      3960.52       1.9220642     0.016707019
      3964.48       1.9283576     0.016636794
      3968.45       1.9411555     0.016568782
      3972.42       1.9582704     0.016502925
      3976.39       1.9641718     0.016455325
      3980.37       1.9603091     0.016386346
      3984.35       1.9604367     0.016319461
      3988.33       1.9649120     0.016114263
      3992.32       1.9368347     0.016207926
      3996.31       1.9191514     0.016140007
      4000.31       1.8981774     0.016073956
      4004.31       1.8826135     0.015871087
      4008.31       1.8743012     0.015808928
      4012.32       1.8624290     0.015897922
      4016.33       1.8408927     0.015832029
      4020.35       1.8205744     0.015632051
      4024.37       1.7946882     0.015569775
      4028.40       1.7596091     0.015509080
      4032.42       1.7282194     0.015449919
      4036.46       1.6953688     0.015396652
      4040.50       1.6577396     0.015334621
      4044.54       1.6195899     0.015273918
      4048.58       1.5920760     0.015214467
      4052.63       1.5536383     0.015156051
      4056.68       1.5157215     0.015103974
      4060.74       1.4809678     0.015042851
      4064.80       1.4510913     0.014983265
      4068.86       1.4158090     0.014924668
      4072.93       1.4031489     0.014741417
      4077.01       1.3762560     0.014681102
      4081.08       1.3673263     0.014621574
      4085.17       1.3549999     0.014697923
      4089.25       1.3450766     0.014639975
      4093.34       1.3424933     0.014463103
      4097.43       1.3421300     0.014402965
      4101.53       1.3330527     0.014344279
      4105.63       1.3249937     0.014286301
      4109.74       1.3160721     0.014229042
      4113.85       1.3042848     0.014191586
      4117.96       1.2998277     0.014132277
      4122.08       1.2854849     0.014074095
      4126.20       1.2787112     0.014016573
      4130.33       1.2712808     0.013959780
      4134.46       1.2655749     0.013903418
      4138.59       1.2662941     0.013733158
      4142.73       1.2754690     0.013678571
      4146.88       1.2839831     0.013624828
      4151.02       1.2990885     0.013697901
      4155.18       1.3110483     0.013641967
      4159.33       1.3301008     0.013586914
      4163.49       1.3411833     0.013532308
      4167.65       1.3564978     0.013366167
      4171.82       1.3735631     0.013312990
      4175.99       1.3796702     0.013260323
      4180.17       1.3830281     0.013208091
      4184.35       1.3889812     0.013156203
      4188.54       1.3923329     0.013105006
      4192.72       1.3915814     0.013054058
      4196.92       1.3918831     0.012895192
      4201.11       1.3875379     0.012843344
      4205.31       1.3810307     0.012906998
      4209.52       1.3773621     0.012855759
      4213.73       1.3768322     0.012804969
      4217.94       1.3765183     0.012754367
      4222.16       1.3767574     0.012704363
      4226.38       1.3782461     0.012654604
      4230.61       1.3863553     0.012605094
      4234.84       1.3832294     0.012456561
      4239.08       1.3794883     0.012406555
      4243.32       1.3713561     0.012357085
      4247.56       1.3608904     0.012307980
      4251.81       1.3496262     0.012259215
      4256.06       1.3417646     0.012210693
      4260.32       1.3389789     0.012162412
      4264.58       1.3303390     0.012114396
      4268.84       1.3259701     0.012066754
      4273.11       1.3170875     0.012019404
      4277.38       1.3166612     0.011972321
      4281.66       1.3106614     0.011925679
      4285.94       1.3082768     0.011784026
      4290.23       1.3148902     0.011738002
      4294.52       1.3249690     0.011692277
      4298.81       1.3272701     0.011646915
      4303.11       1.3337869     0.011601521
      4307.42       1.3505949     0.011556507
      4311.72       1.3631045     0.011511727
      4316.04       1.3683296     0.011467111
      4320.35       1.3727353     0.011422646
      4324.67       1.3645551     0.011378394
      4329.00       1.3596307     0.011334373
      4333.33       1.3514742     0.011290576
      4337.66       1.3358885     0.011247120
      4342.00       1.3160617     0.011203907
      4346.34       1.2844506     0.011160683
      4350.69       1.2551372     0.011117709
      4355.04       1.2156191     0.011075154
      4359.39       1.1792715     0.011032549
      4363.75       1.1353319     0.010990326
      4368.12       1.0932786     0.010948382
      4372.48       1.0526724     0.010906637
      4376.86       1.0055275     0.010864859
      4381.23      0.96680482     0.010730458
      4385.61      0.93704615     0.010689719
      4390.00      0.90879707     0.010649225
      4394.39      0.88272300     0.010608914
      4398.79      0.86400498     0.010568833
      4403.18      0.85292829     0.010528989
      4407.59      0.84349858     0.010489454
      4412.00      0.84209651     0.010450301
      4416.41      0.84243616     0.010411210
      4420.82      0.84432537     0.010372340
      4425.25      0.85947922     0.010333997
      4429.67      0.86800691     0.010295918
      4434.10      0.88445312     0.010257930
      4438.54      0.89911684     0.010130551
      4442.97      0.92285383     0.010092642
      4447.42      0.93682908     0.010055000
      4451.86      0.95782185     0.010017636
      4456.32      0.98150041    0.0099804814
      4460.77       1.0030552    0.0099436745
      4465.24       1.0314688    0.0099072054
      4469.70       1.0544106    0.0098710046
      4474.17       1.0753069    0.0098297085
      4478.65       1.1035514    0.0097929021
      4483.12       1.1309877    0.0097564435
      4487.61       1.1597485    0.0097202806
      4492.09       1.1876555    0.0096844480
      4496.59       1.2194624    0.0096489553
      4501.08       1.2563975    0.0096140036
      4505.58       1.2866556    0.0095794108
      4510.09       1.3174041    0.0094657082
      4514.60       1.3395692    0.0094320346
      4519.12       1.3682270    0.0093989480
      4523.63       1.3938246    0.0093662586
      4528.16       1.4205320    0.0094020327
      4532.69       1.4433239    0.0093680528
      4537.22       1.4646232    0.0092572614
      4541.76       1.4869219    0.0092246765
      4546.30       1.5043204    0.0091925459
      4550.85       1.5275329    0.0091606821
      4555.40       1.5449085    0.0091294806
      4559.95       1.5584662    0.0090205837
      4564.51       1.5688117    0.0089887814
      4569.08       1.5788498    0.0090252909
      4573.65       1.5877994    0.0089942487
      4578.22       1.5959955    0.0089636237
      4582.80       1.5966422    0.0088591237
      4587.38       1.5965026    0.0088278284
      4591.97       1.5793946    0.0087972049
      4596.56       1.5658570    0.0087672690
      4601.16       1.5537142    0.0088041000
      4605.76       1.5382629    0.0087027384
      4610.37       1.5274843    0.0086722717
      4614.98       1.5153061    0.0086425477
      4619.59       1.5020839    0.0086132705
      4624.21       1.4865166    0.0085846249
      4628.84       1.4811255    0.0085510954
      4633.47       1.4780885    0.0085215563
      4638.10       1.4791671    0.0084927016
      4642.74       1.4798026    0.0084645137
      4647.38       1.4766772    0.0083692800
      4652.03       1.4761926    0.0083427111
      4656.68       1.4816294    0.0083759392
      4661.34       1.4824452    0.0083482652
      4666.00       1.4799680    0.0082545761
      4670.67       1.4703286    0.0082285674
      4675.33       1.4599429    0.0082032421
      4680.01       1.4419978    0.0081691615
      4684.69       1.4365867    0.0081429902
      4689.38       1.4239286    0.0081177212
      4694.07       1.4098286    0.0080931166
      4698.76       1.3951852    0.0080602381
      4703.46       1.3777756    0.0080348170
      4708.16       1.3576701    0.0080102717
      4712.87       1.3424556    0.0079866024
      4717.58       1.3321660    0.0078962977
      4722.30       1.3194914    0.0079301993
      4727.03       1.3057471    0.0079065050
      4731.75       1.2886004    0.0078188524
      4736.48       1.2654404    0.0077946339
      4741.22       1.2435461    0.0078288449
      4745.96       1.2129994    0.0077434670
      4750.71       1.1765210    0.0077193036
      4755.46       1.1385511    0.0076960767
      4760.22       1.0960565    0.0076697435
      4764.97       1.0489239    0.0076457892
      4769.74       1.0030526    0.0076228424
      4774.51      0.95281070    0.0075420826
      4779.29      0.90956147    0.0075741934
      4784.07      0.86909477    0.0075515712
      4788.85      0.83458901    0.0074718031
      4793.64      0.80491177    0.0075044748
      4798.43      0.78575769    0.0074822356
      4803.23      0.78022001    0.0074033624
      4808.03      0.78129619    0.0073835276
      4812.84      0.78573052    0.0074145044
      4817.66      0.79824629    0.0073368858
      4822.48      0.81125138    0.0073174287
      4827.30      0.82816764    0.0072919086
      4832.12      0.84324865    0.0072718792
      4836.96      0.85634949    0.0072530345
      4841.79      0.86491782    0.0072280459
      4846.63      0.86708230    0.0072088557
      4851.48      0.86580112    0.0071908036
      4856.33      0.85374996    0.0071660721
      4861.19      0.84214202    0.0071475621
      4866.05      0.82694328    0.0070736237
      4870.92      0.81831238    0.0071058504
      4875.79      0.80729568    0.0070881963
      4880.66      0.79719089    0.0070146948
      4885.55      0.78933387    0.0070474075
      4890.43      0.79389272    0.0069757851
      4895.32      0.80230139    0.0069574513
      4900.22      0.81410209    0.0069379974
      4905.12      0.83271394    0.0069192772
      4910.02      0.85762900    0.0069019662
      4914.94      0.88850473    0.0068822641
      4919.85      0.92189681    0.0068646970
      4924.77      0.95714454    0.0068464193
      4929.70      0.99373606    0.0068284736
      4934.62       1.0284011    0.0067613999
      4939.56       1.0599838    0.0067932242
      4944.50       1.0922146    0.0067262927
      4949.44       1.1233617    0.0067114094
      4954.39       1.1504427    0.0067421034
      4959.35       1.1722004    0.0066769269
      4964.31       1.1895136    0.0067084318
      4969.27       1.1977231    0.0066434801
      4974.24       1.1938555    0.0066298975
      4979.22       1.1797621    0.0066108963
      4984.20       1.1628215    0.0065972972
      4989.18       1.1333951    0.0065791576
      4994.17       1.1006729    0.0065655627
      4999.16       1.0645974    0.0065482302
      5004.16       1.0233037    0.0065346195
      5009.17      0.98031292    0.0064720813
      5014.18      0.93648439    0.0065045473
      5019.19      0.89662538    0.0064427513
      5024.21      0.86036984    0.0064751702
      5029.23      0.82564983    0.0064141250
      5034.26      0.80044988    0.0064464672
      5039.30      0.78692590    0.0063861302
      5044.34      0.77935667    0.0063732033
      5049.39      0.77607800    0.0063587976
      5054.43      0.78195359    0.0063461323
      5059.49      0.79912746    0.0063321338
      5064.55      0.82208760    0.0062745803
      5069.61      0.84513230    0.0063061996
      5074.68      0.87049204    0.0062491657
      5079.76      0.90275899    0.0062807667
      5084.84      0.93394124    0.0062244491
      5089.92      0.96731281    0.0062560450
      5095.01      0.99948111    0.0062003527
      5100.11       1.0274836    0.0062320518
      5105.21       1.0583499    0.0061769722
      5110.31       1.0809295    0.0061643511
      5115.42       1.1025453    0.0061543017
      5120.54       1.1183551    0.0061418144
      5125.66       1.1309288    0.0061323574
      5130.79       1.1383778    0.0061199714
      5135.92       1.1448852    0.0061111124
      5141.05       1.1437147    0.0060988572
      5146.20       1.1373739    0.0060457467
      5151.34       1.1338233    0.0060783859
      5156.49       1.1271056    0.0060254013
      5161.65       1.1209334    0.0060586985
      5166.81       1.1133458    0.0060058149
      5171.98       1.1063476    0.0059962523
      5177.15       1.1011005    0.0060288095
      5182.33       1.0977959    0.0059772671
      5187.51       1.0995302    0.0059688967
      5192.70       1.1044459    0.0059590718
      5197.89       1.1171348    0.0059505314
      5203.09       1.1300968    0.0059416470
      5208.29       1.1388343    0.0059328913
      5213.50       1.1556112    0.0058843339
      5218.72       1.1764067    0.0059161590
      5223.93       1.1986199    0.0059082942
      5229.16       1.2204432    0.0058597783
      5234.39       1.2445055    0.0058922197
      5239.62       1.2648520    0.0058449098
      5244.86       1.2806740    0.0058366716
      5250.11       1.2957113    0.0058696246
      5255.36       1.3094901    0.0058226226
      5260.61       1.3220866    0.0058149987
      5265.87       1.3295596    0.0058094394
      5271.14       1.3353701    0.0058016797
      5276.41       1.3349299    0.0057946714
      5281.69       1.3320853    0.0057893086
      5286.97       1.3304381    0.0057820424
      5292.26       1.3263916    0.0057362767
      5297.55       1.3220202    0.0057705623
      5302.85       1.3119128    0.0057638005
      5308.15       1.3024164    0.0057185303
      5313.46       1.2955549    0.0057133534
      5318.77       1.2928918    0.0057468772
      5324.09       1.2889373    0.0057020864
      5329.42       1.2827303    0.0056972414
      5334.75       1.2757288    0.0056930909
      5340.08       1.2674016    0.0056867850
      5345.42       1.2552187    0.0056821814
      5350.77       1.2468639    0.0056782803
      5356.12       1.2362449    0.0056726987
      5361.48       1.2223978    0.0056683710
      5366.83       1.2080375    0.0056646381
      5372.20       1.1940593    0.0056224660
      5377.58       1.1785993    0.0056557261
      5382.95       1.1673898    0.0056521352
      5388.34       1.1539422    0.0056111367
      5393.72       1.1439268    0.0056071864
      5399.12       1.1372922    0.0056037750
      5404.52       1.1311986    0.0056011385
      5409.92       1.1253489    0.0055973015
      5415.33       1.1197200    0.0055939793
      5420.75       1.1158867    0.0055910746
      5426.17       1.1149292    0.0055888427
      5431.60       1.1131420    0.0055855743
      5437.03       1.1139594    0.0055827688
      5442.47       1.1092543    0.0055428959
      5447.91       1.1102495    0.0055409298
      5453.36       1.1116735    0.0055759143
      5458.81       1.1129006    0.0055734745
      5464.27       1.1131702    0.0055340731
      5469.73       1.1149508    0.0055324165
      5475.20       1.1154145    0.0055311252
      5480.68       1.1179142    0.0055302086
      5486.16       1.1154999    0.0055271040
      5491.65       1.1111382    0.0055257367
      5497.14       1.1132098    0.0055247191
      5502.64       1.1079193    0.0055240318
      5508.14       1.1025573    0.0055236609
      5513.65       1.0924238    0.0054858631
      5519.16       1.0851027    0.0054851211
      5524.68       1.0784906    0.0055197487
      5530.20       1.0732519    0.0055194493
      5535.73       1.0678167    0.0054832797
      5541.27       1.0607197    0.0054827401
      5546.81       1.0539100    0.0054823960
      5552.36       1.0460493    0.0054822502
      5557.91       1.0391614    0.0054824124
      5563.47       1.0273348    0.0054465931
      5569.04       1.0175315    0.0054823691
      5574.60       1.0147134    0.0054824273
      5580.18       1.0116319    0.0054826497
      5585.76       1.0095074    0.0054831034
      5591.35       1.0065741    0.0054836950
      5596.94       1.0071640    0.0054482853
      5602.53       1.0079908    0.0054492661
      5608.14       1.0047753    0.0054504028
      5613.75       1.0050274    0.0054516632
      5619.36       1.0043051    0.0054531757
      5624.98       1.0096044    0.0054546924
      5630.60       1.0100205    0.0054535824
      5636.23       1.0111467    0.0054549221
      5641.87       1.0130325    0.0054564184
      5647.51       1.0083074    0.0054579615
      5653.16       1.0004207    0.0054597539
      5658.82      0.98622851    0.0054615715
      5664.47      0.97084552    0.0054635266
      5670.14      0.95241555    0.0054655625
      5675.81      0.93716320    0.0054326477
      5681.48      0.91997448    0.0054345466
      5687.17      0.89912696    0.0054365826
      5692.85      0.87389051    0.0054387693
      5698.55      0.84470815    0.0054410697
      5704.25      0.81603175    0.0054434410
      5709.95      0.78382712    0.0054459627
      5715.66      0.75621646    0.0054488076
      5721.38      0.72906184    0.0054520767
      5727.10      0.70664749    0.0054555329
      5732.83      0.68924684    0.0054587602
      5738.56      0.68036431    0.0054264713
      5744.30      0.67756805    0.0054302999
      5750.04      0.68230305    0.0054355785
      5755.79      0.69414911    0.0054425740
      5761.55      0.71785325    0.0054504738
      5767.31      0.75110764    0.0054585551
      5773.08      0.78844923    0.0054671715
      5778.85      0.83682687    0.0054765875
      5784.63      0.89029740    0.0054852742
      5790.41      0.94460900    0.0054920794
      5796.21      0.99985957    0.0054974961
      5802.00       1.0525027    0.0055022163
      5807.81       1.0971178    0.0055061453
      5813.61       1.1437885    0.0055091919
      5819.43       1.1772122    0.0054787331
      5825.25       1.2107155    0.0054813366
      5831.07       1.2321684    0.0054843874
      5836.90       1.2545093    0.0054873719
      5842.74       1.2664507    0.0054898144
      5848.58       1.2735169    0.0054915359
      5854.43       1.2733927    0.0054928059
      5860.29       1.2702307    0.0054938778
      5866.15       1.2629549    0.0054952130
      5872.01       1.2570619    0.0054960138
      5877.89       1.2488037    0.0054961249
      5883.76       1.2399174    0.0054634352
      5889.65       1.2336993    0.0054653571
      5895.54       1.2257637    0.0054673780
      5901.43       1.2131189    0.0054687707
      5907.34       1.2013092    0.0054705700
      5913.24       1.1923909    0.0054732924
      5919.16       1.1752886    0.0054766173
      5925.08       1.1643266    0.0054802375
      5931.00       1.1406720    0.0054522917
      5936.93       1.1246315    0.0054910686
      5942.87       1.1101362    0.0054951050
      5948.81       1.1005270    0.0054991511
      5954.76       1.0816322    0.0055033817
      5960.72       1.0620665    0.0055077191
      5966.68       1.0432066    0.0054802712
      5972.64       1.0302625    0.0054849547
      5978.62       1.0192627    0.0054896555
      5984.60       1.0125069    0.0054945392
      5990.58       1.0044890    0.0054994871
      5996.57      0.99929692    0.0055044859
      6002.57      0.99537394    0.0055104713
      6008.57      0.98635346    0.0055151202
      6014.58      0.97997982    0.0055198565
      6020.60      0.97520287    0.0055247829
      6026.62      0.96717944    0.0055297621
      6032.65      0.95734771    0.0055020898
      6038.68      0.94685245    0.0055066665
      6044.72      0.93437074    0.0055113603
      6050.76      0.92429802    0.0055507789
      6056.81      0.91846760    0.0055238791
      6062.87      0.91136534    0.0055282329
      6068.93      0.90144442    0.0055327436
      6075.00      0.89282992    0.0055374245
      6081.08      0.88961964    0.0055109309
      6087.16      0.89134400    0.0055499323
      6093.25      0.89170621    0.0055544793
      6099.34      0.89139235    0.0055600344
      6105.44      0.89090005    0.0055370980
      6111.54      0.89298500    0.0055431283
      6117.66      0.89386288    0.0055475122
      6123.78      0.89152020    0.0055869668
      6129.90      0.89098194    0.0055657655
      6136.03      0.88757349    0.0055784094
      6142.17      0.88829225    0.0055938664
      6148.31      0.88841077    0.0055805540
      6154.46      0.88378093    0.0056330465
      6160.61      0.87692000    0.0056499733
      6166.77      0.86760970    0.0056335888
      6172.94      0.85531567    0.0056443559
      6179.11      0.84303425    0.0056869552
      6185.29      0.82886696    0.0056901366
      6191.48      0.81218655    0.0056551105
      6197.67      0.79691988    0.0056506430
      6203.87      0.78045184    0.0056784042
      6210.07      0.76010843    0.0056390523
      6216.28      0.74019331    0.0056356216
      6222.50      0.72243535    0.0056038159
      6228.72      0.70246590    0.0056365996
      6234.95      0.68855609    0.0056339421
      6241.19      0.67959786    0.0056019357
      6247.42      0.67416075    0.0056029612
      6253.67      0.67546707    0.0056364282
      6259.93      0.67916921    0.0056061160
      6266.19      0.68413747    0.0056081721
      6272.46      0.69171607    0.0056429776
      6278.73      0.69996876    0.0056139642
      6285.01      0.70938355    0.0056172965
      6291.29      0.72104474    0.0055890756
      6297.58      0.73816206    0.0056260177
      6303.88      0.75600116    0.0056303037
      6310.19      0.77424240    0.0056022747
      6316.50      0.79121346    0.0056403196
      6322.81      0.80676731    0.0056147740
      6329.14      0.81934157    0.0056213320
      6335.47      0.83135436    0.0056334015
      6341.80      0.84298306    0.0056408805
      6348.14      0.84942671    0.0056478956
      6354.49      0.85640237    0.0056574868
      6360.85      0.86469157    0.0056634154
      6367.21      0.86929245    0.0056721069
      6373.57      0.87357733    0.0056756593
      6379.95      0.87249374    0.0056474860
      6386.33      0.87337981    0.0056817247
      6392.72      0.86895038    0.0056513241
      6399.11      0.86663421    0.0056525095
      6405.51      0.86288764    0.0056544629
      6411.92      0.85832644    0.0056563500
      6418.32      0.85653729    0.0056911511
      6424.74      0.84769099    0.0056618257
      6431.17      0.84247734    0.0056637275
      6437.60      0.83609943    0.0056643788
      6444.04      0.82943296    0.0056649050
      6450.48      0.82257256    0.0056654151
      6456.94      0.81155307    0.0056351608
      6463.39      0.80186065    0.0056350738
      6469.85      0.78806030    0.0056356063
      6476.33      0.77320333    0.0056345223
      6482.80      0.75724439    0.0056364869
      6489.28      0.74474586    0.0056368006
      6495.77      0.72925289    0.0056398112
      6502.27      0.71148010    0.0056404387
      6508.77      0.69401151    0.0056437005
      6515.28      0.67630623    0.0056443763
      6521.80      0.66442616    0.0056474451
      6528.32      0.65475761    0.0056479279
      6534.85      0.64186076    0.0056190416
      6541.38      0.63501511    0.0056208116
      6547.92      0.62989177    0.0056223228
      6554.47      0.63764274    0.0056238063
      6561.03      0.64738651    0.0056252310
      6567.59      0.66278193    0.0056263190
      6574.16      0.68206533    0.0056276858
      6580.73      0.70502217    0.0056283738
      6587.31      0.73207275    0.0055981695
      6593.90      0.75432629    0.0056300648
      6600.50      0.78103563    0.0056308656
      6607.10      0.80513300    0.0056006759
      6613.70      0.83071437    0.0056315604
      6620.32      0.84998390    0.0056009209
      6626.94      0.86559744    0.0056318240
      6633.57      0.87896500    0.0056006356
      6640.20      0.88607426    0.0056012891
      6646.84      0.89456732    0.0055999674
      6653.49      0.90034750    0.0056000354
      6660.14      0.89937009    0.0055692849
      6666.80      0.89593496    0.0055987845
      6673.47      0.88415909    0.0056047383
      6680.14      0.87441560    0.0055951038
      6686.82      0.86308106    0.0056355726
      6693.51      0.84786361    0.0056003125
      6700.20      0.83055103    0.0056014870
      6706.90      0.81864776    0.0056226101
      6713.61      0.80573547    0.0056692275
      6720.32      0.79195244    0.0057375529
      6727.05      0.78477218    0.0058051225
      6733.77      0.77937659    0.0058988325
      6740.51      0.77543092    0.0059933693
      6747.25      0.77067550    0.0060346615
      6754.00      0.76818952    0.0061227611
      6760.75      0.76567118    0.0061124029
      6767.51      0.76717824    0.0061068953
      6774.28      0.76817961    0.0061088175
      6781.05      0.76969150    0.0060122647
      6787.84      0.76886131    0.0059332570
      6794.62      0.76896088    0.0058534729
      6801.42      0.76384166    0.0057985124
      6808.22      0.75823649    0.0057560063
      6815.03      0.75000829    0.0057178364
      6821.85      0.74293829    0.0056415937
      6828.67      0.73746321    0.0056014100
      6835.50      0.73603447    0.0056069881
      6842.33      0.73449838    0.0055551127
      6849.17      0.72931621    0.0055328647
      6856.02      0.72119543    0.0055152554
      6862.88      0.71774447    0.0055045425
      6869.74      0.70706512    0.0054938582
      6876.61      0.69175301    0.0054855030
      6883.49      0.68332068    0.0054775862
      6890.37      0.66981658    0.0054399476
      6897.27      0.65790906    0.0054285516
      6904.16      0.64760179    0.0053329287
      6911.07      0.64208709    0.0052919353
      6917.98      0.64050120    0.0052249203
      6924.89      0.64357878    0.0051609539
      6931.82      0.65051556    0.0051251265
      6938.75      0.65364176    0.0050645972
      6945.69      0.66253903    0.0050056916
      6952.64      0.67441045    0.0049494100
      6959.59      0.68677292    0.0049202608
      6966.55      0.70358383    0.0048534398
      6973.52      0.72074232    0.0048072270
      6980.49      0.73807515    0.0047604297
      6987.47      0.75691171    0.0047339081
      6994.46      0.76847706    0.0046918001
      7001.46      0.77494658    0.0046586826
      7008.46      0.77953847    0.0046398876
      7015.46      0.78170715    0.0046306834
      7022.48      0.78367418    0.0046347705
      7029.51      0.78522320    0.0046210794
      7036.53      0.78784916    0.0045848701
      7043.57      0.78709094    0.0045661364
      7050.62      0.78104603    0.0045451030
      7057.66      0.77352328    0.0045355086
      7064.72      0.76875863    0.0045071734
      7071.79      0.75910836    0.0044754678
      7078.86      0.75030410    0.0044401484
      7085.94      0.74030009    0.0044003198
      7093.03      0.73228052    0.0043572826
      7100.12      0.72553467    0.0043129233
      7107.22      0.71594036    0.0042674908
      7114.33      0.70953269    0.0042209662
      7121.44      0.70321203    0.0041883509
      7128.56      0.69665465    0.0041391541
      7135.69      0.69744160    0.0040790108
      7142.83      0.69288466    0.0040298353
      7149.97      0.68978151    0.0039815531
      7157.12      0.68954424    0.0039339057
      7164.28      0.68940667    0.0039472366
      7171.44      0.68872387    0.0039977897
      7178.62      0.68671789    0.0040581139
      7185.80      0.68746427    0.0041305653
      7192.98      0.68667752    0.0042194685
      7200.17      0.68564804    0.0043311529
      7207.38      0.68456143    0.0044747916
      7214.58      0.68297862    0.0046654816
      7221.80      0.68425871    0.0049237985
      7229.02      0.68601231    0.0052732408
      7236.25      0.68852895    0.0057374488
      7243.49      0.69218312    0.0063405005
      7250.73      0.69520131    0.0071124568
      7257.98      0.69547177    0.0081008235
      7265.24      0.69404558    0.0093557767
      7272.51      0.69124009     0.010940492
