# starting wavelength =        3149.6200
# ending wavelength =        8251.1600
# O2 telluric scale =        0
# O2 telluric shift =        0
# H2O telluric scale =        0
# H2O telluric shift =        0
      3150.24       2.3959448      0.44500837
      3153.39       1.6361738      0.37632361
      3156.55       1.1342694     -0.30146693
      3159.70      0.79114248      0.25030595
      3162.86      0.50814531      0.20597298
      3166.03      0.35743978      0.18442335
      3169.19      0.24665971      0.16924350
      3172.36     0.087451077      0.16132482
      3175.54    -0.015343804      0.15236178
      3178.71      0.11354768      0.14539472
      3181.89      0.10057543      0.14043389
      3185.07      0.13346879      0.13612401
      3188.26      0.15304520      0.13239975
      3191.45     0.078366585      0.12912762
      3194.64     0.082707895      0.13031772
      3197.83      0.14852105      0.12863914
      3201.03      0.27107675      0.12831475
      3204.23      0.29280171      0.12949395
      3207.44      0.22828706      0.12782997
      3210.64      0.36751291      0.12750544
      3213.85      0.33787298      0.12867340
      3217.07      0.31035846      0.12702791
      3220.28      0.19598389      0.12670296
      3223.51      0.11145637      0.12641260
      3226.73      0.10357073      0.12623223
      3229.96      0.16631181      0.12590593
      3233.19      0.23373425      0.12561300
      3236.42      0.28059083      0.12544588
      3239.66      0.29948253      0.12511506
      3242.90      0.38750979      0.12481785
      3246.14      0.50058511      0.12466715
      3249.39      0.51852995      0.12433311
      3252.64      0.55926754      0.12402892
      3255.89      0.57894084      0.12241772
      3259.14      0.70593194      0.12355865
      3262.40      0.76811014      0.12324896
      3265.67      0.76223284      0.12163798
      3268.93      0.69909824      0.12138681
      3272.20      0.63654275      0.12247679
      3275.47      0.64787468      0.12086714
      3278.75      0.67828313      0.12060557
      3282.03      0.71525917      0.12171822
      3285.31      0.81572131      0.12010499
      3288.60      0.78670071      0.11983391
      3291.88      0.73756105      0.11958691
      3295.18      0.72381574      0.12065961
      3298.47      0.68794557      0.11907221
      3301.77      0.57866097      0.11881418
      3305.07      0.57108182      0.11857909
      3308.38      0.51744291      0.11832558
      3311.69      0.48605966      0.11805268
      3315.00      0.43680130      0.11780478
      3318.31      0.49600926      0.11631494
      3321.63      0.52002270      0.11730793
      3324.95      0.53328694      0.11704380
      3328.28      0.52320666      0.11680332
      3331.61      0.43261039      0.11531234
      3334.94      0.33996518      0.11630161
      3338.27      0.29864823      0.11604370
      3341.61      0.25735616      0.11460814
      3344.95      0.28896453      0.11432193
      3348.30      0.28516648      0.11405291
      3351.65      0.25268090      0.11505126
      3355.00      0.21952155      0.11362503
      3358.35      0.33421317      0.11334291
      3361.71      0.41278434      0.11307683
      3365.07      0.49268360      0.11406605
      3368.44      0.60515693      0.11265498
      3371.81      0.70822666      0.11237508
      3375.18      0.74636320      0.11211013
      3378.56      0.79306278      0.11070410
      3381.94      0.80311775      0.11169844
      3385.32      0.68304158      0.11141895
      3388.70      0.63456453      0.11115350
      3392.09      0.53043572      0.10975597
      3395.48      0.46717240      0.11075606
      3398.88      0.42657834      0.11047558
      3402.28      0.43465611      0.11020821
      3405.68      0.39686566      0.10881775
      3409.09      0.29888226      0.10858005
      3412.49      0.23753241      0.10954677
      3415.91      0.21575834      0.10927617
      3419.32      0.18948665      0.10789144
      3422.74      0.24614036      0.10764927
      3426.17      0.21947217      0.10742061
      3429.59      0.20069242      0.10719988
      3433.02      0.23778825      0.10809637
      3436.45      0.25261305      0.10673190
      3439.89      0.30251058      0.10649698
      3443.33      0.48432153      0.10626921
      3446.78      0.59080415      0.10605395
      3450.22      0.66497764      0.10583123
      3453.67      0.80227280      0.10558939
      3457.13      0.84881421      0.10535403
      3460.58      0.89036193      0.10513029
      3464.04      0.88608539      0.10491793
      3467.51      0.92880290      0.10360882
      3470.98      0.85709358      0.10445833
      3474.45      0.84717937      0.10422540
      3477.92      0.85300405      0.10400376
      3481.40      0.78570500      0.10275457
      3484.88      0.76137245      0.10250617
      3488.37      0.77128687      0.10226762
      3491.86      0.73856743      0.10311317
      3495.35      0.71881533      0.10288895
      3498.84      0.68244342      0.10167195
      3502.34      0.67610914      0.10142459
      3505.84      0.69221824      0.10118638
      3509.35      0.68228148      0.10095236
      3512.86      0.64781951      0.10072676
      3516.37      0.60204580      0.10061460
      3519.89      0.60054591      0.10036747
      3523.41      0.64279895      0.10012418
      3526.93      0.66760735     0.099888886
      3530.46      0.73066852     0.099661253
      3533.99      0.75941998     0.099441039
      3537.53      0.77242985     0.098241577
      3541.06      0.78157940     0.099090410
      3544.60      0.77027811     0.098852905
      3548.15      0.80313652     0.098622558
      3551.70      0.78754801     0.098394885
      3555.25      0.76632587     0.097201874
      3558.80      0.78162488     0.096988820
      3562.36      0.74405963     0.096779827
      3565.92      0.70591585     0.096574992
      3569.49      0.67603275     0.096375514
      3573.06      0.64512023     0.097156924
      3576.64      0.64817264     0.096933832
      3580.21      0.66886834     0.095759742
      3583.79      0.66309275     0.095549674
      3587.38      0.64867750     0.095344586
      3590.96      0.64096284     0.095140981
      3594.55      0.65765220     0.094942323
      3598.15      0.65066099     0.094748235
      3601.75      0.66974514     0.093614933
      3605.35      0.67850689     0.094351018
      3608.96      0.69500285     0.094141316
      3612.56      0.70523205     0.093936745
      3616.18      0.78465266     0.093734663
      3619.79      0.80461643     0.093535066
      3623.41      0.84464469     0.093339591
      3627.04      0.80494427     0.092258484
      3630.66      0.84613278     0.092049517
      3634.29      0.83716892     0.091842786
      3637.93      0.82610171     0.091639668
      3641.57      0.77403061     0.091440025
      3645.21      0.71359200     0.091240183
      3648.86      0.68961065     0.091966409
      3652.50      0.69189201     0.091771660
      3656.16      0.71281468     0.090742994
      3659.81      0.68349227     0.090535710
      3663.47      0.71900370     0.090331510
      3667.14      0.68119546     0.090130881
      3670.80      0.63298730     0.089932070
      3674.48      0.59007449     0.089734786
      3678.15      0.53277727     0.089540346
      3681.83      0.49950689     0.089346997
      3685.51      0.50659982     0.089155250
      3689.20      0.53085342     0.088120903
      3692.88      0.57747419     0.087935189
      3696.58      0.66004676     0.087750815
      3700.27      0.74754101     0.087567435
      3703.98      0.81776255     0.087386049
      3707.68      0.88905910     0.087205036
      3711.39      0.94127401     0.087026777
      3715.10      0.96314640     0.086848759
      3718.81      0.99687109     0.087532031
      3722.53       1.0510893     0.087345275
      3726.26       1.0983991     0.087157190
      3729.98       1.0620575     0.086143974
      3733.71       1.0426397     0.085961671
      3737.45      0.99577294     0.085781191
      3741.18      0.97311021     0.085601465
      3744.93      0.95701473     0.085422540
      3748.67      0.91151326     0.085243987
      3752.42      0.80665825     0.085068042
      3756.17      0.68508502     0.084892004
      3759.93      0.54797202     0.084717942
      3763.69      0.42042442     0.084545554
      3767.45      0.31225839     0.084371845
      3771.22      0.22090369     0.084199715
      3774.99      0.14271744     0.084029088
      3778.77     0.076790826     0.083858521
      3782.54     0.044498745     0.083688187
      3786.33     0.034519531     0.083519096
      3790.11     0.013161441     0.082605285
      3793.90     0.040004009     0.082435525
      3797.70     0.028488998     0.082265875
      3801.50     0.071331794     0.082098000
      3805.30     0.073299945     0.081930110
      3809.10     0.065053059     0.081762833
      3812.91     0.061575537     0.081596981
      3816.73     0.087491572     0.081432488
      3820.54      0.11244195     0.081268290
      3824.36     0.085515039     0.081106071
      3828.19     0.087609558     0.080943834
      3832.02     0.080407641     0.080781712
      3835.85     0.098000276     0.080621606
      3839.68      0.10584695     0.080461988
      3843.52      0.10666701     0.080303755
      3847.37      0.12112545     0.080145843
      3851.22      0.13172047     0.079215691
      3855.07      0.13357780     0.079059444
      3858.92      0.20601848     0.078903040
      3862.78      0.20289844     0.078748150
      3866.64      0.21291633     0.078593345
      3870.51      0.25231503     0.078438141
      3874.38      0.28096213     0.078284501
      3878.26      0.28904815     0.078132541
      3882.13      0.31839171     0.077980256
      3886.02      0.37956128     0.077828048
      3889.90      0.41781377     0.077677458
      3893.79      0.49848827     0.077526882
      3897.69      0.57053918     0.077376362
      3901.59      0.62249197     0.077227483
      3905.49      0.66261173     0.077080331
      3909.39      0.72569491     0.076933215
      3913.30      0.80139191     0.076786314
      3917.22      0.88530519     0.076641237
      3921.13      0.93024525     0.075787466
      3925.06      0.97598856     0.075644585
      3928.98       1.0582185     0.075503522
      3932.91       1.1306582     0.075364226
      3936.84       1.1748655     0.075223958
      3940.78       1.2733853     0.075085628
      3944.72       1.3214179     0.074949209
      3948.67       1.3736780     0.074813348
      3952.61       1.3871884     0.074678073
      3956.57       1.4329808     0.074544885
      3960.52       1.4592278     0.074413809
      3964.48       1.4356456     0.074282096
      3968.45       1.4253737     0.073439735
      3972.42       1.4140173     0.073304833
      3976.39       1.3495028     0.073169392
      3980.37       1.2999519     0.073035943
      3984.35       1.2894581     0.072904593
      3988.33       1.2502373     0.073425390
      3992.32       1.2560374     0.073294757
      3996.31       1.2355918     0.073166490
      4000.31       1.2305659     0.073040642
      4004.31       1.2246198     0.072249671
      4008.31       1.2233652     0.072116249
      4012.32       1.2195154     0.071985071
      4016.33       1.2251070     0.071853932
      4020.35       1.2126828     0.071725101
      4024.37       1.1767948     0.071598703
      4028.40       1.1739725     0.071474563
      4032.42       1.1922955     0.071350847
      4036.46       1.1552338     0.070594505
      4040.50       1.1380458     0.070477327
      4044.54       1.1646689     0.070360771
      4048.58       1.1411480     0.070850274
      4052.63       1.1212172     0.070724898
      4056.68       1.1006462     0.070600037
      4060.74       1.0950374     0.070478159
      4064.80       1.0657294     0.069732792
      4068.86       1.0166109     0.069617123
      4072.93      0.98062820     0.069503323
      4077.01      0.93377714     0.069392566
      4081.08      0.89230167     0.069284869
      4085.17      0.88641876     0.069178430
      4089.25      0.86862934     0.069642664
      4093.34      0.86442294     0.068908103
      4097.43      0.84870597     0.068794784
      4101.53      0.86317501     0.068684825
      4105.63      0.89242477     0.068578290
      4109.74      0.89991036     0.068474149
      4113.85      0.91657626     0.068372687
      4117.96      0.95462483     0.067640462
      4122.08      0.94515984     0.067530088
      4126.20      0.94565484     0.068006893
      4130.33      0.98066219     0.067902219
      4134.46      0.97289224     0.067801397
      4138.59      0.95826751     0.067098392
      4142.73      0.97260845     0.066987428
      4146.88       1.0117680     0.066880292
      4151.02       1.0709215     0.066776385
      4155.18       1.0804119     0.066675581
      4159.33       1.0859711     0.066576480
      4163.49       1.1261206     0.066465377
      4167.65       1.1488011     0.066357582
      4171.82       1.1863433     0.066254073
      4175.99       1.1807898     0.066153647
      4180.17       1.2273323     0.065491460
      4184.35       1.2578441     0.065959212
      4188.54       1.2844461     0.065852079
      4192.72       1.2905926     0.065748888
      4196.92       1.3007697     0.065650357
      4201.11       1.3283187     0.064995008
      4205.31       1.3743502     0.064906539
      4209.52       1.4142378     0.064822036
      4213.73       1.4345705     0.065261349
      4217.94       1.4317580     0.064607681
      4222.16       1.4276367     0.064517275
      4226.38       1.3736040     0.064431952
      4230.61       1.3050316     0.064350986
      4234.84       1.3150391     0.064788993
      4239.08       1.2794828     0.064143709
      4243.32       1.2300573     0.064057332
      4247.56       1.2167250     0.063975683
      4251.81       1.1830350     0.063899625
      4256.06       1.1731392     0.063250727
      4260.32       1.1452030     0.063696400
      4264.58       1.1330999     0.063615181
      4268.84       1.0930437     0.063539033
      4273.11       1.1082784     0.062905036
      4277.38       1.1203324     0.062819481
      4281.66       1.1321452     0.063267262
      4285.94       1.1322789     0.063192869
      4290.23       1.1437054     0.062569544
      4294.52       1.1550900     0.062484523
      4298.81       1.1382130     0.062406127
      4303.11       1.1340665     0.062333164
      4307.42       1.1594696     0.062243623
      4311.72       1.1604944     0.062160983
      4316.04       1.1576708     0.062084382
      4320.35       1.1586878     0.062014700
      4324.67       1.1693890     0.061928003
      4329.00       1.1781364     0.061847620
      4333.33       1.1721247     0.061265315
      4337.66       1.1495095     0.061199178
      4342.00       1.1782635     0.061621815
      4346.34       1.2003372     0.061545154
      4350.69       1.1794088     0.060969542
      4355.04       1.1562301     0.060908096
      4359.39       1.1513402     0.061325978
      4363.75       1.1575750     0.060749894
      4368.12       1.1464513     0.060686190
      4372.48       1.1301679     0.060629374
      4376.86       1.0827650     0.060539700
      4381.23       1.0823263     0.060473794
      4385.61       1.0692139     0.060415103
      4390.00       1.0492843     0.059846232
      4394.39       1.0136503     0.060269022
      4398.79      0.97393267     0.060209184
      4403.18      0.95496860     0.059651675
      4407.59      0.95330819     0.059583816
      4412.00      0.93024133     0.060011663
      4416.41      0.95661833     0.059959693
      4420.82      0.94372696     0.059395613
      4425.25      0.92073030     0.059821813
      4429.67      0.93991947     0.059282069
      4434.10      0.97045614     0.059213186
      4438.54      0.99394621     0.059152622
      4442.97       1.0125085     0.059106331
      4447.42       1.0191044     0.059037405
      4451.86       1.0129925     0.058977188
      4456.32       1.0321341     0.058934879
      4460.77       1.0527554     0.058866727
      4465.24       1.1046593     0.058807583
      4469.70       1.1145405     0.058292982
      4474.17       1.1397011     0.058702005
      4478.65       1.1388190     0.058644192
      4483.12       1.1384022     0.058132539
      4487.61       1.1382323     0.058541845
      4492.09       1.1479851     0.058025396
      4496.59       1.1858641     0.057980216
      4501.08       1.2097110     0.058388980
      4505.58       1.2658542     0.057876095
      4510.09       1.2888288     0.057833793
      4514.60       1.3326937     0.058240555
      4519.12       1.3820760     0.057731811
      4523.63       1.4060662     0.057693289
      4528.16       1.4497941     0.057639778
      4532.69       1.4481110     0.057595748
      4537.22       1.4457344     0.057561510
      4541.76       1.5029276     0.057506034
      4546.30       1.5260550     0.057465876
      4550.85       1.5464376     0.056967711
      4555.40       1.5553061     0.057377707
      4559.95       1.5488782     0.057343482
      4564.51       1.5491273     0.056842426
      4569.08       1.5866331     0.057257484
      4573.65       1.5894825     0.056769536
      4578.22       1.5971527     0.056723399
      4582.80       1.6077703     0.056702519
      4587.38       1.6112629     0.056652220
      4591.97       1.6016222     0.056612954
      4596.56       1.6077357     0.056586244
      4601.16       1.6550267     0.056542247
      4605.76       1.6857904     0.056525320
      4610.37       1.6745865     0.056476732
      4614.98       1.6518948     0.056011729
      4619.59       1.6157139     0.056417011
      4624.21       1.5929013     0.056376688
      4628.84       1.5508636     0.055921471
      4633.47       1.5403750     0.056317877
      4638.10       1.5102618     0.055859806
      4642.74       1.4824484     0.056264071
      4647.38       1.4465317     0.055801663
      4652.03       1.4034391     0.055780486
      4656.68       1.4040002     0.055748760
      4661.34       1.3835103     0.055724097
      4666.00       1.3862240     0.055699726
      4670.67       1.3542635     0.055672361
      4675.33       1.3504607     0.055658639
      4680.01       1.3566599     0.055624372
      4684.69       1.3641702     0.055608456
      4689.38       1.3623680     0.055579961
      4694.07       1.3390832     0.055561972
      4698.76       1.3562225     0.055108595
      4703.46       1.3790394     0.055519048
      4708.16       1.3735574     0.055070926
      4712.87       1.3898296     0.055479990
      4717.58       1.3790782     0.055036865
      4722.30       1.3786828     0.055444568
      4727.03       1.3385930     0.055005330
      4731.75       1.3215093     0.054981033
      4736.48       1.3108051     0.054976842
      4741.22       1.3161825     0.054951313
      4745.96       1.3576734     0.054950657
      4750.71       1.3498286     0.054924725
      4755.46       1.3458129     0.054926822
      4760.22       1.3364378     0.054900645
      4764.97       1.3034029     0.054905585
      4769.74       1.3062531     0.054879036
      4774.51       1.3064835     0.054468656
      4779.29       1.3405331     0.054860421
      4784.07       1.3376026     0.054451159
      4788.85       1.2983042     0.054443911
      4793.64       1.2917068     0.054436184
      4798.43       1.2547848     0.054430602
      4803.23       1.2274525     0.054423611
      4808.03       1.2017110     0.054419566
      4812.84       1.1686827     0.054414311
      4817.66       1.1657597     0.054411220
      4822.48       1.1924823     0.054407594
      4827.30       1.2035248     0.054405168
      4832.12       1.2152587     0.054403951
      4836.96       1.2533582     0.054402108
      4841.79       1.3302862     0.054001664
      4846.63       1.3480562     0.054401294
      4851.48       1.3602845     0.054000609
      4856.33       1.3890927     0.054402917
      4861.19       1.3826438     0.054001761
      4866.05       1.3758457     0.054407771
      4870.92       1.3274006     0.054005083
      4875.79       1.2829518     0.054415412
      4880.66       1.2314631     0.054011503
      4885.55       1.2332731     0.054036188
      4890.43       1.1858768     0.054021036
      4895.32       1.0932013     0.054043691
      4900.22       1.0022257     0.054033497
      4905.12      0.93152822     0.054054391
      4910.02      0.85382690     0.053668723
      4914.94      0.79028466     0.054067806
      4919.85      0.77785816     0.053687790
      4924.77      0.72680059     0.054084053
      4929.70      0.74273655     0.053710734
      4934.62      0.80881510     0.053724769
      4939.56      0.89291255     0.053736651
      4944.50       1.0321597     0.053748957
      4949.44       1.1650263     0.054152155
      4954.39       1.2654078     0.053776784
      4959.35       1.3886370     0.053797350
      4964.31       1.4769128     0.053808557
      4969.27       1.5811863     0.053826837
      4974.24       1.6044970     0.053454469
      4979.22       1.6553886     0.053859743
      4984.20       1.7046689     0.053484414
      4989.18       1.7617873     0.053897727
      4994.17       1.7932093     0.053919821
      4999.16       1.8011250     0.053549671
      5004.16       1.8045382     0.053959176
      5009.17       1.7864160     0.053585515
      5014.18       1.7436531     0.053622460
      5019.19       1.6369281     0.053625626
      5024.21       1.5271760     0.053659225
      5029.23       1.4540454     0.053701147
      5034.26       1.3933571     0.053700969
      5039.30       1.2793103     0.053738833
      5044.34       1.1785855     0.053384573
      5049.39       1.1289418     0.053782695
      5054.43       1.0635042     0.053824695
      5059.49       1.0678453     0.053467794
      5064.55       1.0755084     0.053870030
      5069.61       1.0884710     0.053524002
      5074.68       1.0827731     0.053557050
      5079.76       1.1074522     0.053962854
      5084.84       1.1307216     0.053615990
      5089.92       1.2020602     0.053652184
      5095.01       1.2600385     0.054060400
      5100.11       1.3334446     0.053713277
      5105.21       1.4101474     0.053751850
      5110.31       1.4984709     0.053405541
      5115.42       1.6193971     0.053816706
      5120.54       1.6629538     0.053857081
      5125.66       1.7286395     0.053511407
      5130.79       1.7831955     0.053925983
      5135.92       1.8316092     0.053967740
      5141.05       1.8395015     0.053622691
      5146.20       1.8564917     0.053677123
      5151.34       1.8499277     0.054083757
      5156.49       1.8210027     0.053738345
      5161.65       1.7704576     0.053793524
      5166.81       1.7288675     0.054205459
      5171.98       1.6910563     0.053859024
      5177.15       1.6738331     0.053914262
      5182.33       1.6891756     0.053582646
      5187.51       1.6776245     0.053984784
      5192.70       1.6693283     0.054039456
      5197.89       1.6301299     0.054100703
      5203.09       1.6123690     0.053762735
      5208.29       1.6024011     0.054170701
      5213.50       1.6009745     0.054230269
      5218.72       1.6246292     0.053899569
      5223.93       1.6433972     0.053953690
      5229.16       1.6573521     0.054366653
      5234.39       1.6684520     0.054043395
      5239.62       1.6625637     0.054096431
      5244.86       1.7089228     0.054153661
      5250.11       1.7166360     0.054194358
      5255.36       1.7181783     0.054246450
      5260.61       1.7706270     0.054302493
      5265.87       1.7700136     0.054363261
      5271.14       1.7428054     0.054038447
      5276.41       1.7304464     0.054458745
      5281.69       1.7217019     0.054517491
      5286.97       1.7016312     0.054189858
      5292.26       1.6300970     0.054255527
      5297.55       1.6489836     0.054324999
      5302.85       1.6548520     0.054741232
      5308.15       1.6395896     0.054413326
      5313.46       1.6214466     0.054480612
      5318.77       1.5990672     0.054551270
      5324.09       1.5230343     0.054624940
      5329.42       1.4663111     0.054645442
      5334.75       1.4068610     0.054713666
      5340.08       1.3540227     0.054785287
      5345.42       1.3273865     0.054475646
      5350.77       1.3480887     0.054540876
      5356.12       1.3320281     0.054608956
      5361.48       1.2998354     0.055026876
      5366.83       1.2649536     0.055101563
      5372.20       1.2456957     0.054790853
      5377.58       1.2627412     0.054859068
      5382.95       1.2761545     0.054929789
      5388.34       1.2821118     0.055003102
      5393.72       1.3021799     0.055051161
      5399.12       1.2991388     0.055119466
      5404.52       1.2724568     0.055189820
      5409.92       1.2662578     0.055263183
      5415.33       1.2629421     0.055338382
      5420.75       1.2561614     0.055028148
      5426.17       1.2596253     0.055106873
      5431.60       1.2440953     0.055535327
      5437.03       1.2586660     0.055610351
      5442.47       1.2475491     0.055296903
      5447.91       1.2549772     0.055374428
      5453.36       1.2337124     0.055453948
      5458.81       1.2193682     0.055535240
      5464.27       1.1759150     0.055618375
      5469.73       1.1884782     0.055702873
      5475.20       1.1883169     0.055394003
      5480.68       1.1860690     0.055814326
      5486.16       1.2228239     0.055895832
      5491.65       1.2569050     0.055979069
      5497.14       1.2814694     0.056063357
      5502.64       1.3097390     0.055767884
      5508.14       1.3247917     0.055847629
      5513.65       1.3438414     0.055928752
      5519.16       1.3693708     0.056011330
      5524.68       1.3688810     0.056095340
      5530.20       1.3899775     0.056180618
      5535.73       1.3900352     0.056266238
      5541.27       1.3648471     0.055967883
      5546.81       1.3384745     0.056405005
      5552.36       1.2861921     0.056488922
      5557.91       1.2181161     0.056574068
      5563.47       1.1658321     0.056659397
      5569.04       1.1136547     0.056746874
      5574.60       1.0735377     0.056834418
      5580.18       1.0400032     0.056533029
      5585.76       1.0272670     0.056622074
      5591.35      0.99150559     0.056711564
      5596.94      0.94218471     0.056802489
      5602.53      0.91393484     0.056893389
      5608.14      0.91692105     0.056985487
      5613.75      0.89471939     0.057077963
      5619.36      0.88318187     0.057171217
      5624.98      0.89971143     0.056877159
      5630.60      0.90409895     0.056967593
      5636.23      0.90224723     0.057058755
      5641.87      0.89757212     0.057150319
      5647.51      0.85158446     0.057243036
      5653.16      0.85703967     0.057336019
      5658.82      0.87400206     0.057429198
      5664.47      0.85202117     0.057523485
      5670.14      0.87224560     0.057618070
      5675.81      0.87419847     0.057713152
      5681.48      0.84717956     0.057808412
      5687.17      0.80142740     0.057904836
      5692.85      0.77767461     0.057613178
      5698.55      0.70333972     0.057712075
      5704.25      0.65954189     0.057814735
      5709.95      0.61798988     0.057918512
      5715.66      0.53286106     0.058019122
      5721.38      0.53154864     0.058117635
      5727.10      0.50426258     0.058216248
      5732.83      0.50003431     0.058321734
      5738.56      0.48119276     0.058438115
      5744.30      0.45425818     0.058561144
      5750.04      0.52047472     0.058685694
      5755.79      0.47970388     0.058818674
      5761.55      0.45419043     0.058963753
      5767.31      0.48485175     0.059111315
      5773.08      0.51308164     0.059252189
      5778.85      0.53775924     0.059390288
      5784.63      0.62366724     0.059528940
      5790.41      0.68174095     0.059666478
      5796.21      0.79112209     0.059798567
      5802.00      0.88461615     0.059922937
      5807.81      0.95560426     0.060039966
      5813.61       1.0315299     0.059802180
      5819.43       1.1503116     0.059901628
      5825.25       1.1968138     0.059993671
      5831.07       1.2656361     0.060081049
      5836.90       1.3443830     0.060166308
      5842.74       1.4126191     0.060252458
      5848.58       1.4395626     0.060340892
      5854.43       1.5117789     0.060430195
      5860.29       1.4895698     0.060514375
      5866.15       1.5123816     0.060591362
      5872.01       1.5817969     0.060663881
      5877.89       1.5779887     0.060383297
      5883.76       1.5959378     0.060456826
      5889.65       1.5263386     0.060532206
      5895.54       1.4933870     0.060605086
      5901.43       1.4423878     0.060681696
      5907.34       1.3440268     0.060770746
      5913.24       1.3207390     0.060867198
      5919.16       1.2904974     0.060957838
      5925.08       1.2461945     0.060703501
      5931.00       1.1999981     0.060800043
      5936.93       1.1285817     0.060902771
      5942.87       1.0411368     0.061008238
      5948.81      0.95867774     0.061114041
      5954.76      0.88109953     0.061221730
      5960.72      0.84166917     0.061331586
      5966.68      0.75690395     0.061085367
      5972.64      0.74115861     0.061584936
      5978.62      0.65642141     0.061692925
      5984.60      0.65321278     0.061802117
      5990.58      0.64986942     0.061912940
      5996.57      0.68431605     0.062024994
      6002.57      0.67873928     0.061788550
      6008.57      0.69957963     0.061895925
      6014.58      0.69643950     0.062003910
      6020.60      0.73346171     0.062113151
      6026.62      0.76863502     0.062223665
      6032.65      0.72362060     0.062335567
      6038.68      0.70102544     0.062505127
      6044.72      0.70204477     0.062612661
      6050.76      0.70750519     0.062720915
      6056.81      0.73326640     0.062830161
      6062.87      0.78753185     0.062941877
      6068.93      0.82531601     0.062710250
      6075.00      0.83092095     0.062826796
      6081.08      0.86883000     0.062954490
      6087.16      0.89215116     0.063489096
      6093.25      0.90297119     0.063616729
      6099.34      0.87068131     0.063373866
      6105.44      0.88339734     0.063485875
      6111.54      0.85986363     0.063612480
      6117.66      0.89435270     0.063755842
      6123.78      0.92737356     0.063571452
      6129.90      0.93256813     0.064156526
      6136.03      0.95487726     0.064352958
      6142.17      0.98872903     0.064562415
      6148.31       1.0395235     0.064442756
      6154.46       1.0833568     0.064648495
      6160.61       1.0733718     0.064848025
      6166.77       1.0999112     0.065459966
      6172.94       1.0999162     0.065280908
      6179.11       1.1349396     0.065420255
      6185.29       1.1431076     0.065539584
      6191.48       1.1895418     0.065638279
      6197.67       1.2934000     0.065357209
      6203.87       1.3814360     0.065802172
      6210.07       1.4897052     0.065834057
      6216.28       1.5281004     0.065501536
      6222.50       1.5740634     0.065531073
      6228.72       1.6146006     0.065571182
      6234.95       1.6515149     0.066012703
      6241.19       1.7020794     0.065742656
      6247.42       1.7334020     0.065841483
      6253.67       1.7581520     0.065919504
      6259.93       1.7964493     0.066022280
      6266.19       1.8330844     0.066111678
      6272.46       1.8450185     0.066206878
      6278.73       1.9024302     0.065947617
      6285.01       1.8742115     0.066042587
      6291.29       1.7816260     0.066546861
      6297.58       1.7253842     0.066296937
      6303.88       1.6456896     0.066402242
      6310.19       1.5655326     0.066523462
      6316.50       1.4706108     0.066730642
      6322.81       1.4009265     0.066867599
      6329.14       1.3300238     0.067005307
      6335.47       1.3216023     0.066803162
      6341.80       1.2642435     0.067364010
      6348.14       1.2172976     0.067512061
      6354.49       1.1685590     0.067312546
      6360.85       1.1405159     0.067459625
      6367.21       1.0973563     0.068002385
      6373.57       1.0111873     0.067774876
      6379.95      0.92326732     0.067901209
      6386.33      0.88614695     0.068061535
      6392.72      0.88839611     0.068169341
      6399.11      0.88671236     0.068277866
      6405.51      0.89818878     0.068012010
      6411.92      0.95249581     0.068517050
      6418.32      0.95779352     0.068619435
      6424.74      0.99264052     0.068347271
      6431.17       1.0130441     0.068860145
      6437.60       1.0227952     0.068600113
      6444.04       1.0311030     0.068696758
      6450.48       1.0181549     0.069202018
      6456.94       1.0076169     0.068923285
      6463.39       1.0347483     0.069007442
      6469.85       1.0500940     0.069148876
      6476.33       1.0817682     0.069241995
      6482.80       1.1156668     0.068989608
      6489.28       1.1185869     0.069490967
      6495.77       1.1513593     0.069580687
      6502.27       1.1429442     0.069329757
      6508.77       1.0827852     0.069846226
      6515.28       1.0287614     0.069600903
      6521.80      0.96318806     0.069719971
      6528.32      0.89692722     0.069877165
      6534.85      0.83950977     0.069992704
      6541.38      0.74066044     0.069744751
      6547.92      0.73678057     0.070264992
      6554.47      0.71570159     0.070384233
      6561.03      0.70742504     0.070539592
      6567.59      0.67203631     0.070657959
      6574.16      0.64992049     0.070404825
      6580.73      0.64504341     0.070935183
      6587.31      0.65396305     0.070683529
      6593.90      0.68629927     0.071212420
      6600.50      0.69238436     0.070962379
      6607.10      0.67700557     0.071072135
      6613.70      0.70629396     0.071240761
      6620.32      0.72980663     0.071348180
      6626.94      0.74825495     0.071518972
      6633.57      0.76861735     0.071624292
      6640.20      0.79996785     0.071379662
      6646.84      0.82354057     0.071905899
      6653.49      0.77570267     0.071740246
      6660.14      0.75943679     0.072439988
      6666.80      0.74083972     0.072412868
      6673.47      0.63375901     0.072490359
      6680.14      0.53870331     0.072558770
      6686.82      0.43826497     0.072719813
      6693.51      0.33750316     0.073050618
      6700.20      0.27768158     0.073123010
      6706.90      0.21010177     0.074065704
      6713.61      0.14674287     0.074449911
      6720.32      0.16842557     0.075639125
      6727.05     0.099913468     0.076190340
      6733.77     0.093435845     0.077487398
      6740.51      0.10818713     0.077963141
      6747.25      0.12409927     0.078626955
      6754.00      0.15460815     0.079370764
      6760.75      0.17380101     0.079355820
      6767.51      0.18355868     0.080127688
      6774.28      0.16036165     0.079783778
      6781.05      0.16057824     0.080146612
      6787.84      0.22090920     0.079453642
      6794.62      0.24269513     0.079420914
      6801.42      0.24695652     0.078518627
      6808.22      0.29881564     0.077882632
      6815.03      0.33886905     0.077436900
      6821.85      0.39913971     0.076988848
      6828.67      0.43955062     0.076867008
      6835.50      0.48764819     0.076905491
      6842.33      0.53700399     0.076428883
      6849.17      0.49817700     0.076608210
      6856.02      0.44889922     0.076570643
      6862.88      0.57827069     0.076195551
      6869.74      0.68757509     0.076556931
      6876.61      0.77146007     0.076172900
      6883.49      0.78262291     0.076592465
      6890.37      0.83082805     0.076253296
      6897.27      0.87908450     0.076352315
      6904.16      0.95905887     0.076410985
      6911.07       1.0217382     0.076497084
      6917.98       1.0304834     0.076157787
      6924.89      0.89848596     0.076587808
      6931.82      0.89812105     0.076637344
      6938.75      0.90772140     0.076302311
      6945.69      0.93424794     0.076788017
      6952.64      0.93729176     0.076564819
      6959.59      0.98149399     0.076757740
      6966.55       1.0655603     0.076894097
      6973.52       1.0938148     0.077052239
      6980.49       1.0982125     0.077210627
      6987.47       1.2541536     0.077345666
      6994.46       1.3341948     0.077566321
      7001.46       1.3693618     0.077517058
      7008.46       1.3599647     0.078110434
      7015.46       1.4507334     0.079104105
      7022.48       1.4322212     0.079403407
      7029.51       1.4540557     0.080149723
      7036.53       1.5567742     0.080675546
      7043.57       1.7058494     0.081370773
      7050.62       1.7709348     0.082039768
      7057.66       1.7471247     0.082115732
      7064.72       1.7379007     0.083005470
      7071.79       1.7283160     0.083438339
      7078.86       1.7192895     0.083286591
      7085.94       1.6295611     0.083527851
      7093.03       1.4696369     0.084068627
      7100.12       1.3751292     0.083689835
      7107.22       1.3062112     0.083684766
      7114.33       1.2774262     0.083680137
      7121.44       1.3226920     0.083693943
      7128.56       1.2508674     0.083783433
      7135.69       1.1934055     0.083925772
      7142.83       1.1192000     0.083569984
      7149.97       1.0785437     0.084007089
      7157.12       1.0225400     0.083872282
      7164.28      0.97554262     0.083222810
      7171.44      0.98136196     0.082882862
      7178.62      0.90579448     0.082520146
      7185.80      0.90788856     0.082285419
      7192.98      0.88325657     0.082083492
      7200.17      0.91184851     0.081910097
      7207.38      0.91794684     0.081321796
      7214.58      0.99469746     0.081099977
      7221.80       1.0832948     0.081322292
      7229.02       1.1594157     0.081188821
      7236.25       1.2296491     0.080712473
      7243.49       1.2507970     0.080638208
      7250.73       1.3304182     0.080590903
      7257.98       1.3827133     0.080589937
      7265.24       1.4366020     0.080592734
      7272.51       1.4876687     0.080602910
      7279.78       1.5368979     0.080604583
      7287.06       1.5751946     0.080607100
      7294.35       1.6138023     0.080230868
      7301.64       1.6498263     0.080280577
      7308.94       1.6483489     0.080351773
      7316.25       1.5991492     0.080811914
      7323.57       1.5201879     0.080486922
      7330.89       1.4742390     0.080579999
      7338.22       1.4143636     0.080674498
      7345.56       1.3416213     0.080781395
      7352.91       1.3119308     0.080519051
      7360.26       1.2605349     0.080920675
      7367.62       1.1658696     0.081776810
      7374.99       1.0887771     0.082838340
      7382.37       1.0155068     0.083340466
      7389.75      0.94413085     0.082858284
      7397.14      0.88742670     0.082875520
      7404.53      0.83364016     0.083370816
      7411.94      0.76541931     0.084340051
      7419.35      0.73989100     0.086007824
      7426.77      0.68833156     0.087902905
      7434.20      0.65695898     0.090983758
      7441.63      0.62253765     0.094570605
      7449.07      0.61322583     0.098502971
      7456.52      0.57541843      0.10258270
      7463.98      0.57882486      0.10654770
      7471.45      0.59006418      0.10922785
      7478.92      0.56622614      0.11214143
      7486.40      0.57774791      0.11394471
      7493.88      0.60574063      0.11437343
      7501.38      0.57091896      0.11336489
      7508.88      0.52283952      0.11107968
      7516.39      0.54171489      0.10784967
      7523.91      0.52294052      0.10407040
      7531.43      0.47717146      0.10031577
      7538.96      0.49061646     0.096532828
      7546.50      0.54729177     0.093092719
      7554.05      0.54444010     0.090369071
      7561.60      0.54181494     0.088743947
      7569.16      0.56923044     0.087482351
      7576.73      0.57468140     0.086214469
      7584.31      0.60903633     0.085433284
      7591.89      0.59534944     0.085144723
      7599.49      0.59675896     0.084556696
      7607.09      0.59503518     0.084131056
      7614.70      0.59930954     0.083743549
      7622.31      0.65522124     0.083462024
      7629.93      0.66893766     0.083293090
      7637.56      0.70942054     0.083213257
      7645.20      0.73427283     0.083198493
      7652.85      0.72295309     0.083228760
      7660.50      0.75319416     0.083281384
      7668.16      0.75710833     0.082970219
      7675.83      0.78379389     0.083045897
      7683.50      0.85348017     0.083134637
      7691.19      0.85784839     0.083228307
      7698.88      0.85529089     0.083327832
      7706.58      0.84106832     0.083442753
      7714.29      0.85476699     0.083576820
      7722.00      0.85317719     0.083716900
      7729.73      0.91469974     0.083840876
      7737.45      0.95110445     0.083540699
      7745.19      0.98913075     0.083651368
      7752.94      0.94800009     0.083762986
      7760.69      0.95912718     0.083874137
      7768.45      0.99260772     0.083608881
      7776.22      0.93461517     0.083698006
      7784.00      0.88572751     0.083778553
      7791.78      0.83332305     0.083851918
      7799.57      0.82297312     0.083918614
      7807.37      0.78902155     0.084372809
      7815.18      0.81865195     0.084434356
      7822.99      0.78538480     0.084506286
      7830.82      0.77204905     0.084211420
      7838.65      0.74399388     0.084292946
      7846.49      0.70101414     0.084377820
      7854.34      0.72459891     0.084459319
      7862.19      0.77104960     0.084528320
      7870.05      0.71552351     0.084589368
      7877.93      0.70049872     0.084280223
      7885.80      0.68286976     0.084355312
      7893.69      0.67366377     0.084432432
      7901.58      0.68353914     0.084519326
      7909.49      0.67999874     0.084639588
      7917.40      0.69393872     0.084785959
      7925.31      0.67400505     0.084581148
      7933.24      0.63524611     0.084744409
      7941.17      0.60674598     0.084984543
      7949.11      0.56570688     0.085758256
      7957.06      0.51336147     0.086196166
      7965.02      0.48562448     0.086430704
      7972.98      0.45146775     0.087149959
      7980.96      0.36330207     0.087926054
      7988.94      0.39438891     0.088554592
      7996.93      0.43138203     0.089049984
      8004.93      0.46511911     0.089189521
      8012.93      0.43543573     0.089656652
      8020.95      0.43984519     0.090084371
      8028.97      0.49296172     0.090914845
      8036.99      0.51444890     0.090720651
      8045.03      0.47571578     0.090760287
      8053.08      0.44818099     0.090686618
      8061.13      0.40144233     0.090541642
      8069.20      0.38520634     0.089956602
      8077.26      0.37847596     0.090104156
      8085.34      0.39387655     0.089891002
      8093.43      0.43283524     0.089711441
      8101.52      0.41916890     0.089152071
      8109.62      0.45044899     0.089033716
      8117.73      0.42861402     0.088917383
      8125.85      0.41626702     0.088709810
      8133.98      0.37068983     0.088475363
      8142.11      0.33725028     0.088216416
      8150.25      0.32131742     0.089246818
      8158.41      0.31005623     0.090976621
      8166.56      0.31707514     0.093120275
      8174.73      0.32338757     0.096508871
      8182.91      0.39790078      0.10044386
      8191.09      0.43826229      0.10552335
      8199.28      0.54096868      0.11216277
      8207.48      0.58456530      0.12017376
      8215.69      0.59275036      0.13358644
      8223.91      0.59139630      0.15341465
      8232.13      0.61635112      0.18264476
      8240.36      0.62000835      0.23130908
      8248.60      0.76730759      0.29433429
