# starting wavelength =        4869.8000
# ending wavelength =        8350.4200
# O2 telluric scale =        0
# O2 telluric shift =        0
# H2O telluric scale =        0
# H2O telluric shift =        0
      4870.92       1.2158603     0.048696901
      4875.79       1.2504206     0.041367901
      4880.66       1.2765299     0.036571209
      4885.55       1.2975218     0.031797887
      4890.43       1.3078326     0.028025012
      4895.32       1.3117150     0.025067782
      4900.22       1.3154577     0.022387429
      4905.12       1.3254906     0.020713920
      4910.02       1.3365637     0.019432833
      4914.94       1.3353066     0.018460263
      4919.85       1.3433826     0.017719388
      4924.77       1.3342565     0.017243412
      4929.70       1.3344001     0.016758955
      4934.62       1.3367896     0.016381236
      4939.56       1.3370311     0.016082597
      4944.50       1.3368482     0.015774118
      4949.44       1.3351707     0.015588019
      4954.39       1.3323874     0.015438529
      4959.35       1.3210693     0.015537844
      4964.31       1.3078066     0.015686451
      4969.27       1.3024444     0.015901308
      4974.24       1.3159842     0.016117433
      4979.22       1.3189080     0.016335864
      4984.20       1.3166860     0.016487398
      4989.18       1.3098106     0.016580252
      4994.17       1.3196953     0.016802899
      4999.16       1.3129660     0.017024395
      5004.16       1.3193024     0.017172706
      5009.17       1.3220926     0.017398282
      5014.18       1.3264224     0.017626352
      5019.19       1.3442895     0.017858342
      5024.21       1.3337665     0.018003766
      5029.23       1.3420382     0.018238536
      5034.26       1.3523470     0.018474469
      5039.30       1.3413497     0.018713666
      5044.34       1.3395064     0.018862551
      5049.39       1.3457455     0.019102266
      5054.43       1.3452327     0.019197269
      5059.49       1.3540915     0.019439918
      5064.55       1.3690182     0.019584377
      5069.61       1.3688968     0.019835379
      5074.68       1.3536872     0.020085654
      5079.76       1.3446976     0.020346913
      5084.84       1.3390504     0.020487073
      5089.92       1.3428503     0.020746064
      5095.01       1.3345862     0.021013390
      5100.11       1.3333794     0.021153784
      5105.21       1.3307828     0.021421634
      5110.31       1.3274878     0.021695929
      5115.42       1.3476234     0.021969609
      5120.54       1.3484827     0.022113806
      5125.66       1.3382658     0.022395716
      5130.79       1.3513045     0.022679162
      5135.92       1.3653193     0.022823491
      5141.05       1.3613055     0.023113884
      5146.20       1.3652785     0.023408124
      5151.34       1.3631649     0.023715243
      5156.49       1.3864089     0.023853113
      5161.65       1.4031378     0.024158083
      5166.81       1.4254781     0.024476855
      5171.98       1.4274925     0.024614351
      5177.15       1.4495045     0.024931111
      5182.33       1.4406426     0.025263349
      5187.51       1.4465131     0.025399951
      5192.70       1.4341838     0.025729124
      5197.89       1.4170728     0.026076657
      5203.09       1.3932494     0.026414797
      5208.29       1.3779221     0.026827633
      5213.50       1.3695572     0.027191001
      5218.72       1.3597835     0.027561861
      5223.93       1.3703573     0.027411646
      5229.16       1.3630377     0.027554009
      5234.39       1.3473817     0.027700779
      5239.62       1.3391527     0.027771506
      5244.86       1.3211444     0.027909969
      5250.11       1.2939341     0.028051977
      5255.36       1.2899555     0.027897585
      5260.61       1.3100581     0.028257981
      5265.87       1.3201606     0.028394243
      5271.14       1.3229840     0.028240364
      5276.41       1.3199325     0.028367269
      5281.69       1.3052735     0.028730815
      5286.97       1.3032429     0.028576810
      5292.26       1.3087394     0.028699441
      5297.55       1.2872304     0.028824509
      5302.85       1.2613014     0.029189806
      5308.15       1.2648160     0.029026302
      5313.46       1.2724252     0.029145807
      5318.77       1.2938645     0.029268260
      5324.09       1.3005932     0.029348615
      5329.42       1.2940312     0.029462938
      5334.75       1.2766857     0.029578742
      5340.08       1.2668239     0.029697273
      5345.42       1.2530248     0.029521331
      5350.77       1.2433122     0.029886051
      5356.12       1.2617501     0.029998769
      5361.48       1.2692663     0.030112669
      5366.83       1.2664624     0.029929869
      5372.20       1.2679989     0.030296922
      5377.58       1.2482219     0.030405834
      5382.95       1.2413855     0.030515741
      5388.34       1.2355470     0.030324706
      5393.72       1.2300039     0.030437155
      5399.12       1.2186150     0.030800793
      5404.52       1.2044320     0.030906151
      5409.92       1.1973962     0.030706810
      5415.33       1.1859772     0.030814518
      5420.75       1.1747340     0.030922769
      5426.17       1.1520309     0.031033068
      5431.60       1.1575332     0.031077625
      5437.03       1.1483220     0.031179898
      5442.47       1.1542159     0.031282862
      5447.91       1.1468869     0.031386780
      5453.36       1.1574741     0.031187262
      5458.81       1.1680464     0.031282573
      5464.27       1.1809268     0.031632694
      5469.73       1.1960919     0.031730406
      5475.20       1.2066941     0.031829759
      5480.68       1.2072961     0.031626395
      5486.16       1.2363892     0.031716885
      5491.65       1.2507214     0.031808163
      5497.14       1.2238839     0.031899912
      5502.64       1.1973800     0.032252527
      5508.14       1.1708486     0.032049897
      5513.65       1.1349821     0.032134984
      5519.16       1.1378922     0.032220652
      5524.68       1.1104798     0.032307008
      5530.20       1.0885038     0.032393336
      5535.73       1.0704990     0.032480311
      5541.27       1.0659409     0.032260977
      5546.81       1.0568150     0.032618551
      5552.36       1.0530940     0.032698802
      5557.91       1.0624809     0.032779480
      5563.47       1.0617066     0.032860728
      5569.04       1.0775450     0.032941661
      5574.60       1.0871888     0.032713870
      5580.18       1.0964396     0.032794169
      5585.76       1.1025397     0.032875111
      5591.35       1.1148096     0.032955724
      5596.94       1.1314267     0.033035731
      5602.53       1.0836970     0.033381544
      5608.14       1.0638466     0.033456143
      5613.75       1.0421391     0.033217985
      5619.36       1.0228338     0.033291959
      5624.98       1.0273255     0.033365769
      5630.60      0.99483663     0.033439782
      5636.23      0.97953578     0.033513065
      5641.87      0.96165966     0.033586293
      5647.51      0.95529145     0.033658865
      5653.16      0.92762041     0.033731223
      5658.82      0.93057065     0.033494150
      5664.47      0.92636936     0.033560570
      5670.14      0.90839077     0.033627435
      5675.81      0.90009366     0.033692988
      5681.48      0.91197164     0.033758922
      5687.17      0.93223157     0.033824056
      5692.85      0.96662582     0.033888449
      5698.55      0.99120557     0.033953311
      5704.25       1.0470177     0.034016694
      5709.95       1.0665078     0.034352687
      5715.66       1.0825752     0.034120167
      5721.38       1.0982741     0.034179579
      5727.10       1.1178395     0.034238816
      5732.83       1.1332957     0.034296767
      5738.56       1.1373836     0.034355568
      5744.30       1.1364696     0.034413052
      5750.04       1.1220975     0.034470218
      5755.79       1.0991208     0.034527188
      5761.55       1.0732400     0.034582834
      5767.31       1.0813377     0.034639123
      5773.08       1.0565526     0.034694188
      5778.85       1.0164349     0.034749351
      5784.63       1.0062123     0.034805672
      5790.41       1.0191126     0.034862873
      5796.21       1.0514631     0.034921090
      5802.00       1.0478296     0.034975884
      5807.81       1.0409802     0.035030790
      5813.61       1.0523768     0.035369526
      5819.43       1.0517685     0.036142227
      5825.25       1.0545509     0.037678130
      5831.07       1.0588719     0.039360200
      5836.90       1.0563663     0.037388883
      5842.74       1.0721384     0.036231625
      5848.58       1.0895163     0.037269171
      5854.43       1.0828745     0.038931742
      5860.29       1.0718918     0.040929506
      5866.15       1.0614570     0.043053232
      5872.01       1.0454194     0.045029791
      5877.89       1.0871223     0.046520934
      5883.76       1.0697855     0.046804689
      5889.65       1.0769696     0.045705199
      5895.54       1.1032048     0.044011802
      5901.43       1.1142492     0.042049337
      5907.34       1.1282965     0.040109799
      5913.24       1.1281757     0.038429262
      5919.16       1.1119158     0.036958913
      5925.08       1.1041620     0.037097964
      5931.00       1.0998913     0.041420857
      5936.93       1.0774525     0.038957365
      5942.87       1.0697380     0.037525342
      5948.81       1.0459476     0.036269085
      5954.76       1.0348586     0.035641182
      5960.72       1.0199508     0.035665419
      5966.68      0.97910352     0.035686774
      5972.64      0.95656746     0.035704734
      5978.62      0.91645679     0.035727090
      5984.60      0.90412960     0.035473185
      5990.58      0.89230672     0.035499125
      5996.57      0.87076919     0.035526062
      6002.57      0.87661466     0.035554078
      6008.57      0.86353822     0.035584120
      6014.58      0.86980798     0.035614966
      6020.60      0.85778941     0.035645443
      6026.62      0.85738204     0.035405925
      6032.65      0.85156375     0.035437070
      6038.68      0.83942054     0.035469101
      6044.72      0.82949072     0.035794975
      6050.76      0.82871303     0.035821709
      6056.81      0.83874279     0.035848874
      6062.87      0.82908532     0.035876543
      6068.93      0.82878929     0.035632109
      6075.00      0.81962471     0.035660007
      6081.08      0.80864734     0.035688570
      6087.16      0.80634284     0.035717896
      6093.25      0.79709791     0.035747466
      6099.34      0.80917037     0.035778108
      6105.44      0.81226947     0.035814107
      6111.54      0.84231866     0.035838594
      6117.66      0.87704855     0.035864139
      6123.78      0.88526818     0.035890157
      6129.90      0.92481380     0.035917273
      6136.03      0.94054721     0.035664840
      6142.17      0.96948034     0.035685465
      6148.31       1.0302551     0.035707754
      6154.46       1.0929587     0.036026878
      6160.61       1.1385154     0.036051127
      6166.77       1.2119745     0.035803985
      6172.94       1.2891955     0.035833214
      6179.11       1.3379110     0.035870038
      6185.29       1.3813911     0.035894883
      6191.48       1.4249287     0.036213015
      6197.67       1.4683581     0.035980984
      6203.87       1.4735492     0.036035156
      6210.07       1.5078118     0.036107702
      6216.28       1.5841381     0.036197375
      6222.50       1.6465178     0.036040185
      6228.72       1.6875551     0.036451877
      6234.95       1.7347091     0.036540222
      6241.19       1.8003473     0.036615979
      6247.42       1.8917144     0.036398365
      6253.67       1.9970133     0.036429245
      6259.93       2.1271393     0.036721267
      6266.19       2.2936218     0.036689823
      6272.46       2.4203390     0.036366706
      6278.73       2.5306396     0.036317175
      6285.01       2.6824085     0.036273716
      6291.29       2.8270112     0.036521934
      6297.58       2.8557888     0.036234484
      6303.88       2.8806272     0.036214753
      6310.19       2.9037245     0.036195087
      6316.50       2.9051112     0.035907073
      6322.81       2.8352774     0.036179185
      6329.14       2.7897791     0.036175580
      6335.47       2.7382058     0.036177336
      6341.80       2.6293340     0.035900074
      6348.14       2.4610348     0.036185201
      6354.49       2.3126302     0.036192492
      6360.85       2.1689334     0.035930645
      6367.21       2.0480590     0.035938552
      6373.57       1.9258982     0.036238384
      6379.95       1.7810328     0.035985911
      6386.33       1.6478551     0.035995794
      6392.72       1.5151983     0.036013646
      6399.11       1.4260287     0.036069204
      6405.51       1.3506517     0.036098856
      6411.92       1.2457421     0.036139764
      6418.32       1.1324760     0.035925505
      6424.74       1.0961960     0.036243094
      6431.17       1.0755402     0.036271682
      6437.60       1.0388831     0.036042711
      6444.04      0.97781312     0.036351776
      6450.48      0.93874959     0.036363499
      6456.94      0.96111814     0.036108957
      6463.39      0.96851435     0.036115661
      6469.85      0.91275353     0.036118596
      6476.33      0.86986209     0.036117080
      6482.80      0.88780463     0.036122995
      6489.28      0.89425542     0.036134897
      6495.77      0.91942450     0.036143669
      6502.27      0.84987167     0.036155475
      6508.77      0.76389353     0.036160027
      6515.28      0.76784606     0.036158430
      6521.80      0.74779602     0.035887867
      6528.32      0.72215321     0.036159557
      6534.85      0.70937991     0.036164200
      6541.38      0.69235828     0.035893540
      6547.92      0.69909361     0.036158580
      6554.47      0.68063528     0.035894470
      6561.03      0.67907563     0.035891169
      6567.59      0.68716084     0.036174358
      6574.16      0.71237612     0.035918856
      6580.73      0.75697820     0.035924760
      6587.31      0.74330465     0.035954000
      6593.90      0.73099013     0.035958296
      6600.50      0.73764156     0.035716972
      6607.10      0.79646804     0.035992768
      6613.70      0.79304575     0.036000565
      6620.32      0.82435105     0.036030392
      6626.94      0.75576084     0.036035555
      6633.57      0.73964609     0.035796170
      6640.20      0.79537862     0.036072391
      6646.84      0.76164302     0.035829678
      6653.49      0.80451380     0.036109358
      6660.14      0.80664482     0.035864508
      6666.80      0.80366786     0.035879698
      6673.47      0.80183071     0.035899812
      6680.14      0.80875677     0.035913774
      6686.82      0.82129656     0.035937088
      6693.51      0.81882378     0.035948444
      6700.20      0.79913320     0.035706615
      6706.90      0.76676249     0.035985016
      6713.61      0.72665245     0.035744246
      6720.32      0.70679686     0.036021727
      6727.05      0.68224361     0.035782693
      6733.77      0.65704404     0.036058958
      6740.51      0.64053900     0.035820968
      6747.25      0.64846287     0.035834531
      6754.00      0.65715580     0.035931580
      6760.75      0.66963698     0.036049689
      6767.51      0.68449041     0.036146961
      6774.28      0.71040250     0.036111549
      6781.05      0.76387697     0.036214599
      6787.84      0.77663074     0.036399960
      6794.62      0.79253177     0.036820496
      6801.42      0.79308617     0.037214660
      6808.22      0.80335678     0.037871152
      6815.03      0.81841204     0.038386841
      6821.85      0.85088393     0.039081955
      6828.67      0.86297518     0.039264948
      6835.50      0.87081671     0.039953402
      6842.33      0.84770451     0.039794386
      6849.17      0.79797811     0.040065648
      6856.02      0.74203084     0.039536074
      6862.88      0.70303111     0.039425461
      6869.74      0.67820979     0.038729053
      6876.61      0.69368631     0.038246188
      6883.49      0.72916070     0.037964424
      6890.37      0.74307347     0.037760439
      6897.27      0.75640102     0.037580278
      6904.16      0.74419790     0.037286183
      6911.07      0.72735897     0.037147645
      6917.98      0.69890948     0.037030648
      6924.89      0.69985534     0.036692396
      6931.82      0.71399969     0.036867958
      6938.75      0.76421442     0.036575637
      6945.69      0.80676042     0.036815070
      6952.64      0.83305777     0.036563649
      6959.59      0.83418282     0.036593160
      6966.55      0.82212896     0.036602657
      6973.52      0.77281924     0.036618254
      6980.49      0.73749589     0.036625533
      6987.47      0.75258474     0.036597945
      6994.46      0.77413896     0.036582678
      7001.46      0.78490259     0.036320904
      7008.46      0.82454395     0.036566422
      7015.46      0.84361246     0.036318941
      7022.48      0.82333089     0.036316903
      7029.51      0.82321213     0.036568637
      7036.53      0.81090924     0.036327678
      7043.57      0.82224770     0.036349243
      7050.62      0.82865921     0.036378697
      7057.66      0.86111767     0.036442996
      7064.72      0.85281108     0.036523938
      7071.79      0.85257159     0.036584073
      7078.86      0.86428086     0.036679480
      7085.94      0.89103940     0.036546605
      7093.03      0.90623303     0.036965599
      7100.12      0.90817417     0.037245606
      7107.22      0.91609271     0.037364165
      7114.33      0.95799853     0.038023584
      7121.44       1.0185853     0.038547736
      7128.56       1.0826484     0.038683967
      7135.69       1.1053295     0.039034687
      7142.83       1.1317564     0.039532477
      7149.97       1.1355650     0.039374760
      7157.12       1.1407490     0.039459509
      7164.28       1.1775748     0.039453228
      7171.44       1.2138603     0.039403768
      7178.62       1.2114265     0.039356721
      7185.80       1.1929989     0.039094024
      7192.98       1.1802148     0.039395456
      7200.17       1.1587754     0.039499736
      7207.38       1.2236205     0.039606007
      7214.58       1.3227396     0.039376180
      7221.80       1.3612548     0.039663376
      7229.02       1.3607064     0.039599960
      7236.25       1.4022124     0.039226730
      7243.49       1.4731411     0.039095151
      7250.73       1.5415932     0.039257457
      7257.98       1.6054323     0.038897998
      7265.24       1.6710387     0.038748528
      7272.51       1.6908738     0.038575147
      7279.78       1.7214432     0.038169431
      7287.06       1.7500497     0.038296919
      7294.35       1.7917732     0.038178021
      7301.64       1.8057179     0.038086185
      7308.94       1.7666021     0.037772074
      7316.25       1.7344380     0.037740560
      7323.57       1.6874652     0.037974648
      7330.89       1.6513161     0.037973881
      7338.22       1.6060395     0.037720508
      7345.56       1.5757826     0.037716304
      7352.91       1.5055553     0.037719614
      7360.26       1.3948549     0.037737495
      7367.62       1.3103532     0.037738547
      7374.99       1.2584460     0.037772836
      7382.37       1.1975165     0.037817059
      7389.75       1.1288271     0.037868484
      7397.14       1.0805335     0.037663173
      7404.53       1.0237827     0.037718445
      7411.94      0.95903357     0.038015820
      7419.35      0.90794373     0.038084075
      7426.77      0.87994762     0.038155557
      7434.20      0.85950287     0.037971300
      7441.63      0.82696252     0.038046004
      7449.07      0.77677712     0.038123607
      7456.52      0.74915263     0.038205668
      7463.98      0.70902836     0.038325390
      7471.45      0.69743176     0.038340947
      7478.92      0.67734820     0.039012143
      7486.40      0.67182147     0.039540974
      7493.88      0.65363565     0.039666480
      7501.38      0.64465831     0.039636785
      7508.88      0.65822384     0.040227057
      7516.39      0.66992713     0.041087544
      7523.91      0.68459844     0.042883339
      7531.43      0.69886584     0.045271269
      7538.96      0.69064305     0.048162189
      7546.50      0.66252642     0.051407666
      7554.05      0.64375312     0.054750900
      7561.60      0.68624518     0.057051966
      7569.16      0.73849881     0.059429466
      7576.73      0.74520162     0.060490499
      7584.31      0.68775502     0.059962362
      7591.89      0.61618312     0.058039964
      7599.49      0.63291559     0.055247576
      7607.09      0.69169133     0.052163636
      7614.70      0.72431052     0.049281516
      7622.31      0.72267339     0.047049751
      7629.93      0.71613948     0.045274849
      7637.56      0.72487521     0.043774572
      7645.20      0.72452732     0.042632642
      7652.85      0.75271491     0.042015055
      7660.50      0.78964974     0.041655226
      7668.16      0.79439719     0.041341496
      7675.83      0.77533830     0.041102902
      7683.50      0.71984649     0.040956549
      7691.19      0.69425494     0.040895288
      7698.88      0.71784540     0.040899561
      7706.58      0.70208684     0.040950809
      7714.29      0.67348493     0.040763105
      7722.00      0.62221304     0.040855929
      7729.73      0.54854485     0.040960690
      7737.45      0.53339653     0.041076183
      7745.19      0.61058317     0.041199222
      7752.94      0.65889100     0.041324662
      7760.69      0.67808518     0.041451926
      7768.45      0.70389021     0.041583463
      7776.22      0.71110618     0.041716777
      7784.00      0.75421605     0.041852108
      7791.78      0.78548231     0.041995027
      7799.57      0.82735313     0.041913586
      7807.37      0.85324154     0.042073134
      7815.18      0.82400414     0.042240120
      7822.99      0.74841064     0.042417719
      7830.82      0.69749250     0.042602119
      7838.65      0.70479037     0.042780563
      7846.49      0.73138513     0.042942235
      7854.34      0.70483153     0.043094154
      7862.19      0.66449931     0.043244100
      7870.05      0.61612548     0.043392575
      7877.93      0.58926940     0.043540589
      7885.80      0.61258335     0.043687498
      7893.69      0.67328033     0.043584626
      7901.58      0.67401850     0.043735229
      7909.49      0.65255803     0.043894817
      7917.40      0.64577591     0.044063537
      7925.31      0.59852035     0.044233313
      7933.24      0.61383203     0.044403800
      7941.17      0.60411793     0.044576461
      7949.11      0.57432659     0.044746430
      7957.06      0.53122198     0.044663835
      7965.02      0.48254956     0.045117247
      7972.98      0.44551132     0.045275745
      7980.96      0.48389983     0.045441589
      7988.94      0.53097576     0.045604818
      7996.93      0.56899195     0.045763629
      8004.93      0.57231884     0.045703457
      8012.93      0.57940513     0.045370739
      8020.95      0.61006577     0.045081648
      8028.97      0.62434050     0.044844019
      8036.99      0.67383340     0.044641269
      8045.03      0.69086484     0.044314685
      8053.08      0.72040769     0.044264065
      8061.13      0.72835410     0.044543676
      8069.20      0.72797156     0.044607266
      8077.26      0.72658614     0.044755922
      8085.34      0.71901830     0.044878745
      8093.43      0.72096724     0.044686264
      8101.52      0.71078400     0.044645412
      8109.62      0.73771240     0.044868522
      8117.73      0.73715906     0.044813882
      8125.85      0.71143482     0.044719114
      8133.98      0.71291894     0.044373559
      8142.11      0.68919063     0.044153440
      8150.25      0.67543884     0.043914358
      8158.41      0.63880477     0.043661014
      8166.56      0.61369581     0.043415303
      8174.73      0.61179257     0.043137737
      8182.91      0.62349113     0.042873785
      8191.09      0.61211659     0.042625647
      8199.28      0.58221836     0.042248364
      8207.48      0.54576378     0.042030907
      8215.69      0.54626220     0.041991365
      8223.91      0.52765118     0.042239222
      8232.13      0.51407639     0.042856827
      8240.36      0.50245411     0.043679582
      8248.60      0.49323809     0.044573062
      8256.85      0.48438918     0.045869427
      8265.11      0.46514717     0.047485516
      8273.37      0.45863392     0.049229194
      8281.65      0.46246050     0.052093384
      8289.93      0.45389423     0.055109337
      8298.22      0.44042734     0.060158401
      8306.52      0.43530974     0.066219310
      8314.83      0.44425135     0.073312076
      8323.14      0.45467544     0.085014096
      8331.46      0.46397962     0.097018846
      8339.80      0.48500666      0.11529483
      8348.13      0.50874066      0.13281776
