# starting wavelength =        3399.1900
# ending wavelength =        8579.1500
# O2 telluric scale =        0
# O2 telluric shift =        0
# H2O telluric scale =        0
# H2O telluric shift =        0
      3402.28     0.045162489    0.0030838087
      3405.68     0.049152000    0.0026256888
      3409.09     0.053292147    0.0023681790
      3412.49     0.057209320    0.0020693334
      3415.91     0.061203548    0.0018383284
      3419.32     0.064675691    0.0016589518
      3422.74     0.067769221    0.0014812655
      3426.17     0.070319448    0.0013806423
      3429.59     0.072879447    0.0013018611
      3433.02     0.074764169    0.0012561137
      3436.45     0.076230576    0.0012026582
      3439.89     0.076982539    0.0011593054
      3443.33     0.077679284    0.0011217883
      3446.78     0.077727433    0.0010936808
      3450.22     0.078391603    0.0010693191
      3453.67     0.079088327    0.0010561248
      3457.13     0.079139771    0.0010366159
      3460.58     0.078953801    0.0010191571
      3464.04     0.078687638    0.0010034499
      3467.51     0.077186610    0.0010113501
      3470.98     0.077874075    0.0010117934
      3474.45     0.077687752    0.0010124553
      3477.92     0.076037570    0.0010203110
      3481.40     0.074470142    0.0010215162
      3484.88     0.074066199    0.0010231284
      3488.37     0.072845511    0.0010320478
      3491.86     0.072069209    0.0010341622
      3495.35     0.071102375    0.0010281843
      3498.84     0.068908455    0.0010312445
      3502.34     0.067683718    0.0010415332
      3505.84     0.068533514    0.0010453253
      3509.35     0.068559069    0.0010496763
      3512.86     0.068835899    0.0010545812
      3516.37     0.069341640    0.0010665692
      3519.89     0.069962846    0.0010724859
      3523.41     0.069244367    0.0010788501
      3526.93     0.070055918    0.0010917495
      3530.46     0.070774663    0.0010882370
      3533.99     0.071835611    0.0010952401
      3537.53     0.072726669    0.0011024784
      3541.06     0.073899891    0.0011165994
      3544.60     0.073911556    0.0011239165
      3548.15     0.074644829    0.0011313046
      3551.70     0.075337139    0.0011387213
      3555.25     0.076149881    0.0011533012
      3558.80     0.076764519    0.0011609200
      3562.36     0.076878272    0.0011687912
      3565.92     0.076944038    0.0011767990
      3569.49     0.077479087    0.0011919988
      3573.06     0.077796998    0.0011998857
      3576.64     0.077903493    0.0012077902
      3580.21     0.077620898    0.0012117871
      3583.79     0.077580215    0.0012195161
      3587.38     0.076907062    0.0012272651
      3590.96     0.076897358    0.0012350478
      3594.55     0.076991078    0.0012428721
      3598.15     0.076308159    0.0012588866
      3601.75     0.075733785    0.0012668215
      3605.35     0.076073499    0.0012748042
      3608.96     0.075084429    0.0012828289
      3612.56     0.074200166    0.0012996286
      3616.18     0.073133487    0.0013074942
      3619.79     0.071793528    0.0013154123
      3623.41     0.070462845    0.0013233445
      3627.04     0.068828707    0.0013404323
      3630.66     0.067919829    0.0013484910
      3634.29     0.066749719    0.0013566049
      3637.93     0.065010293    0.0013647255
      3641.57     0.064422793    0.0013826051
      3645.21     0.064266007    0.0013905800
      3648.86     0.063670215    0.0013985800
      3652.50     0.063151767    0.0014065858
      3656.16     0.062667466    0.0014146226
      3659.81     0.062397220    0.0014329902
      3663.47     0.062288188    0.0014411748
      3667.14     0.062421756    0.0014493596
      3670.80     0.061942300    0.0014575941
      3674.48     0.061314652    0.0014658278
      3678.15     0.061372384    0.0014847909
      3681.83     0.061417518    0.0014928717
      3685.51     0.061831185    0.0015009847
      3689.20     0.060675216    0.0015091206
      3692.88     0.060577627    0.0015287953
      3696.58     0.058906304    0.0015370530
      3700.27     0.057393005    0.0015453247
      3703.98     0.055787381    0.0015535887
      3707.68     0.053173004    0.0015618775
      3711.39     0.051265619    0.0015701772
      3715.10     0.049323047    0.0015908120
      3718.81     0.047904757    0.0015989762
      3722.53     0.046244165    0.0016071871
      3726.26     0.044303749    0.0016153857
      3729.98     0.043556987    0.0016235692
      3733.71     0.041918844    0.0016448398
      3737.45     0.040935707    0.0016531133
      3741.18     0.039763428    0.0016614409
      3744.93     0.039558960    0.0016697578
      3748.67     0.039320221    0.0016781206
      3752.42     0.039136016    0.0017012527
      3756.17     0.038932916    0.0017094592
      3759.93     0.038462598    0.0017176740
      3763.69     0.039675591    0.0017455649
      3767.45     0.040812396    0.0017541157
      3771.22     0.042081667    0.0017626403
      3774.99     0.043053066    0.0017861554
      3778.77     0.043797683    0.0017945777
      3782.54     0.044139192    0.0018030062
      3786.33     0.045188510    0.0018114328
      3790.11     0.046020959    0.0018198619
      3793.90     0.047147294    0.0018283059
      3797.70     0.049362380    0.0018529631
      3801.50     0.051912318    0.0018614500
      3805.30     0.053991844    0.0018700000
      3809.10     0.057615080    0.0018785114
      3812.91     0.060548845    0.0018870054
      3816.73     0.063783586    0.0019186355
      3820.54     0.067895497    0.0019272360
      3824.36     0.072350060    0.0019538034
      3828.19     0.076042244    0.0019624963
      3832.02     0.080700255    0.0019711468
      3835.85     0.085553887    0.0019798058
      3839.68     0.091275743    0.0019884426
      3843.52     0.098268292    0.0019971234
      3847.37      0.10458436    0.0020264960
      3851.22      0.11162227    0.0020598339
      3855.07      0.11930990    0.0020686862
      3858.92      0.12722341    0.0020774765
      3862.78      0.13459485    0.0020862606
      3866.64      0.14202667    0.0020950534
      3870.51      0.14981149    0.0021038194
      3874.38      0.15760013    0.0021125775
      3878.26      0.16504345    0.0021442220
      3882.13      0.17138803    0.0021530940
      3886.02      0.17820860    0.0021893318
      3889.90      0.18427894    0.0021982301
      3893.79      0.18893354    0.0022070544
      3897.69      0.19309668    0.0022159415
      3901.59      0.19782390    0.0022248839
      3905.49      0.20323039    0.0022337541
      3909.39      0.20733247    0.0022687535
      3913.30      0.21121726    0.0023071865
      3917.22      0.21472676    0.0023162118
      3921.13      0.21831024    0.0023252049
      3925.06      0.22314876    0.0023342286
      3928.98      0.22734292    0.0023432606
      3932.91      0.23404089    0.0023522852
      3936.84      0.23938485    0.0023613139
      3940.78      0.24664326    0.0023447708
      3944.72      0.25412226    0.0023536682
      3948.67      0.26124051    0.0023625015
      3952.61      0.26960630    0.0023714158
      3956.57      0.27913685    0.0023803370
      3960.52      0.28848644    0.0023892899
      3964.48      0.29812725    0.0023981773
      3968.45      0.30705018    0.0024070857
      3972.42      0.31417220    0.0024160266
      3976.39      0.32216038    0.0024249041
      3980.37      0.32890651    0.0024338919
      3984.35      0.33457077    0.0024429049
      3988.33      0.33949270    0.0024519546
      3992.32      0.34329729    0.0024609701
      3996.31      0.34670205    0.0024700273
      4000.31      0.35044529    0.0024506827
      4004.31      0.35256458    0.0024591612
      4008.31      0.35416664    0.0024676667
      4012.32      0.35436435    0.0024762288
      4016.33      0.35445278    0.0024849003
      4020.35      0.35462386    0.0025275002
      4024.37      0.35285405    0.0025362246
      4028.40      0.35245485    0.0025449826
      4032.42      0.35170743    0.0025537925
      4036.46      0.34721240    0.0025627439
      4040.50      0.34330800    0.0025440668
      4044.54      0.33715311    0.0025522129
      4048.58      0.32921009    0.0025604975
      4052.63      0.32182283    0.0025687656
      4056.68      0.31397890    0.0025770021
      4060.74      0.30838723    0.0025853924
      4064.80      0.30347435    0.0025938903
      4068.86      0.29845417    0.0026024427
      4072.93      0.29409813    0.0026110263
      4077.01      0.29260106    0.0025926311
      4081.08      0.29156400    0.0026358267
      4085.17      0.29086360    0.0026437898
      4089.25      0.29004272    0.0026517589
      4093.34      0.28884509    0.0026598933
      4097.43      0.28874079    0.0026681954
      4101.53      0.28834090    0.0026765064
      4105.63      0.28794848    0.0026570276
      4109.74      0.28694757    0.0026654373
      4113.85      0.28472347    0.0026739525
      4117.96      0.28153583    0.0026826029
      4122.08      0.27701181    0.0027256065
      4126.20      0.27413486    0.0027335346
      4130.33      0.27208822    0.0027416794
      4134.46      0.27132333    0.0027212626
      4138.59      0.27012231    0.0027295087
      4142.73      0.26979009    0.0027378962
      4146.88      0.27029946    0.0027464336
      4151.02      0.26948456    0.0027551898
      4155.18      0.26893895    0.0027640624
      4159.33      0.26696251    0.0027769968
      4163.49      0.26273828    0.0027850248
      4167.65      0.25924048    0.0027932306
      4171.82      0.25375566    0.0028015542
      4175.99      0.24970938    0.0028101357
      4180.17      0.24650332    0.0028189284
      4184.35      0.24268682    0.0027963751
      4188.54      0.23906932    0.0028402831
      4192.72      0.23760015    0.0028483236
      4196.92      0.23524214    0.0028565775
      4201.11      0.23453450    0.0028650571
      4205.31      0.23464910    0.0028431223
      4209.52      0.23652252    0.0028506325
      4213.73      0.23851129    0.0028583952
      4217.94      0.24183776    0.0029031596
      4222.16      0.24556561    0.0029114470
      4226.38      0.24908858    0.0029199314
      4230.61      0.25234330    0.0028969368
      4234.84      0.25485645    0.0029044593
      4239.08      0.25753862    0.0029121886
      4243.32      0.25925023    0.0029577016
      4247.56      0.26041535    0.0029358443
      4251.81      0.25955851    0.0029428738
      4256.06      0.26032704    0.0029501719
      4260.32      0.26043078    0.0029577893
      4264.58      0.25946761    0.0029657175
      4268.84      0.25703560    0.0029814932
      4273.11      0.25464978    0.0029884428
      4277.38      0.25106475    0.0029956541
      4281.66      0.24774391    0.0030032349
      4285.94      0.24456487    0.0029810292
      4290.23      0.24226078    0.0029892674
      4294.52      0.23889653    0.0030335714
      4298.81      0.23436873    0.0030408160
      4303.11      0.23168355    0.0030178544
      4307.42      0.22999789    0.0030258679
      4311.72      0.22882862    0.0030342025
      4316.04      0.22722916    0.0030782774
      4320.35      0.22713529    0.0030547188
      4324.67      0.22715292    0.0030624546
      4329.00      0.22872088    0.0030707062
      4333.33      0.22999266    0.0031155716
      4337.66      0.23201744    0.0030913259
      4342.00      0.23545858    0.0030989939
      4346.34      0.23876083    0.0031070669
      4350.69      0.24247396    0.0031157233
      4355.04      0.24805443    0.0031279495
      4359.39      0.25397615    0.0031354910
      4363.75      0.25909736    0.0031434896
      4368.12      0.26296332    0.0031521000
      4372.48      0.26648749    0.0031642341
      4376.86      0.26864876    0.0031718330
      4381.23      0.27093582    0.0031799323
      4385.61      0.27366008    0.0031549051
      4390.00      0.27433539    0.0031618876
      4394.39      0.27481737    0.0032080491
      4398.79      0.27223272    0.0032162219
      4403.18      0.27112734    0.0031904350
      4407.59      0.26999310    0.0031975286
      4412.00      0.27002835    0.0032442602
      4416.41      0.26881533    0.0032191580
      4420.82      0.26814165    0.0032258145
      4425.25      0.26844031    0.0032724316
      4429.67      0.26974824    0.0032479209
      4434.10      0.27237881    0.0032541608
      4438.54      0.27602518    0.0032610948
      4442.97      0.28138425    0.0033085151
      4447.42      0.28903702    0.0032825373
      4451.86      0.29589399    0.0032890617
      4456.32      0.30590389    0.0032963972
      4460.77      0.31778703    0.0033108535
      4465.24      0.32920525    0.0033171395
      4469.70      0.34142569    0.0033242182
      4474.17      0.35517507    0.0033391482
      4478.65      0.36893647    0.0033451087
      4483.12      0.38049249    0.0033519832
      4487.61      0.39552435    0.0033271153
      4492.09      0.40912189    0.0033730004
      4496.59      0.42165423    0.0033796603
      4501.08      0.43260439    0.0033543687
      4505.58      0.44213892    0.0034007417
      4510.09      0.45059132    0.0034072319
      4514.60      0.45848663    0.0033816135
      4519.12      0.46774094    0.0034283574
      4523.63      0.47691898    0.0034015114
      4528.16      0.48502320    0.0034088577
      4532.69      0.49357430    0.0034171747
      4537.22      0.49968705    0.0034286547
      4541.76      0.50840399    0.0034360297
      4546.30      0.51684286    0.0034443851
      4550.85      0.52503706    0.0034557245
      4555.40      0.53455908    0.0034631914
      4559.95      0.54427286    0.0034717230
      4564.51      0.55161564    0.0034827356
      4569.08      0.56014144    0.0034903371
      4573.65      0.56998241    0.0034626711
      4578.22      0.57731077    0.0035096228
      4582.80      0.58203656    0.0035174977
      4587.38      0.58926533    0.0034890918
      4591.97      0.59494613    0.0035366061
      4596.56      0.60108598    0.0035093567
      4601.16      0.60702017    0.0035154816
      4605.76      0.61434365    0.0035636412
      4610.37      0.61872285    0.0035353799
      4614.98      0.62245785    0.0035829997
      4619.59      0.62589786    0.0035557843
      4624.21      0.62806754    0.0035615904
      4628.84      0.62983596    0.0036098848
      4633.47      0.63107310    0.0035814931
      4638.10      0.63044379    0.0035876914
      4642.74      0.62832806    0.0036017002
      4647.38      0.62560168    0.0036072510
      4652.03      0.62296290    0.0035803787
      4656.68      0.62225603    0.0036271263
      4661.34      0.62045498    0.0036332894
      4666.00      0.61765375    0.0036472588
      4670.67      0.61368372    0.0036526803
      4675.33      0.61123230    0.0036255225
      4680.01      0.60844635    0.0036724106
      4684.69      0.60410091    0.0036442982
      4689.38      0.59873541    0.0036922629
      4694.07      0.59223240    0.0036979398
      4698.76      0.58484541    0.0036704869
      4703.46      0.57922356    0.0037173356
      4708.16      0.56906675    0.0036892147
      4712.87      0.55960527    0.0037368235
      4717.58      0.54917897    0.0037079601
      4722.30      0.53917665    0.0037156609
      4727.03      0.52753349    0.0037268916
      4731.75      0.51732172    0.0037340838
      4736.48      0.50739356    0.0037458929
      4741.22      0.49852262    0.0037526756
      4745.96      0.48960562    0.0037237070
      4750.71      0.48153975    0.0037713641
      4755.46      0.47321572    0.0037794881
      4760.22      0.46319517    0.0037901119
      4764.97      0.45484803    0.0037978377
      4769.74      0.44707194    0.0038088329
      4774.51      0.43736360    0.0038162172
      4779.29      0.42733405    0.0038275486
      4784.07      0.41821626    0.0038347778
      4788.85      0.40995768    0.0038042569
      4793.64      0.40091954    0.0038532131
      4798.43      0.39011486    0.0038227298
      4803.23      0.38134775    0.0038717823
      4808.03      0.37204029    0.0038412720
      4812.84      0.36487576    0.0038903212
      4817.66      0.35996656    0.0038598515
      4822.48      0.35529282    0.0039089608
      4827.30      0.35277331    0.0038782699
      4832.12      0.34974812    0.0039274495
      4836.96      0.34905784    0.0038966400
      4841.79      0.34925811    0.0039028381
      4846.63      0.35055907    0.0039149593
      4851.48      0.35264632    0.0038857849
      4856.33      0.35857665    0.0039332438
      4861.19      0.36611640    0.0039039597
      4866.05      0.37425771    0.0039514758
      4870.92      0.38473532    0.0039220900
      4875.79      0.39685121    0.0039696241
      4880.66      0.41155111    0.0039401669
      4885.55      0.42830894    0.0039877441
      4890.43      0.44826829    0.0039582413
      4895.32      0.46968533    0.0040058449
      4900.22      0.49445634    0.0039764603
      4905.12      0.52202527    0.0039876194
      4910.02      0.54809406    0.0039945942
      4914.94      0.57562658    0.0040055041
      4919.85      0.60184556    0.0040128137
      4924.77      0.62764485    0.0040234734
      4929.70      0.65173622    0.0040311307
      4934.62      0.67655781    0.0040413692
      4939.56      0.69787109    0.0040494012
      4944.50      0.71668378    0.0040593301
      4949.44      0.73559214    0.0040709019
      4954.39      0.74981276    0.0040774662
      4959.35      0.75965886    0.0040886424
      4964.31      0.76430803    0.0040956801
      4969.27      0.76636431    0.0041064003
      4974.24      0.76221232    0.0040754953
      4979.22      0.75487802    0.0041243203
      4984.20      0.74073376    0.0040927056
      4989.18      0.72282651    0.0041422688
      4994.17      0.70094145    0.0041099360
      4999.16      0.67375341    0.0041224818
      5004.16      0.64849689    0.0041274613
      5009.17      0.61917970    0.0041394335
      5014.18      0.59201606    0.0041889254
      5019.19      0.56746145    0.0041563737
      5024.21      0.54584332    0.0041691265
      5029.23      0.53062847    0.0041736839
      5034.26      0.51845636    0.0041857959
      5039.30      0.51087745    0.0041913023
      5044.34      0.50870849    0.0042027247
      5049.39      0.51101168    0.0042154124
      5054.43      0.51539926    0.0042198671
      5059.49      0.52590507    0.0042319015
      5064.55      0.53829079    0.0042005891
      5069.61      0.54950313    0.0042487213
      5074.68      0.56173019    0.0042610975
      5079.76      0.57310035    0.0042286745
      5084.84      0.58417675    0.0042775105
      5089.92      0.59456142    0.0042462348
      5095.01      0.60395132    0.0042569891
      5100.11      0.61361650    0.0043063936
      5105.21      0.62230642    0.0042742078
      5110.31      0.62913005    0.0042852539
      5115.42      0.63485960    0.0042920974
      5120.54      0.64075204    0.0043023592
      5125.66      0.64679031    0.0043136197
      5130.79      0.65301017    0.0043201058
      5135.92      0.65707159    0.0043304131
      5141.05      0.65940786    0.0042981280
      5146.20      0.66435600    0.0043480516
      5151.34      0.66657525    0.0043585242
      5156.49      0.66987598    0.0043259712
      5161.65      0.67251796    0.0043759790
      5166.81      0.67273708    0.0043865129
      5171.98      0.67403601    0.0043537379
      5177.15      0.67757222    0.0044040364
      5182.33      0.68112300    0.0044145594
      5187.51      0.68703788    0.0043813873
      5192.70      0.69489986    0.0043934908
      5197.89      0.70307619    0.0044424425
      5203.09      0.71375286    0.0044089618
      5208.29      0.72392419    0.0044209074
      5213.50      0.73449010    0.0044703555
      5218.72      0.74734620    0.0044363619
      5223.93      0.76114235    0.0044480713
      5229.16      0.77476462    0.0044605936
      5234.39      0.78792402    0.0044638716
      5239.62      0.80045313    0.0044752774
      5244.86      0.81420742    0.0044873451
      5250.11      0.82580216    0.0044912804
      5255.36      0.83903174    0.0045023990
      5260.61      0.85151668    0.0045142248
      5265.87      0.86364620    0.0044807931
      5271.14      0.87727117    0.0045296424
      5276.41      0.89173818    0.0045409715
      5281.69      0.90569424    0.0045082348
      5286.97      0.91916239    0.0045185310
      5292.26      0.93184216    0.0045679602
      5297.55      0.94354469    0.0045360462
      5302.85      0.95529088    0.0045458445
      5308.15      0.96519549    0.0045562367
      5313.46      0.97292909    0.0046061323
      5318.77      0.98011301    0.0045736205
      5324.09      0.98471274    0.0045835272
      5329.42      0.98950855    0.0045939203
      5334.75      0.99000369    0.0045602928
      5340.08      0.98953885    0.0046112030
      5345.42      0.98984776    0.0046211735
      5350.77      0.98616216    0.0046315775
      5356.12      0.98346640    0.0045975437
      5361.48      0.97819109    0.0046086395
      5366.83      0.97454179    0.0046588190
      5372.20      0.97283493    0.0046691345
      5377.58      0.97254676    0.0046346212
      5382.95      0.97334335    0.0046455613
      5388.34      0.97656447    0.0046568370
      5393.72      0.98199421    0.0047066400
      5399.12      0.99006618    0.0046715931
      5404.52       1.0007732    0.0046823006
      5409.92       1.0135135    0.0046933285
      5415.33       1.0304271    0.0047046459
      5420.75       1.0465354    0.0047086096
      5426.17       1.0655698    0.0047190545
      5431.60       1.0865825    0.0047297916
      5437.03       1.1053283    0.0047408034
      5442.47       1.1248376    0.0047520811
      5447.91       1.1422576    0.0047172382
      5453.36       1.1554314    0.0047664045
      5458.81       1.1663132    0.0047770310
      5464.27       1.1731785    0.0047878963
      5469.73       1.1774173    0.0047990019
      5475.20       1.1793541    0.0047642733
      5480.68       1.1768366    0.0047743610
      5486.16       1.1730021    0.0047847186
      5491.65       1.1657713    0.0048347642
      5497.14       1.1551828    0.0048456086
      5502.64       1.1441889    0.0048115321
      5508.14       1.1344316    0.0048214466
      5513.65       1.1240848    0.0048315284
      5519.16       1.1170078    0.0048417632
      5524.68       1.1115217    0.0048521470
      5530.20       1.1104636    0.0048174581
      5535.73       1.1091697    0.0048688555
      5541.27       1.1102597    0.0048786380
      5546.81       1.1111573    0.0048885538
      5552.36       1.1134069    0.0048986074
      5557.91       1.1161636    0.0049087598
      5563.47       1.1155127    0.0048734616
      5569.04       1.1161573    0.0048838943
      5574.60       1.1130444    0.0048944290
      5580.18       1.1080266    0.0049050436
      5585.76       1.0961572    0.0049157329
      5591.35       1.0805074    0.0049658728
      5596.94       1.0551083    0.0049759827
      5602.53       1.0236689    0.0049398331
      5608.14      0.98591662    0.0049499740
      5613.75      0.94283634    0.0049601532
      5619.36      0.89507202    0.0049705428
      5624.98      0.84253611    0.0049809625
      5630.60      0.78831204    0.0049914035
      5636.23      0.73243763    0.0050018977
      5641.87      0.67759177    0.0050124824
      5647.51      0.62897600    0.0049766585
      5653.16      0.58356192    0.0049865859
      5658.82      0.54656024    0.0049965507
      5664.47      0.51683740    0.0050065462
      5670.14      0.49856860    0.0050166154
      5675.81      0.49055128    0.0050667496
      5681.48      0.49244502    0.0050769822
      5687.17      0.50436328    0.0050872188
      5692.85      0.52582656    0.0050974568
      5698.55      0.55306481    0.0050633025
      5704.25      0.58536343    0.0050731283
      5709.95      0.62157879    0.0050829606
      5715.66      0.66457187    0.0050928000
      5721.38      0.71112937    0.0051026358
      5727.10      0.76293175    0.0051125212
      5732.83      0.80932295    0.0051224461
      5738.56      0.85752739    0.0051323615
      5744.30      0.90476679    0.0051422646
      5750.04      0.95342659    0.0051521595
      5755.79       1.0022680    0.0051620689
      5761.55       1.0500219    0.0051720289
      5767.31       1.0967550    0.0051819874
      5773.08       1.1412565    0.0051919881
      5778.85       1.1846757    0.0052021669
      5784.63       1.2261182    0.0052128163
      5790.41       1.2645267    0.0051765282
      5796.21       1.2996906    0.0051868672
      5802.00       1.3312127    0.0051972456
      5807.81       1.3557191    0.0052081348
      5813.61       1.3750319    0.0052200815
      5819.43       1.3895971    0.0052336712
      5825.25       1.4013532    0.0052481920
      5831.07       1.4099811    0.0052627651
      5836.90       1.4152945    0.0052380284
      5842.74       1.4144973    0.0052537480
      5848.58       1.4146706    0.0052685017
      5854.43       1.4106027    0.0052813950
      5860.29       1.4071485    0.0052932073
      5866.15       1.4040428    0.0053043336
      5872.01       1.4008681    0.0053146688
      5877.89       1.3977023    0.0053240164
      5883.76       1.3944206    0.0053327267
      5889.65       1.3943465    0.0053415070
      5895.54       1.3946483    0.0053506998
      5901.43       1.3942182    0.0053599018
      5907.34       1.3919904    0.0053684642
      5913.24       1.3859987    0.0053763350
      5919.16       1.3801661    0.0053836818
      5925.08       1.3727914    0.0053908924
      5931.00       1.3622395    0.0053544060
      5936.93       1.3513369    0.0053607463
      5942.87       1.3405447    0.0053663114
      5948.81       1.3259829    0.0053724781
      5954.76       1.3097063    0.0053798964
      5960.72       1.2894138    0.0054342332
      5966.68       1.2693255    0.0054410730
      5972.64       1.2504277    0.0054486334
      5978.62       1.2325646    0.0054569607
      5984.60       1.2131831    0.0054245001
      5990.58       1.1958305    0.0054329589
      5996.57       1.1812758    0.0054416595
      6002.57       1.1718605    0.0054506843
      6008.57       1.1624930    0.0054599143
      6014.58       1.1571923    0.0054692213
      6020.60       1.1538036    0.0054786074
      6026.62       1.1520789    0.0054881201
      6032.65       1.1528713    0.0054570267
      6038.68       1.1519322    0.0054668166
      6044.72       1.1502827    0.0054766949
      6050.76       1.1478645    0.0055325164
      6056.81       1.1448151    0.0055417098
      6062.87       1.1389783    0.0055510355
      6068.93       1.1330399    0.0055192233
      6075.00       1.1269046    0.0055287549
      6081.08       1.1253206    0.0055384044
      6087.16       1.1222424    0.0055482288
      6093.25       1.1211620    0.0055582331
      6099.34       1.1197907    0.0055683950
      6105.44       1.1252525    0.0055816589
      6111.54       1.1348968    0.0055910806
      6117.66       1.1442146    0.0056006143
      6123.78       1.1528315    0.0056103064
      6129.90       1.1661256    0.0056202331
      6136.03       1.1777523    0.0055875933
      6142.17       1.1861782    0.0055966098
      6148.31       1.1884016    0.0056058537
      6154.46       1.1891526    0.0056628602
      6160.61       1.1851800    0.0056728431
      6166.77       1.1764923    0.0056422383
      6172.94       1.1647938    0.0056539213
      6179.11       1.1494700    0.0056639907
      6185.29       1.1314219    0.0056727354
      6191.48       1.1108249    0.0057324005
      6197.67       1.0901858    0.0057064883
      6203.87       1.0725419    0.0057235223
      6210.07       1.0562931    0.0057434356
      6216.28       1.0402319    0.0057653860
      6222.50       1.0317462    0.0057477972
      6228.72       1.0225104    0.0058202172
      6234.95       1.0086468    0.0058390107
      6241.19      0.99608470    0.0058549932
      6247.42      0.98789439    0.0058243885
      6253.67      0.98224320    0.0058326777
      6259.93      0.97677090    0.0058375164
      6266.19      0.97352162    0.0058825812
      6272.46      0.97217497    0.0058375329
      6278.73      0.96952313    0.0058368490
      6285.01      0.96858449    0.0058389448
      6291.29      0.97020603    0.0058465143
      6297.58      0.97308340    0.0058502526
      6303.88      0.97702793    0.0058532459
      6310.19      0.98291450    0.0058586528
      6316.50      0.99296069    0.0058206595
      6322.81       1.0050420    0.0058732052
      6329.14       1.0136959    0.0058800174
      6335.47       1.0247799    0.0058442566
      6341.80       1.0363870    0.0058508843
      6348.14       1.0432402    0.0059060299
      6354.49       1.0474377    0.0059148661
      6360.85       1.0545914    0.0058803854
      6367.21       1.0596365    0.0058891592
      6373.57       1.0628803    0.0059468884
      6379.95       1.0597022    0.0059136564
      6386.33       1.0526424    0.0059232042
      6392.72       1.0402139    0.0059343405
      6399.11       1.0179781    0.0059542868
      6405.51      0.99585505    0.0059677121
      6411.92      0.96991810    0.0059817890
      6418.32      0.94010883    0.0059537819
      6424.74      0.90635872    0.0060144705
      6431.17      0.87692013    0.0060265385
      6437.60      0.84935584    0.0059965442
      6444.04      0.82391865    0.0060548487
      6450.48      0.80723455    0.0060206891
      6456.94      0.80188915    0.0060287447
      6463.39      0.80397328    0.0060831047
      6469.85      0.81516392    0.0060468166
      6476.33      0.82935916    0.0060546401
      6482.80      0.85233036    0.0060639292
      6489.28      0.88498731    0.0060758911
      6495.77      0.91861973    0.0060848267
      6502.27      0.95340681    0.0060492170
      6508.77      0.99234360    0.0061034550
      6515.28       1.0287677    0.0061106463
      6521.80       1.0632585    0.0060733567
      6528.32       1.1003611    0.0061290984
      6534.85       1.1335893    0.0060931910
      6541.38       1.1700367    0.0060985181
      6547.92       1.2073874    0.0061531493
      6554.47       1.2436772    0.0061171038
      6561.03       1.2785360    0.0061249475
      6567.59       1.3166002    0.0061394022
      6574.16       1.3537616    0.0061470962
      6580.73       1.3911583    0.0062048694
      6587.31       1.4210288    0.0061705745
      6593.90       1.4418557    0.0061791136
      6600.50       1.4573852    0.0061941319
      6607.10       1.4730692    0.0062021148
      6613.70       1.4822562    0.0061692021
      6620.32       1.4785808    0.0062258974
      6626.94       1.4664044    0.0061922995
      6633.57       1.4589048    0.0062497944
      6640.20       1.4517805    0.0062582150
      6646.84       1.4436724    0.0062252783
      6653.49       1.4280785    0.0062818424
      6660.14       1.4172971    0.0062482217
      6666.80       1.4113545    0.0063055056
      6673.47       1.4128880    0.0062714155
      6680.14       1.4123517    0.0062816217
      6686.82       1.4117629    0.0062946419
      6693.51       1.4129378    0.0063046451
      6700.20       1.4151649    0.0063180759
      6706.90       1.4146579    0.0063277469
      6713.61       1.4159994    0.0062929763
      6720.32       1.4155410    0.0063509456
      6727.05       1.4118367    0.0063163617
      6733.77       1.4005302    0.0063742291
      6740.51       1.3817417    0.0063403275
      6747.25       1.3560194    0.0064041725
      6754.00       1.3328967    0.0063917487
      6760.75       1.3092282    0.0064679691
      6767.51       1.2765485    0.0064226371
      6774.28       1.2367796    0.0064342131
      6781.05       1.1876848    0.0064836613
      6787.84       1.1451515    0.0065385529
      6794.62       1.1008645    0.0066390681
      6801.42       1.0609542    0.0066945001
      6808.22       1.0207061    0.0068623728
      6815.03      0.98177474    0.0069237207
      6821.85      0.94721004    0.0070860610
      6828.67      0.92379473    0.0071101936
      6835.50      0.90898533    0.0072176516
      6842.33      0.90333505    0.0071737535
      6849.17      0.90705765    0.0072023241
      6856.02      0.91890922    0.0070991447
      6862.88      0.94608525    0.0070199759
      6869.74      0.98197815    0.0069580916
      6876.61       1.0276380    0.0068925038
      6883.49       1.0727568    0.0068674306
      6890.37       1.1160639    0.0068380666
      6897.27       1.1578530    0.0067530375
      6904.16       1.2002313    0.0067703817
      6911.07       1.2392327    0.0067124750
      6917.98       1.2780548    0.0067483868
      6924.89       1.3190200    0.0066954668
      6931.82       1.3659141    0.0066945375
      6938.75       1.4087808    0.0067433984
      6945.69       1.4470095    0.0067047686
      6952.64       1.4826315    0.0067620344
      6959.59       1.5160240    0.0067251462
      6966.55       1.5374820    0.0067368076
      6973.52       1.5492881    0.0067407509
      6980.49       1.5590929    0.0067465604
      6987.47       1.5580598    0.0067034866
      6994.46       1.5579759    0.0067525644
      7001.46       1.5441921    0.0067608069
      7008.46       1.5213839    0.0067200433
      7015.46       1.4966961    0.0067716570
      7022.48       1.4700296    0.0067318884
      7029.51       1.4462392    0.0067405208
      7036.53       1.4263469    0.0067954525
      7043.57       1.4085892    0.0067603658
      7050.62       1.3926466    0.0067788547
      7057.66       1.3860081    0.0067941772
      7064.72       1.3845053    0.0068153743
      7071.79       1.3850103    0.0068396512
      7078.86       1.3897653    0.0068608251
      7085.94       1.4042513    0.0069006200
      7093.03       1.4065283    0.0069040987
      7100.12       1.4033660    0.0070138338
      7107.22       1.3993519    0.0071081984
      7114.33       1.3955502    0.0071528772
      7121.44       1.3869183    0.0072849098
      7128.56       1.3793307    0.0073631760
      7135.69       1.3732471    0.0073586919
      7142.83       1.3694801    0.0073983482
      7149.97       1.3705582    0.0074720454
      7157.12       1.3758073    0.0074250146
      7164.28       1.3819225    0.0074223286
      7171.44       1.3993657    0.0074187274
      7178.62       1.4107755    0.0074161942
      7185.80       1.4284090    0.0074307093
      7192.98       1.4441082    0.0074552893
      7200.17       1.4557352    0.0074211713
      7207.38       1.4661021    0.0074910102
      7214.58       1.4825097    0.0075004989
      7221.80       1.4922277    0.0074444755
      7229.02       1.4949352    0.0074268156
      7236.25       1.4938623    0.0074559673
      7243.49       1.4909034    0.0073914248
      7250.73       1.4900007    0.0073735879
      7257.98       1.4878260    0.0073500220
      7265.24       1.4866860    0.0073283417
      7272.51       1.4837677    0.0072978504
      7279.78       1.4768163    0.0072709739
      7287.06       1.4686237    0.0072508209
      7294.35       1.4617902    0.0071895255
      7301.64       1.4586153    0.0072258723
      7308.94       1.4621450    0.0072194086
      7316.25       1.4589915    0.0072181752
      7323.57       1.4519468    0.0071715659
      7330.89       1.4384508    0.0071738205
      7338.22       1.4304544    0.0071750202
      7345.56       1.4269468    0.0072218732
      7352.91       1.4288303    0.0071758923
      7360.26       1.4226066    0.0071807554
      7367.62       1.4112290    0.0071883322
      7374.99       1.4042579    0.0071976688
      7382.37       1.4022875    0.0071578620
      7389.75       1.4076729    0.0072120716
      7397.14       1.4137298    0.0072229373
      7404.53       1.4160355    0.0072355437
      7411.94       1.4154125    0.0071994408
      7419.35       1.4172211    0.0072117998
      7426.77       1.4226581    0.0072248229
      7434.20       1.4270955    0.0072386157
      7441.63       1.4273049    0.0072528689
      7449.07       1.4199779    0.0072634223
      7456.52       1.4056652    0.0072800749
      7463.98       1.3906794    0.0073188652
      7471.45       1.3788940    0.0074065749
      7478.92       1.3690084    0.0075094484
      7486.40       1.3561852    0.0075431295
      7493.88       1.3356706    0.0074649558
      7501.38       1.3087556    0.0075627581
      7508.88       1.2811151    0.0077764475
      7516.39       1.2595649    0.0080791153
      7523.91       1.2374664    0.0085026804
      7531.43       1.2156216    0.0090350225
      7538.96       1.1903123    0.0095248339
      7546.50       1.1604337     0.010155217
      7554.05       1.1350518     0.010753547
      7561.60       1.1205840     0.011217246
      7569.16       1.1067396     0.011439584
      7576.73       1.0926739     0.011362117
      7584.31       1.0890616     0.011014220
      7591.89       1.1026582     0.010500687
      7599.49       1.1130074    0.0099360891
      7607.09       1.1222033    0.0093796024
      7614.70       1.1418248    0.0089077817
      7622.31       1.1677137    0.0085576364
      7629.93       1.1996384    0.0082655051
      7637.56       1.2317917    0.0080363682
      7645.20       1.2607331    0.0079048225
      7652.85       1.2859539    0.0078293706
      7660.50       1.3094541    0.0077637018
      7668.16       1.3372391    0.0076782935
      7675.83       1.3622998    0.0076381532
      7683.50       1.3845302    0.0076144099
      7691.19       1.3998975    0.0076040763
      7698.88       1.4103918    0.0076034566
      7706.58       1.4175559    0.0076093086
      7714.29       1.4290674    0.0076189007
      7722.00       1.4449487    0.0076304698
      7729.73       1.4556343    0.0076437170
      7737.45       1.4663449    0.0076582902
      7745.19       1.4670352    0.0076731910
      7752.94       1.4665028    0.0076881051
      7760.69       1.4764263    0.0077036006
      7768.45       1.4915986    0.0077191358
      7776.22       1.5091032    0.0077347627
      7784.00       1.5211613    0.0077514077
      7791.78       1.5262569    0.0077697542
      7799.57       1.5316318    0.0077892925
      7807.37       1.5408744    0.0078097413
      7815.18       1.5551916    0.0078316313
      7822.99       1.5686185    0.0078547572
      7830.82       1.5717111    0.0078773791
      7838.65       1.5709714    0.0078508349
      7846.49       1.5661989    0.0078672605
      7854.34       1.5808252    0.0096634823
      7862.19       1.5746690    0.0096752406
      7870.05       1.5571806    0.0096836170
      7877.93       1.5406755    0.0096966981
      7885.80       1.5359900    0.0096334881
      7893.69       1.5282911    0.0096560730
      7901.58       1.5156816    0.0096787671
      7909.49       1.4899751    0.0097012868
      7917.40       1.4591636    0.0098173422
      7925.31       1.4312589    0.0098353383
      7933.24       1.4092060    0.0098525103
      7941.17       1.3970482    0.0098723444
      7949.11       1.3774572    0.0098109116
      7957.06       1.3521749    0.0098336502
      7965.02       1.3321197    0.0098508582
      7972.98       1.3126929    0.0098640633
      7980.96       1.3047883    0.0098749724
      7988.94       1.3037857    0.0098855505
      7996.93       1.3073219    0.0098983266
      8004.93       1.3085428    0.0098255834
      8012.93       1.3018499    0.0099408130
      8020.95       1.2896688    0.0099723658
      8028.97       1.2745618     0.010013084
      8036.99       1.2620067     0.010062759
      8045.03       1.2486173     0.010127529
      8053.08       1.2313072     0.010135416
      8061.13       1.2129295     0.010240522
      8069.20       1.1911787     0.010370409
      8077.26       1.1736918     0.010638306
      8085.34       1.1624884     0.010802521
      8093.43       1.1688472     0.010869871
      8101.52       1.1720055     0.010975023
      8109.62       1.1738877     0.011044955
      8117.73       1.1795938     0.011068854
      8125.85       1.1764344     0.011023450
      8133.98       1.1728367     0.010937553
      8142.11       1.1818330     0.010909900
      8150.25       1.1875859     0.010927302
      8158.41       1.1876402     0.010961796
      8166.56       1.1744707     0.010895748
      8174.73       1.1436599     0.011000671
      8182.91       1.0982375     0.010966731
      8191.09       1.0536592     0.010914452
      8199.28      0.99420049     0.010769226
      8207.48      0.93246969     0.010748286
      8215.69      0.85799000     0.010884858
      8223.91      0.77996425     0.010929089
      8232.13      0.70387428     0.010834078
      8240.36      0.65845723     0.010820657
      8248.60      0.63216035     0.010806512
      8256.85      0.61956461     0.010869985
      8265.11      0.61466203     0.010747154
      8273.37      0.61489456     0.010724071
      8281.65      0.62637470     0.010697840
      8289.93      0.66246340     0.010663524
      8298.22      0.70370150     0.010640270
      8306.52      0.74401558     0.010626229
      8314.83      0.78330973     0.010526382
      8323.14      0.81903905     0.010614515
      8331.46      0.85285539     0.010613986
      8339.80      0.87244722     0.010525436
      8348.13      0.89059197     0.010530881
      8356.48      0.90188535     0.010637616
      8364.84      0.90938052     0.010559430
      8373.21      0.90812126     0.010568678
      8381.58      0.91684769     0.010677273
      8389.96      0.93869717     0.010601828
      8398.35      0.96512692     0.010615388
      8406.75       1.0026958     0.010730800
      8415.16       1.0553574     0.010661675
      8423.57       1.1109935     0.010681478
      8432.00       1.1799990     0.010618230
      8440.43       1.2447092     0.010733676
      8448.87       1.3224551     0.010751536
      8457.32       1.4027150     0.010684929
      8465.78       1.4887978     0.010797694
      8474.25       1.5724093     0.010726880
      8482.72       1.6504158     0.010744361
      8491.20       1.7226787     0.010854093
      8499.69       1.7923134     0.010781353
      8508.19       1.8751826     0.010891713
      8516.70       1.9553548     0.010816515
      8525.22       2.0191066     0.010921016
      8533.75       2.0745678     0.011513645
      8542.28       2.1217730     0.012279004
      8550.82       2.1758970     0.013629675
      8559.37       2.2149070     0.015880585
      8567.93       2.2282704     0.021025528
      8576.50       2.2105996     0.033723393
