# starting wavelength =        3501.6352
# ending wavelength =        7314.5000
# O2 telluric scale =        0
# O2 telluric shift =        0
# H2O telluric scale =        0
# H2O telluric shift =        0
      3502.34      0.58063592     0.079916896
      3505.84      0.62854190     0.079406023
      3509.35      0.59536498     0.079044977
      3512.86      0.58261824     0.079082587
      3516.37      0.60284842     0.079110716
      3519.89      0.57525256     0.078214585
      3523.41      0.57856301     0.078247064
      3526.93      0.58513279     0.077891331
      3530.46      0.55273057     0.077940149
      3533.99      0.54397178     0.077420017
      3537.53      0.52757294     0.077072020
      3541.06      0.50711922     0.077103967
      3544.60      0.52635193     0.076612002
      3548.15      0.54622726     0.076249087
      3551.70      0.58073571     0.076294487
      3555.25      0.64811815     0.075955314
      3558.80      0.66622518     0.075437487
      3562.36      0.67564640     0.075484704
      3565.92      0.73387973     0.075128822
      3569.49      0.78959307     0.075188253
      3573.06      0.86025166     0.074680243
      3576.64      0.90300417     0.074337292
      3580.21      0.91717589     0.074380531
      3583.79      0.91011139     0.073892822
      3587.38      0.87964414     0.073532807
      3590.96      0.86728375     0.073592363
      3594.55      0.87361435     0.073647522
      3598.15      0.88873387     0.072748485
      3601.75      0.92836379     0.072803151
      3605.35      0.96896495     0.072867753
      3608.96      0.96958271     0.071962827
      3612.56      0.92564102     0.072025209
      3616.18      0.95364123     0.072089623
      3619.79      0.94205233     0.071740887
      3623.41      0.90083372     0.071250308
      3627.04      0.89465448     0.071320624
      3630.66      0.86782929     0.070990929
      3634.29      0.82386590     0.070485163
      3637.93      0.80953939     0.070555871
      3641.57      0.74732908     0.070635532
      3645.21      0.70507434     0.069721997
      3648.86      0.68424014     0.069798861
      3652.50      0.68714560     0.069876640
      3656.16      0.67895118     0.068971908
      3659.81      0.62514247     0.069046025
      3663.47      0.57228943     0.069136904
      3667.14      0.52356922     0.068646158
      3670.80      0.50201486     0.068308277
      3674.48      0.50386050     0.068385267
      3678.15      0.48033741     0.067912238
      3681.83      0.43732938     0.067998706
      3685.51      0.43268185     0.067668664
      3689.20      0.42820246     0.067175187
      3692.88      0.43398609     0.067273018
      3696.58      0.46549022     0.067373618
      3700.27      0.48465978     0.066445567
      3703.98      0.49228818     0.066549090
      3707.68      0.49018983     0.066652471
      3711.39      0.48766985     0.066187389
      3715.10      0.44467983     0.065830284
      3718.81      0.42781165     0.065955281
      3722.53      0.40873711     0.065462711
      3726.26      0.41898411     0.065580476
      3729.98      0.41095575     0.065704903
      3733.71      0.39000549     0.064758952
      3737.45      0.36740283     0.064888425
      3741.18      0.34044944     0.065005564
      3744.93      0.29218430     0.064535938
      3748.67      0.24505165     0.064664932
      3752.42      0.19474407     0.064344621
      3756.17      0.18547359     0.063847196
      3759.93      0.15743067     0.063979542
      3763.69      0.14584357     0.063517558
      3767.45      0.12193400     0.063652382
      3771.22      0.13067527     0.063331915
      3774.99      0.12415712     0.062837733
      3778.77      0.15066924     0.062980571
      3782.54      0.19188297     0.063156545
      3786.33      0.21015069     0.062665956
      3790.11      0.22110707     0.062832653
      3793.90      0.22461942     0.061856435
      3797.70      0.22727249     0.062009608
      3801.50      0.26411387     0.062205961
      3805.30      0.29022595     0.061714003
      3809.10      0.26407347     0.061888218
      3812.91      0.27519568     0.060903916
      3816.73      0.28200283     0.060427000
      3820.54      0.30206772     0.060601892
      3824.36      0.35622856     0.059629712
      3828.19      0.37063541     0.059160016
      3832.02      0.39176482     0.058844694
      3835.85      0.41095714     0.058365912
      3839.68      0.43928431     0.057906300
      3843.52      0.47747596     0.057592832
      3847.37      0.50907566     0.057126286
      3851.22      0.53455951     0.056673881
      3855.07      0.58612266     0.056360172
      3858.92      0.60904569     0.055898836
      3862.78      0.60665388     0.054990597
      3866.64      0.61322525     0.055143041
      3870.51      0.61778492     0.054691293
      3874.38      0.60694506     0.053799603
      3878.26      0.62770956     0.053946244
      3882.13      0.63044365     0.053497798
      3886.02      0.67357271     0.052620558
      3889.90      0.69421229     0.052201968
      3893.79      0.71859696     0.052322476
      3897.69      0.74873365     0.051461414
      3901.59      0.76791966     0.051046084
      3905.49      0.81464641     0.051163154
      3909.39      0.88167624     0.050314872
      3913.30      0.92877125     0.049901994
      3917.22      0.97685109     0.049501519
      3921.13      0.99309533     0.049187568
      3925.06       1.0131824     0.048778764
      3928.98       1.0350637     0.048378704
      3932.91       1.0442711     0.047582014
      3936.84       1.0263368     0.047666959
      3940.78       1.0206617     0.047270283
      3944.72       1.0159955     0.046499504
      3948.67       1.0532045     0.046098802
      3952.61       1.0786441     0.046181255
      3956.57       1.1117476     0.045433608
      3960.52       1.1538735     0.045033346
      3964.48       1.1944707     0.044642899
      3968.45       1.2155481     0.044721400
      3972.42       1.2414923     0.043990621
      3976.39       1.2842412     0.043601087
      3980.37       1.3584285     0.043218356
      3984.35       1.4002751     0.042964690
      3988.33       1.4246255     0.042577132
      3992.32       1.4466075     0.042196068
      3996.31       1.4556846     0.041822148
      4000.31       1.4748507     0.041128238
      4004.31       1.4942376     0.041194203
      4008.31       1.4999985     0.040819846
      4012.32       1.4852235     0.040452941
      4016.33       1.4913569     0.039777073
      4020.35       1.5162609     0.039424255
      4024.37       1.5393422     0.039474343
      4028.40       1.5303058     0.039112891
      4032.42       1.5386253     0.038453840
      4036.46       1.5517969     0.038106050
      4040.50       1.5473716     0.037763199
      4044.54       1.5328522     0.037802062
      4048.58       1.5025366     0.037159964
      4052.63       1.4770183     0.036817350
      4056.68       1.4322689     0.036478753
      4060.74       1.3823859     0.036145051
      4064.80       1.3497906     0.035894286
      4068.86       1.3067623     0.035556645
      4072.93       1.2667228     0.035223349
      4077.01       1.2139403     0.034893764
      4081.08       1.1819293     0.034567770
      4085.17       1.1469052     0.033977848
      4089.25       1.1168212     0.033652212
      4093.34       1.0845148     0.033672057
      4097.43       1.0691181     0.033350814
      4101.53       1.0462889     0.032790964
      4105.63       1.0164910     0.032469268
      4109.74       1.0182046     0.032150970
      4113.85       1.0166964     0.031837594
      4117.96       1.0043620     0.031526457
      4122.08      0.99235369     0.031540703
      4126.20      0.96390924     0.031006642
      4130.33      0.95864391     0.030696296
      4134.46      0.94632791     0.030389626
      4138.59      0.95307253     0.030086259
      4142.73      0.94863269     0.029784918
      4146.88      0.93764336     0.029270129
      4151.02      0.92367913     0.028977032
      4155.18      0.91123207     0.028987147
      4159.33      0.92333519     0.028690580
      4163.49      0.93336502     0.028397141
      4167.65      0.93735320     0.028105544
      4171.82      0.93557222     0.027613570
      4175.99      0.93041898     0.027329849
      4180.17      0.91951634     0.027048368
      4184.35      0.91468941     0.026770232
      4188.54      0.91755203     0.026493907
      4192.72      0.91423197     0.026218829
      4196.92      0.89354167     0.025946677
      4201.11      0.88673717     0.025746373
      4205.31      0.88876719     0.025473693
      4209.52      0.88363070     0.025203705
      4213.73      0.87637881     0.024936102
      4217.94      0.86571606     0.024669991
      4222.16      0.83878194     0.024406341
      4226.38      0.82734968     0.024144610
      4230.61      0.81756555     0.023884702
      4234.84      0.79658238     0.023627532
      4239.08      0.79668031     0.023208608
      4243.32      0.79138114     0.022953525
      4247.56      0.79111961     0.022700820
      4251.81      0.78707388     0.022449972
      4256.06      0.78042480     0.022200987
      4260.32      0.77252149     0.021954980
      4264.58      0.76670225     0.021709897
      4268.84      0.77186688     0.021466635
      4273.11      0.77057366     0.021225424
      4277.38      0.77869082     0.020985821
      4281.66      0.78928365     0.020748525
      4285.94      0.77928093     0.020373075
      4290.23      0.76910177     0.020140549
      4294.52      0.75721140     0.019909445
      4298.81      0.74334389     0.019680532
      4303.11      0.72100540     0.019453219
      4307.42      0.70062607     0.019227971
      4311.72      0.67642056     0.019004620
      4316.04      0.64717139     0.018782199
      4320.35      0.62830572     0.018561506
      4324.67      0.60727718     0.018342571
      4329.00      0.59068004     0.018125219
      4333.33      0.57738364     0.017910365
      4337.66      0.55906313     0.017696376
      4342.00      0.54996651     0.017483408
      4346.34      0.55560940     0.017272544
      4350.69      0.57257315     0.017063234
      4355.04      0.58482187     0.016855562
      4359.39      0.59155637     0.016650267
      4363.75      0.59795112     0.016445901
      4368.12      0.60780651     0.016242875
      4372.48      0.62321158     0.016041725
      4376.86      0.63003519     0.015842135
      4381.23      0.63965201     0.015644482
      4385.61      0.66084951     0.015448603
      4390.00      0.67972211     0.015253736
      4394.39      0.68846259     0.015060217
      4398.79      0.69852663     0.014868613
      4403.18      0.70231961     0.014678579
      4407.59      0.71165378     0.014490658
      4412.00      0.72066279     0.014304090
      4416.41      0.72120416     0.014118640
      4420.82      0.73377130     0.013792808
      4425.25      0.74064725     0.013612564
      4429.67      0.74273937     0.013433981
      4434.10      0.74898510     0.013257696
      4438.54      0.74728467     0.013082520
      4442.97      0.74574794     0.012908537
      4447.42      0.74858771     0.012736482
      4451.86      0.74407072     0.012566012
      4456.32      0.75536186     0.012397648
      4460.77      0.75885940     0.012230737
      4465.24      0.76077713     0.011940446
      4469.70      0.78573941     0.011776466
      4474.17      0.79201319     0.011614349
      4478.65      0.78961143     0.011453842
      4483.12      0.80530960     0.011295528
      4487.61      0.81377826     0.011138444
      4492.09      0.82710071     0.010982655
      4496.59      0.83169786     0.010828572
      4501.08      0.83740364     0.010676313
      4505.58      0.86461165     0.010418852
      4510.09      0.89297452     0.010332889
      4514.60      0.90821814     0.010184238
      4519.12      0.94287097     0.010036975
      4523.63      0.96669290    0.0098916628
      4528.16      0.98970175    0.0097479641
      4532.69       1.0138588    0.0095079989
      4537.22       1.0455756    0.0093690253
      4541.76       1.0735605    0.0092314520
      4546.30       1.0859682    0.0090955861
      4550.85       1.1144764    0.0089614848
      4555.40       1.1461055    0.0088292089
      4559.95       1.1727073    0.0086545504
      4564.51       1.1915664    0.0085241061
      4569.08       1.2225027    0.0083951130
      4573.65       1.2435811    0.0082679773
      4578.22       1.2661147    0.0081426726
      4582.80       1.2803790    0.0080191615
      4587.38       1.2970681    0.0078119374
      4591.97       1.3115621    0.0076907344
      4596.56       1.3322277    0.0076142692
      4601.16       1.3431785    0.0074957185
      4605.76       1.3541568    0.0073808300
      4610.37       1.3632596    0.0071946132
      4614.98       1.3756690    0.0070853868
      4619.59       1.3848618    0.0069780505
      4624.21       1.3937865    0.0068744236
      4628.84       1.4035923    0.0067490872
      4633.47       1.4088029    0.0066594140
      4638.10       1.4253216    0.0065793037
      4642.74       1.4260184    0.0065099459
      4647.38       1.4362201    0.0064520398
      4652.03       1.4426179    0.0063531059
      4656.68       1.4534021    0.0063629435
      4661.34       1.4551662    0.0063385207
      4666.00       1.4535267    0.0063218125
      4670.67       1.4421783    0.0062622480
      4675.33       1.4336600    0.0062561818
      4680.01       1.4251111    0.0063003496
      4684.69       1.4155494    0.0062955871
      4689.38       1.4076835    0.0062439634
      4694.07       1.3956963    0.0062414247
      4698.76       1.3838404    0.0062416341
      4703.46       1.3704976    0.0062421458
      4708.16       1.3564786    0.0062416803
      4712.87       1.3374302    0.0062415495
      4717.58       1.3224475    0.0062417697
      4722.30       1.3049832    0.0061929944
      4727.03       1.2784011    0.0062413358
      4731.75       1.2508563    0.0062414642
      4736.48       1.2324846    0.0061942003
      4741.22       1.2018777    0.0061930494
      4745.96       1.1805934    0.0062412685
      4750.71       1.1465597    0.0062413284
      4755.46       1.1132027    0.0061937579
      4760.22       1.0799009    0.0061929198
      4764.97       1.0489210    0.0062414895
      4769.74       1.0178781    0.0061942458
      4774.51      0.98519220    0.0061929041
      4779.29      0.95822414    0.0061925155
      4784.07      0.92348164    0.0061951446
      4788.85      0.88283546    0.0061935568
      4793.64      0.84365957    0.0061925338
      4798.43      0.80669604    0.0061472000
      4803.23      0.76847290    0.0061938193
      4808.03      0.73366846    0.0061928770
      4812.84      0.70114313    0.0061475593
      4817.66      0.66332767    0.0061940659
      4822.48      0.63768943    0.0061926462
      4827.30      0.61398819    0.0061473781
      4832.12      0.58724306    0.0061479340
      4836.96      0.57579153    0.0061479664
      4841.79      0.56160405    0.0061474643
      4846.63      0.55518246    0.0061476757
      4851.48      0.55758328    0.0061477679
      4856.33      0.56304266    0.0061475696
      4861.19      0.57431377    0.0061481441
      4866.05      0.58995869    0.0061477299
      4870.92      0.60083011    0.0061472880
      4875.79      0.61420870    0.0061016972
      4880.66      0.62833910    0.0061476540
      4885.55      0.64311150    0.0061476997
      4890.43      0.66527521    0.0061014165
      4895.32      0.68323949    0.0061472262
      4900.22      0.70770777    0.0061022323
      4905.12      0.73871823    0.0061010796
      4910.02      0.77137987    0.0061475920
      4914.94      0.80959178    0.0061018018
      4919.85      0.86210494    0.0061007242
      4924.77      0.91218683    0.0061026391
      4929.70      0.97505782    0.0061012401
      4934.62       1.0371896    0.0061040536
      4939.56       1.1063968    0.0061018433
      4944.50       1.1779689    0.0061006951
      4949.44       1.2511386    0.0061024152
      4954.39       1.3101701    0.0061010794
      4959.35       1.3664847    0.0060577478
      4964.31       1.4100239    0.0061015443
      4969.27       1.4550591    0.0060575363
      4974.24       1.4903656    0.0061019239
      4979.22       1.5122583    0.0060578010
      4984.20       1.5247240    0.0060579713
      4989.18       1.5312403    0.0060580511
      4994.17       1.5289659    0.0060576688
      4999.16       1.5095276    0.0060581472
      5004.16       1.4824300    0.0060576888
      5009.17       1.4488758    0.0060139139
      5014.18       1.4144267    0.0060576766
      5019.19       1.3623875    0.0060140084
      5024.21       1.3114180    0.0060575129
      5029.23       1.2541324    0.0060144648
      5034.26       1.2004842    0.0060578722
      5039.30       1.1456264    0.0060147694
      5044.34       1.0884307    0.0060131195
      5049.39       1.0302556    0.0060148711
      5054.43      0.98965501    0.0060132966
      5059.49      0.94342151    0.0060151688
      5064.55      0.92363685    0.0060133223
      5069.61      0.90578395    0.0060150247
      5074.68      0.90061368    0.0060132010
      5079.76      0.90545235    0.0060151755
      5084.84      0.91755866    0.0060133190
      5089.92      0.92697479    0.0060150529
      5095.01      0.94091247    0.0060130545
      5100.11      0.95817493    0.0060148240
      5105.21      0.98491943    0.0060131856
      5110.31       1.0072591    0.0060148105
      5115.42       1.0292674    0.0059718183
      5120.54       1.0449779    0.0059719017
      5125.66       1.0582017    0.0059717050
      5130.79       1.0685810    0.0059722064
      5135.92       1.0716574    0.0059717526
      5141.05       1.0721745    0.0060138729
      5146.20       1.0728009    0.0059714726
      5151.34       1.0656801    0.0059722069
      5156.49       1.0569159    0.0059717606
      5161.65       1.0520064    0.0059720294
      5166.81       1.0511248    0.0059718115
      5171.98       1.0467823    0.0059715745
      5177.15       1.0370514    0.0059300694
      5182.33       1.0249143    0.0059717444
      5187.51       1.0193395    0.0059296224
      5192.70       1.0132923    0.0059716711
      5197.89       1.0039663    0.0059291586
      5203.09       1.0037514    0.0059305018
      5208.29       1.0030445    0.0059289669
      5213.50       1.0052371    0.0059297604
      5218.72       1.0050617    0.0059314602
      5223.93       1.0160172    0.0059290751
      5229.16       1.0283360    0.0059305159
      5234.39       1.0367362    0.0059289266
      5239.62       1.0613548    0.0059296849
      5244.86       1.0812587    0.0058892212
      5250.11       1.1063655    0.0059290514
      5255.36       1.1364504    0.0059302627
      5260.61       1.1585114    0.0058892822
      5265.87       1.1857151    0.0059294032
      5271.14       1.2088546    0.0058894030
      5276.41       1.2319925    0.0058892850
      5281.69       1.2537436    0.0059296841
      5286.97       1.2812760    0.0058893023
      5292.26       1.3005816    0.0058892654
      5297.55       1.3210146    0.0058897090
      5302.85       1.3374693    0.0058892335
      5308.15       1.3531835    0.0058894361
      5313.46       1.3650243    0.0058491763
      5318.77       1.3788145    0.0058892548
      5324.09       1.3913108    0.0058893651
      5329.42       1.3930638    0.0058491519
      5334.75       1.3977270    0.0058893019
      5340.08       1.3996837    0.0058483041
      5345.42       1.3977269    0.0058489627
      5350.77       1.3930971    0.0058501573
      5356.12       1.3907181    0.0058482582
      5361.48       1.3823222    0.0058487790
      5366.83       1.3791550    0.0058498216
      5372.20       1.3778258    0.0058101613
      5377.58       1.3692360    0.0058485326
      5382.95       1.3649175    0.0058493678
      5388.34       1.3591171    0.0058101187
      5393.72       1.3498217    0.0058102589
      5399.12       1.3376276    0.0058488475
      5404.52       1.3333402    0.0058102667
      5409.92       1.3281318    0.0058101067
      5415.33       1.3268610    0.0058102897
      5420.75       1.3286647    0.0058490623
      5426.17       1.3236521    0.0058101731
      5431.60       1.3194876    0.0058101458
      5437.03       1.3233598    0.0058104157
      5442.47       1.3296635    0.0058106409
      5447.91       1.3407840    0.0058959592
      5453.36       1.3521878    0.0058186711
      5458.81       1.3731547    0.0058117634
      5464.27       1.3919053    0.0057998244
      5469.73       1.4052062    0.0058827502
      5475.20       1.4200127    0.0059380624
      5480.68       1.4323975    0.0059465273
      5486.16       1.4445702    0.0059924165
      5491.65       1.4414778    0.0060248257
      5497.14       1.4457351    0.0060391196
      5502.64       1.4484804    0.0060332074
      5508.14       1.4463548    0.0060091412
      5513.65       1.4410684    0.0059688458
      5519.16       1.4315390    0.0059181423
      5524.68       1.4119733    0.0058641718
      5530.20       1.3930811    0.0057776313
      5535.73       1.3720381    0.0057806925
      5541.27       1.3560554    0.0057699684
      5546.81       1.3406248    0.0058092027
      5552.36       1.3238617    0.0058570561
      5557.91       1.3057226    0.0057342520
      5563.47       1.2894561    0.0057361461
      5569.04       1.2676824    0.0057390317
      5574.60       1.2496736    0.0057419371
      5580.18       1.2331274    0.0057443846
      5585.76       1.2164583    0.0057487915
      5591.35       1.1889567    0.0057565442
      5596.94       1.1535551    0.0057694048
      5602.53       1.1222771    0.0057888159
      5608.14       1.0821901    0.0058163118
      5613.75       1.0399392    0.0058103372
      5619.36      0.99687152    0.0058544296
      5624.98      0.94408294    0.0059068702
      5630.60      0.88526048    0.0059669697
      5636.23      0.83437535    0.0060616007
      5641.87      0.77780863    0.0061324206
      5647.51      0.72898730    0.0061568623
      5653.16      0.67967549    0.0062312547
      5658.82      0.63475387    0.0063063503
      5664.47      0.59148695    0.0063821359
      5670.14      0.55242173    0.0064605575
      5675.81      0.52618121    0.0065401659
      5681.48      0.51295489    0.0066202943
      5687.17      0.50406074    0.0067006409
      5692.85      0.49986323    0.0067268992
      5698.55      0.50025297    0.0068066560
      5704.25      0.50955809    0.0068864965
      5709.95      0.53084920    0.0069667489
      5715.66      0.55314961    0.0070472588
      5721.38      0.58666857    0.0071278793
      5727.10      0.61889360    0.0072084633
      5732.83      0.65743406    0.0072895514
      5738.56      0.70426499    0.0073710945
      5744.30      0.75613111    0.0074532043
      5750.04      0.81095645    0.0074761826
      5755.79      0.86947667    0.0075573572
      5761.55      0.92489914    0.0076390938
      5767.31      0.98273150    0.0077218407
      5773.08       1.0475679    0.0078064154
      5778.85       1.1054585    0.0078931323
      5784.63       1.1715059    0.0079812711
      5790.41       1.2284014    0.0080699939
      5796.21       1.2881930    0.0081596945
      5802.00       1.3443925    0.0082501035
      5807.81       1.3980365    0.0083396040
      5813.61       1.4535595    0.0084266050
      5819.43       1.4964679    0.0085118252
      5825.25       1.5301527    0.0085954321
      5831.07       1.5639818    0.0086774265
      5836.90       1.5935084    0.0087579925
      5842.74       1.6220538    0.0088376570
      5848.58       1.6500751    0.0089174138
      5854.43       1.6636290    0.0089526610
      5860.29       1.6802079    0.0090321993
      5866.15       1.6836992    0.0091105004
      5872.01       1.6805331    0.0091872395
      5877.89       1.6721630    0.0092625360
      5883.76       1.6663707    0.0093377875
      5889.65       1.6472615    0.0094132717
      5895.54       1.6309062    0.0094870227
      5901.43       1.6137740    0.0095591227
      5907.34       1.6040734    0.0096327661
      5913.24       1.5924631    0.0096587850
      5919.16       1.5784544    0.0097329565
      5925.08       1.5659636    0.0098052026
      5931.00       1.5460968    0.0098782662
      5936.93       1.5231163    0.0099529221
      5942.87       1.5056054     0.010028390
      5948.81       1.4908985     0.010103759
      5954.76       1.4727008     0.010179136
      5960.72       1.4541239     0.010203819
      5966.68       1.4372433     0.010279678
      5972.64       1.4232030     0.010428691
      5978.62       1.3973250     0.010503059
      5984.60       1.3759892     0.010577787
      5990.58       1.3519092     0.010652745
      5996.57       1.3233852     0.010672566
      6002.57       1.3017160     0.010746059
      6008.57       1.2771103     0.010819539
      6014.58       1.2609526     0.010893210
      6020.60       1.2485548     0.010966524
      6026.62       1.2219233     0.010980996
      6032.65       1.2042488     0.011051803
      6038.68       1.1845427     0.011200692
      6044.72       1.1578662     0.011271852
      6050.76       1.1364026     0.011342623
      6056.81       1.1218124     0.011353573
      6062.87       1.1066301     0.011422389
      6068.93       1.0987781     0.011490909
      6075.00       1.0907502     0.011559011
      6081.08       1.0890448     0.011707064
      6087.16       1.0800554     0.011714140
      6093.25       1.0759298     0.011780119
      6099.34       1.0797880     0.011845670
      6105.44       1.0780192     0.011910932
      6111.54       1.0738093     0.011915563
      6117.66       1.0698256     0.012061134
      6123.78       1.0691663     0.012126821
      6129.90       1.0721020     0.012195159
      6136.03       1.0733952     0.012198164
      6142.17       1.0647252     0.012259541
      6148.31       1.0659211     0.012326018
      6154.46       1.0711616     0.012415789
      6160.61       1.0784591     0.012494136
      6166.77       1.0924012     0.012578002
      6172.94       1.1034489     0.012665665
      6179.11       1.1102834     0.012774824
      6185.29       1.1181746     0.012859780
      6191.48       1.1245696     0.012940532
      6197.67       1.1253307     0.012943861
      6203.87       1.1201251     0.013004121
      6210.07       1.1124987     0.013141679
      6216.28       1.0957357     0.013109242
      6222.50       1.0760525     0.013140283
      6228.72       1.0509882     0.013167442
      6234.95       1.0203216     0.013206605
      6241.19      0.99747829     0.013239798
      6247.42      0.97630254     0.013279714
      6253.67      0.94871748     0.013245909
      6259.93      0.92625840     0.013359747
      6266.19      0.91285299     0.013395969
      6272.46      0.90390774     0.013362684
      6278.73      0.89917954     0.013482501
      6285.01      0.90226072     0.013447906
      6291.29      0.89986647     0.013485783
      6297.58      0.90037470     0.013524522
      6303.88      0.90666152     0.013571562
      6310.19      0.90842472     0.013609934
      6316.50      0.90253553     0.013575447
      6322.81      0.90571130     0.013697421
      6329.14      0.90169594     0.013735040
      6335.47      0.90142697     0.013697664
      6341.80      0.89900586     0.013820399
      6348.14      0.89329433     0.013786887
      6354.49      0.89491418     0.013827066
      6360.85      0.89757269     0.013957897
      6367.21      0.89998711     0.013927047
      6373.57      0.89923489     0.013965188
      6379.95      0.90534744     0.014014938
      6386.33      0.90509172     0.014048853
      6392.72      0.90126378     0.014007505
      6399.11      0.89957100     0.014119469
      6405.51      0.89926699     0.014066862
      6411.92      0.88484060     0.014170456
      6418.32      0.87217991     0.014186380
      6424.74      0.84721756     0.014126563
      6431.17      0.81952466     0.014224299
      6437.60      0.79374005     0.014164265
      6444.04      0.76759173     0.014182475
      6450.48      0.73272640     0.014200473
      6456.94      0.70344974     0.014213013
      6463.39      0.67623394     0.014224408
      6469.85      0.65482152     0.014231671
      6476.33      0.63774320     0.014240307
      6482.80      0.62353094     0.014247304
      6489.28      0.62127500     0.014171520
      6495.77      0.63093857     0.014253583
      6502.27      0.62936637     0.014173944
      6508.77      0.66527522     0.014179453
      6515.28      0.69399070     0.014178935
      6521.80      0.72221533     0.014184126
      6528.32      0.76598296     0.014181708
      6534.85      0.81643694     0.014184687
      6541.38      0.86786785     0.014180392
      6547.92      0.91313199     0.014099929
      6554.47      0.96723464     0.014172293
      6561.03       1.0168183     0.014089036
      6567.59       1.0600706     0.014158488
      6574.16       1.0913507     0.014072630
      6580.73       1.1215672     0.014060857
      6587.31       1.1539484     0.014050071
      6593.90       1.1778298     0.014034243
      6600.50       1.2002977     0.014020742
      6607.10       1.2132250     0.014000833
      6613.70       1.2297566     0.013904593
      6620.32       1.2414796     0.013960802
      6626.94       1.2421064     0.013860780
      6633.57       1.2628675     0.013913898
      6640.20       1.2611118     0.013810300
      6646.84       1.2557630     0.013780961
      6653.49       1.2535870     0.013826891
      6660.14       1.2498702     0.013719038
      6666.80       1.2424230     0.013684415
      6673.47       1.2320918     0.013650217
      6680.14       1.2186465     0.013610728
      6686.82       1.1969874     0.013498062
      6693.51       1.1803902     0.013531967
      6700.20       1.1610818     0.013438596
      6706.90       1.1456053     0.013448182
      6713.61       1.1302241     0.013495700
      6720.32       1.1173350     0.013359972
      6727.05       1.1098735     0.013321392
      6733.77       1.0976412     0.013337592
      6740.51       1.0852410     0.013403896
      6747.25       1.0727871     0.013516978
      6754.00       1.0616668     0.013632291
      6760.75       1.0483265     0.013790069
      6767.51       1.0367588     0.013850957
      6774.28       1.0224762     0.013957357
      6781.05      0.99229977     0.014077713
      6787.84      0.96798728     0.013963731
      6794.62      0.93622845     0.013850837
      6801.42      0.90292748     0.013766271
      6808.22      0.86284402     0.013465646
      6815.03      0.81805163     0.013203800
      6821.85      0.78450926     0.012947667
      6828.67      0.75064627     0.012764521
      6835.50      0.71298758     0.012586988
      6842.33      0.68679930     0.012407922
      6849.17      0.65730369     0.012164702
      6856.02      0.64757470     0.012074100
      6862.88      0.63546194     0.011926165
      6869.74      0.63667790     0.011730953
      6876.61      0.64377086     0.011590688
      6883.49      0.65596795     0.011457993
      6890.37      0.67842628     0.011356066
      6897.27      0.70864831     0.011231229
      6904.16      0.73750199     0.011107716
      6911.07      0.76462273     0.010934901
      6917.98      0.79633719     0.010803814
      6924.89      0.83317732     0.010737487
      6931.82      0.88034847     0.010480971
      6938.75      0.91951536     0.010226470
      6945.69      0.95623738    0.0099767322
      6952.64      0.98998762    0.0097608182
      6959.59       1.0297597    0.0095201155
      6966.55       1.0593571    0.0092830512
      6973.52       1.0868516    0.0091062483
      6980.49       1.1061970    0.0088757421
      6987.47       1.1232812    0.0086574556
      6994.46       1.1365022    0.0084472439
      7001.46       1.1455964    0.0082866675
      7008.46       1.1516977    0.0080718623
      7015.46       1.1487408    0.0078583320
      7022.48       1.1336812    0.0076305882
      7029.51       1.1124046    0.0074831053
      7036.53       1.0842986    0.0073146453
      7043.57       1.0747568    0.0071606152
      7050.62       1.0614206    0.0069965943
      7057.66       1.0399199    0.0068146500
      7064.72       1.0168115    0.0066711609
      7071.79       1.0006723    0.0064879664
      7078.86      0.98823541    0.0063011719
      7085.94      0.97158382    0.0061053884
      7093.03      0.95651465    0.0059089206
      7100.12      0.93889519    0.0057142220
      7107.22      0.92408637    0.0055614207
      7114.33      0.91775139    0.0053687223
      7121.44      0.91529411    0.0051949038
      7128.56      0.90964032    0.0050357788
      7135.69      0.89402621    0.0048917140
      7142.83      0.88752218    0.0047620297
      7149.97      0.89357484    0.0046452780
      7157.12      0.90301434    0.0045401238
      7164.28      0.91023612    0.0044462396
      7171.44      0.91950007    0.0043635831
      7178.62      0.93345269    0.0042909726
      7185.80      0.94130132    0.0042417403
      7192.98      0.95138253    0.0041823333
      7200.17      0.95601973    0.0042058056
      7207.38      0.96228169    0.0042546092
      7214.58      0.96606688    0.0043159838
      7221.80      0.96848608    0.0043930901
      7229.02      0.97039916    0.0044904280
      7236.25      0.97349355    0.0046157599
      7243.49      0.97673747    0.0047814931
      7250.73      0.98110342    0.0050029731
      7257.98      0.98797425    0.0052964985
      7265.24      0.99072723    0.0056806522
      7272.51      0.98764606    0.0061773492
      7279.78      0.98264128    0.0068196278
      7287.06      0.97553541    0.0076533501
      7294.35      0.96433071    0.0087396606
      7301.64      0.94796117     0.010140083
      7308.94      0.92453359     0.011910677
