# starting wavelength =        3459.6100
# ending wavelength =        7373.2000
# O2 telluric scale =        0
# O2 telluric shift =        0
# H2O telluric scale =        0
# H2O telluric shift =        0
      3460.58      0.57434018      0.18124121
      3464.04      0.62103819      0.14722335
      3467.51      0.59432190      0.12611543
      3470.98      0.60266701      0.10945524
      3474.45      0.61023198     0.096318295
      3477.92      0.61738535     0.088024069
      3481.40      0.63964105     0.079666881
      3484.88      0.66915199     0.073166510
      3488.37      0.69611390     0.068128392
      3491.86      0.70720822     0.064225787
      3495.35      0.74020091     0.060561047
      3498.84      0.72938471     0.058238175
      3502.34      0.73704048     0.056374232
      3505.84      0.73090955     0.054855056
      3509.35      0.70922922     0.053456941
      3512.86      0.71452506     0.052331205
      3516.37      0.70302272     0.051372124
      3519.89      0.69537577     0.050545449
      3523.41      0.67313494     0.049828344
      3526.93      0.63555555     0.049343458
      3530.46      0.61114503     0.049414143
      3533.99      0.57145100     0.049491088
      3537.53      0.54172411     0.049326208
      3541.06      0.53947629     0.049076743
      3544.60      0.53240552     0.048910029
      3548.15      0.52392034     0.048983275
      3551.70      0.52581633     0.049067416
      3555.25      0.54353015     0.048572253
      3558.80      0.53649461     0.048653261
      3562.36      0.52524384     0.048490305
      3565.92      0.55480261     0.048564416
      3569.49      0.54946316     0.048328714
      3573.06      0.52920847     0.048155126
      3576.64      0.55201879     0.048243811
      3580.21      0.52912137     0.048328995
      3583.79      0.51454492     0.047834736
      3587.38      0.52756039     0.047920922
      3590.96      0.55691476     0.047751491
      3594.55      0.58673623     0.047515203
      3598.15      0.60938689     0.047604495
      3601.75      0.63486471     0.047441750
      3605.35      0.67923506     0.047526792
      3608.96      0.68014430     0.047294672
      3612.56      0.69572983     0.047121555
      3616.18      0.69448061     0.047222221
      3619.79      0.68866326     0.046982134
      3623.41      0.68417197     0.046817381
      3627.04      0.67194496     0.046911305
      3630.66      0.66420910     0.047017162
      3634.29      0.66452268     0.046508728
      3637.93      0.66039878     0.046612859
      3641.57      0.62087813     0.046714199
      3645.21      0.60867301     0.046211288
      3648.86      0.57485723     0.046312229
      3652.50      0.58619506     0.046422058
      3656.16      0.58407300     0.046530924
      3659.81      0.55977572     0.046021138
      3663.47      0.55572437     0.046128582
      3667.14      0.55454347     0.046246264
      3670.80      0.53264055     0.045728673
      3674.48      0.53226213     0.045845287
      3678.15      0.55247592     0.045958999
      3681.83      0.53309698     0.045447121
      3685.51      0.53574113     0.045559108
      3689.20      0.53266414     0.045684507
      3692.88      0.53442480     0.045448200
      3696.58      0.56374780     0.045287231
      3700.27      0.57393096     0.045404457
      3703.98      0.55684926     0.045178635
      3707.68      0.56243429     0.045302847
      3711.39      0.55861144     0.045144924
      3715.10      0.53879886     0.044905992
      3718.81      0.55116019     0.045037636
      3722.53      0.56758869     0.045174392
      3726.26      0.57319938     0.044640519
      3729.98      0.57416847     0.044777586
      3733.71      0.56597939     0.044913649
      3737.45      0.57390278     0.044691703
      3741.18      0.57108789     0.044515600
      3744.93      0.54772828     0.044669787
      3748.67      0.53553412     0.044432697
      3752.42      0.52519956     0.044581470
      3756.17      0.50213066     0.044736425
      3759.93      0.47569126     0.044183935
      3763.69      0.48447065     0.044341247
      3767.45      0.47903570     0.044492896
      3771.22      0.46780749     0.044270562
      3774.99      0.45408030     0.044096851
      3778.77      0.46211520     0.043872460
      3782.54      0.45131573     0.044034986
      3786.33      0.45288215     0.044197706
      3790.11      0.43996544     0.043979422
      3793.90      0.43050272     0.044145502
      3797.70      0.43331279     0.043989759
      3801.50      0.45649396     0.043751574
      3805.30      0.47602841     0.043924892
      3809.10      0.50811801     0.043707942
      3812.91      0.50526117     0.043885399
      3816.73      0.47847877     0.043730832
      3820.54      0.47675414     0.043491213
      3824.36      0.49449842     0.043675371
      3828.19      0.50401469     0.043883164
      3832.02      0.51163703     0.043646579
      3835.85      0.51759561     0.043848598
      3839.68      0.53303259     0.043634110
      3843.52      0.55335540     0.043447692
      3847.37      0.59565909     0.043675667
      3851.22      0.60160456     0.043435536
      3855.07      0.61545468     0.043645732
      3858.92      0.64824788     0.043048938
      3862.78      0.64252997     0.042815307
      3866.64      0.65223091     0.043023796
      3870.51      0.67495839     0.042431493
      3874.38      0.69464155     0.042201527
      3878.26      0.69066756     0.041614496
      3882.13      0.69582616     0.041821066
      3886.02      0.69050862     0.041595054
      3889.90      0.67401845     0.041017092
      3893.79      0.65144687     0.041218434
      3897.69      0.67298302     0.040996560
      3901.59      0.68545896     0.040427214
      3905.49      0.69320581     0.040625782
      3909.39      0.69761784     0.040406112
      3913.30      0.71443382     0.039843269
      3917.22      0.71837604     0.040039507
      3921.13      0.71507746     0.039473126
      3925.06      0.70568822     0.039265904
      3928.98      0.71849289     0.039066825
      3932.91      0.71674880     0.038901535
      3936.84      0.69986501     0.038695187
      3940.78      0.68959803     0.038497427
      3944.72      0.69700462     0.038337499
      3948.67      0.67282938     0.038133071
      3952.61      0.64182959     0.037935358
      3956.57      0.65406314     0.037415234
      3960.52      0.66316786     0.037578299
      3964.48      0.66826052     0.037380490
      3968.45      0.69489145     0.037188800
      3972.42      0.72142971     0.036670772
      3976.39      0.72078441     0.036831836
      3980.37      0.71814005     0.036640126
      3984.35      0.73300434     0.036137689
      3988.33      0.74716462     0.035939615
      3992.32      0.75598576     0.036100347
      3996.31      0.75421811     0.035612962
      4000.31      0.78117309     0.035415650
      4004.31      0.78868490     0.035224442
      4008.31      0.78819379     0.035381855
      4012.32      0.78567875     0.034902188
      4016.33      0.78830905     0.034709278
      4020.35      0.78435638     0.034520529
      4024.37      0.77613315     0.034397966
      4028.40      0.77503621     0.034203236
      4032.42      0.78680687     0.034013783
      4036.46      0.80221703     0.033829548
      4040.50      0.81705160     0.033365275
      4044.54      0.83998158     0.033519668
      4048.58      0.84537749     0.033332954
      4052.63      0.85670857     0.033150859
      4056.68      0.85898660     0.032696420
      4060.74      0.85411969     0.032522869
      4064.80      0.83186651     0.032666772
      4068.86      0.83489050     0.032486914
      4072.93      0.80200247     0.032038410
      4077.01      0.77490361     0.031867259
      4081.08      0.72821837     0.031698051
      4085.17      0.69198224     0.031533108
      4089.25      0.66612499     0.031394396
      4093.34      0.64537709     0.031223294
      4097.43      0.62408958     0.031057069
      4101.53      0.60631152     0.030892428
      4105.63      0.60633232     0.030474268
      4109.74      0.58530797     0.030595784
      4113.85      0.58414265     0.030428947
      4117.96      0.59484633     0.030265948
      4122.08      0.61234647     0.030104328
      4126.20      0.61353507     0.029699365
      4130.33      0.64398703     0.029536142
      4134.46      0.65638331     0.029373543
      4138.59      0.66755929     0.029492933
      4142.73      0.67598364     0.029334565
      4146.88      0.68288992     0.028945533
      4151.02      0.66645839     0.028785896
      4155.18      0.65943342     0.028626701
      4159.33      0.66574626     0.028470497
      4163.49      0.66919860     0.028315996
      4167.65      0.67187356     0.027935586
      4171.82      0.67055948     0.028057533
      4175.99      0.66815032     0.027900589
      4180.17      0.67497006     0.027746471
      4184.35      0.67745286     0.027594475
      4188.54      0.66806487     0.027443476
      4192.72      0.67380672     0.027075163
      4196.92      0.67081320     0.026928747
      4201.11      0.67356304     0.026784217
      4205.31      0.66564399     0.026641380
      4209.52      0.68486567     0.026748717
      4213.73      0.69228741     0.026602627
      4217.94      0.69336326     0.026456575
      4222.16      0.70136457     0.026100403
      4226.38      0.69748593     0.025959068
      4230.61      0.70904191     0.025818420
      4234.84      0.71654356     0.025680215
      4239.08      0.71584800     0.025542063
      4243.32      0.70381922     0.025405892
      4247.56      0.68855237     0.025270597
      4251.81      0.67137582     0.024935484
      4256.06      0.66250043     0.024800535
      4260.32      0.65624582     0.024665495
      4264.58      0.64407033     0.024532188
      4268.84      0.63446049     0.024624720
      4273.11      0.62176046     0.024491572
      4277.38      0.60239729     0.024360445
      4281.66      0.59626924     0.024229309
      4285.94      0.59498302     0.024099916
      4290.23      0.59185004     0.023971165
      4294.52      0.59664898     0.023661186
      4298.81      0.60201172     0.023533244
      4303.11      0.60751776     0.023405850
      4307.42      0.62754056     0.023280059
      4311.72      0.63666341     0.023154826
      4316.04      0.63349846     0.023030377
      4320.35      0.63756812     0.022907311
      4324.67      0.62174810     0.022784178
      4329.00      0.60798877     0.022662871
      4333.33      0.60364470     0.022541359
      4337.66      0.59771284     0.022421264
      4342.00      0.59099106     0.022302145
      4346.34      0.58474730     0.022183433
      4350.69      0.58615012     0.021894155
      4355.04      0.57563734     0.021778190
      4359.39      0.57018851     0.021663251
      4363.75      0.56706833     0.021549003
      4368.12      0.56429983     0.021435183
      4372.48      0.57503729     0.021322383
      4376.86      0.59502874     0.021210004
      4381.23      0.59685397     0.021098836
      4385.61      0.60646618     0.020987743
      4390.00      0.62978845     0.020877672
      4394.39      0.63410776     0.020768588
      4398.79      0.64348395     0.020659926
      4403.18      0.64566342     0.020552476
      4407.59      0.62490771     0.020445149
      4412.00      0.63056808     0.020338903
      4416.41      0.63429958     0.020233448
      4420.82      0.63459385     0.020128462
      4425.25      0.64670822     0.019847714
      4429.67      0.65653180     0.019745390
      4434.10      0.66736362     0.019643805
      4438.54      0.65638114     0.019542986
      4442.97      0.65246924     0.019443010
      4447.42      0.63991697     0.019343744
      4451.86      0.63123918     0.019245266
      4456.32      0.62634947     0.019147542
      4460.77      0.63503451     0.019050568
      4465.24      0.61962453     0.018954532
      4469.70      0.64162706     0.018859014
      4474.17      0.66188462     0.018764337
      4478.65      0.67490468     0.018670384
      4483.12      0.67418772     0.018410142
      4487.61      0.67470832     0.018317272
      4492.09      0.68360888     0.018225360
      4496.59      0.70242984     0.018134171
      4501.08      0.71947914     0.018043503
      4505.58      0.73096355     0.017954059
      4510.09      0.74964044     0.017865057
      4514.60      0.76379420     0.017912705
      4519.12      0.77228738     0.017825054
      4523.63      0.77197423     0.017585546
      4528.16      0.77712993     0.017497988
      4532.69      0.77187110     0.017411513
      4537.22      0.78964162     0.017326220
      4541.76      0.82284325     0.017241244
      4546.30      0.84531742     0.017157845
      4550.85      0.84958864     0.017074835
      4555.40      0.88733705     0.016848750
      4559.95      0.90552303     0.016768542
      4564.51      0.91935696     0.016689386
      4569.08      0.91560517     0.016611411
      4573.65      0.91584350     0.016653823
      4578.22      0.91923177     0.016574504
      4582.80      0.90253746     0.016495636
      4587.38      0.90185375     0.016279155
      4591.97      0.89082556     0.016203353
      4596.56      0.87895847     0.016128760
      4601.16      0.86889962     0.016055482
      4605.76      0.85226421     0.015982785
      4610.37      0.83409223     0.015911819
      4614.98      0.84082410     0.015815674
      4619.59      0.85033809     0.015743905
      4624.21      0.85427062     0.015672835
      4628.84      0.85861024     0.015603470
      4633.47      0.85824956     0.015534916
      4638.10      0.86596145     0.015332851
      4642.74      0.87399207     0.015264262
      4647.38      0.88207819     0.015196332
      4652.03      0.88936960     0.015242797
      4656.68      0.88779333     0.015177053
      4661.34      0.89456045     0.014983575
      4666.00      0.88754789     0.014917244
      4670.67      0.87640760     0.014852585
      4675.33      0.87440423     0.014789183
      4680.01      0.86925453     0.014714199
      4684.69      0.85772191     0.014649975
      4689.38      0.84760462     0.014586813
      4694.07      0.83765205     0.014525707
      4698.76      0.83121721     0.014347249
      4703.46      0.82509863     0.014289342
      4708.16      0.80120187     0.014332838
      4712.87      0.77888779     0.014273297
      4717.58      0.75850861     0.014099265
      4722.30      0.73986780     0.014043166
      4727.03      0.72441003     0.013988684
      4731.75      0.70249775     0.014031353
      4736.48      0.70220631     0.013862277
      4741.22      0.70165279     0.013808063
      4745.96      0.70964876     0.013756007
      4750.71      0.71440359     0.013705255
      4755.46      0.72162957     0.013635398
      4760.22      0.73713769     0.013583780
      4764.97      0.74542511     0.013533979
      4769.74      0.74607560     0.013372035
      4774.51      0.75277844     0.013418807
      4779.29      0.75771118     0.013369978
      4784.07      0.75815707     0.013213577
      4788.85      0.75015139     0.013164327
      4793.64      0.74032207     0.013212475
      4798.43      0.72614272     0.013166662
      4803.23      0.71998352     0.013013341
      4808.03      0.69914128     0.012966846
      4812.84      0.67280743     0.013016782
      4817.66      0.64713230     0.012868213
      4822.48      0.62908990     0.012822687
      4827.30      0.61606608     0.012778964
      4832.12      0.60726746     0.012728592
      4836.96      0.60658832     0.012684200
      4841.79      0.59968546     0.012642066
      4846.63      0.59306712     0.012503657
      4851.48      0.59343863     0.012551851
      4856.33      0.59306522     0.012510869
      4861.19      0.59091381     0.012375358
      4866.05      0.60111236     0.012424483
      4870.92      0.61505819     0.012289196
      4875.79      0.62344545     0.012252279
      4880.66      0.63832046     0.012302560
      4885.55      0.67392394     0.012169840
      4890.43      0.68535012     0.012134694
      4895.32      0.68895816     0.012101930
      4900.22      0.69790796     0.012056044
      4905.12      0.70630063     0.012022860
      4910.02      0.71021824     0.011895441
      4914.94      0.72312105     0.011947617
      4919.85      0.73517574     0.011916250
      4924.77      0.74242025     0.011790972
      4929.70      0.76339754     0.011844443
      4934.62      0.77606313     0.011723103
      4939.56      0.78980521     0.011691370
      4944.50      0.80669569     0.011746554
      4949.44      0.83007217     0.011626479
      4954.39      0.84602257     0.011597048
      4959.35      0.86252146     0.011564713
      4964.31      0.87746558     0.011535161
      4969.27      0.89454461     0.011505882
      4974.24      0.91582448     0.011476282
      4979.22      0.93125020     0.011449414
      4984.20      0.92011187     0.011420173
      4989.18      0.92598014     0.011393197
      4994.17      0.93631319     0.011284820
      4999.16      0.93217139     0.011339756
      5004.16      0.92458575     0.011231988
      5009.17      0.91169172     0.011288867
      5014.18      0.89934450     0.011181733
      5019.19      0.88280574     0.011160565
      5024.21      0.87077710     0.011134008
      5029.23      0.85281018     0.011113274
      5034.26      0.83536948     0.011170894
      5039.30      0.80756168     0.011068349
      5044.34      0.79942170     0.011050672
      5049.39      0.78497173     0.011025733
      5054.43      0.76999738     0.011008447
      5059.49      0.76135581     0.010985365
      5064.55      0.75332312     0.010968539
      5069.61      0.75256163     0.010947179
      5074.68      0.74477660     0.010930832
      5079.76      0.74644309     0.010833318
      5084.84      0.76201786     0.010895489
      5089.92      0.77242257     0.010799605
      5095.01      0.78453752     0.010862334
      5100.11      0.79289280     0.010767916
      5105.21      0.79767954     0.010831395
      5110.31      0.80354647     0.010738252
      5115.42      0.81141277     0.010726120
      5120.54      0.81453997     0.010710378
      5125.66      0.81263861     0.010622445
      5130.79      0.80835683     0.010684429
      5135.92      0.80551575     0.010597880
      5141.05      0.81741084     0.010660538
      5146.20      0.81684659     0.010575207
      5151.34      0.81584259     0.010638490
      5156.49      0.81419138     0.010554502
      5161.65      0.81162899     0.010618344
      5166.81      0.82129552     0.010535802
      5171.98      0.82971741     0.010526208
      5177.15      0.84484971     0.010519098
      5182.33      0.86757153     0.010510184
      5187.51      0.88190530     0.010504489
      5192.70      0.89353891     0.010496070
      5197.89      0.90079280     0.010415960
      5203.09      0.91189036     0.010483713
      5208.29      0.91122683     0.010404127
      5213.50      0.92123181     0.010473390
      5218.72      0.93537474     0.010468426
      5223.93      0.92864729     0.010391824
      5229.16      0.93902435     0.010460351
      5234.39      0.94824742     0.010383895
      5239.62      0.95332356     0.010454432
      5244.86      0.94924653     0.010378073
      5250.11      0.96127691     0.010378545
      5255.36      0.96939267     0.010374127
      5260.61      0.98055684     0.010374660
      5265.87       1.0014310     0.010302844
      5271.14       1.0159304     0.010372717
      5276.41       1.0385568     0.010375544
      5281.69       1.0538290     0.010372848
      5286.97       1.0547012     0.010375520
      5292.26       1.0639471     0.010305964
      5297.55       1.0782688     0.010377619
      5302.85       1.0876228     0.010382252
      5308.15       1.0822256     0.010312961
      5313.46       1.1009306     0.010386317
      5318.77       1.1094163     0.010319517
      5324.09       1.1084116     0.010323734
      5329.42       1.1169858     0.010398749
      5334.75       1.1117244     0.010332393
      5340.08       1.1100657     0.010338218
      5345.42       1.1192147     0.010272922
      5350.77       1.1374899     0.010348945
      5356.12       1.1507061     0.010356073
      5361.48       1.1600112     0.010291853
      5366.83       1.1757786     0.010368865
      5372.20       1.1845256     0.010304100
      5377.58       1.2013632     0.010313733
      5382.95       1.2058784     0.010392251
      5388.34       1.2009917     0.010328170
      5393.72       1.2084197     0.010339017
      5399.12       1.2110854     0.010351083
      5404.52       1.2100716     0.010355596
      5409.92       1.2070280     0.010367125
      5415.33       1.2089670     0.010380125
      5420.75       1.2121617     0.010319834
      5426.17       1.2059864     0.010398331
      5431.60       1.1948112     0.010411828
      5437.03       1.1996632     0.010353325
      5442.47       1.2042260     0.010366304
      5447.91       1.2180757     0.010446768
      5453.36       1.2248694     0.010390038
      5458.81       1.2443933     0.010403565
      5464.27       1.2583820     0.010418141
      5469.73       1.2865167     0.010500435
      5475.20       1.3113473     0.010443979
      5480.68       1.3391360     0.010459016
      5486.16       1.3643953     0.010474818
      5491.65       1.3792521     0.010418608
      5497.14       1.4021584     0.010502851
      5502.64       1.4206133     0.010519134
      5508.14       1.4364802     0.010536259
      5513.65       1.4378757     0.010480635
      5519.16       1.4351429     0.010499323
      5524.68       1.4308265     0.010584181
      5530.20       1.4062989     0.010602344
      5535.73       1.3811088     0.010546913
      5541.27       1.3511761     0.010566288
      5546.81       1.3084866     0.010586481
      5552.36       1.2611272     0.010607260
      5557.91       1.2053649     0.010617342
      5563.47       1.1543605     0.010637353
      5569.04       1.0976470     0.010658130
      5574.60       1.0521120     0.010679480
      5580.18       1.0162066     0.010626829
      5585.76      0.97804113     0.010647283
      5591.35      0.94790629     0.010733991
      5596.94      0.91920040     0.010755730
      5602.53      0.90279420     0.010778115
      5608.14      0.88904077     0.010726636
      5613.75      0.87532567     0.010748145
      5619.36      0.84631443     0.010770206
      5624.98      0.83994608     0.010792495
      5630.60      0.82967577     0.010815585
      5636.23      0.82294554     0.010832396
      5641.87      0.81070039     0.010854836
      5647.51      0.79821988     0.010877509
      5653.16      0.78849317     0.010900775
      5658.82      0.76959406     0.010924175
      5664.47      0.75419934     0.010873014
      5670.14      0.74032072     0.010896905
      5675.81      0.73052265     0.010921296
      5681.48      0.72720052     0.010945748
      5687.17      0.72930603     0.010970682
      5692.85      0.71731790     0.010995844
      5698.55      0.71479251     0.011021202
      5704.25      0.71135943     0.010970323
      5709.95      0.71286361     0.011060392
      5715.66      0.71083816     0.011085718
      5721.38      0.69706559     0.011111066
      5727.10      0.69070015     0.011136829
      5732.83      0.70267887     0.011162564
      5738.56      0.71473175     0.011188713
      5744.30      0.74227892     0.011214814
      5750.04      0.77122569     0.011166345
      5755.79      0.81267661     0.011191926
      5761.55      0.86667394     0.011217759
      5767.31      0.90939418     0.011243780
      5773.08      0.96773413     0.011269855
      5778.85       1.0349165     0.011296333
      5784.63       1.0956985     0.011323171
      5790.41       1.1683316     0.011351181
      5796.21       1.2351124     0.011379209
      5802.00       1.2977194     0.011407050
      5807.81       1.3628315     0.011434805
      5813.61       1.4164918     0.011463628
      5819.43       1.4604846     0.011417468
      5825.25       1.5086674     0.011452291
      5831.07       1.5540635     0.011489289
      5836.90       1.5973813     0.011526543
      5842.74       1.6520527     0.011564972
      5848.58       1.6880978     0.011604803
      5854.43       1.7261111     0.011643994
      5860.29       1.7601216     0.011678812
      5866.15       1.7884912     0.011710873
      5872.01       1.8139660     0.011741096
      5877.89       1.8366727     0.011701905
      5883.76       1.8578897     0.011728124
      5889.65       1.8765382     0.011752736
      5895.54       1.8821966     0.011777615
      5901.43       1.8966003     0.011803222
      5907.34       1.8980648     0.011829023
      5913.24       1.8975147     0.011853282
      5919.16       1.8818725     0.011876052
      5925.08       1.8614965     0.011897541
      5931.00       1.8380443     0.011918468
      5936.93       1.8189423     0.011939877
      5942.87       1.7973744     0.011960076
      5948.81       1.7616233     0.011907486
      5954.76       1.7439113     0.011926304
      5960.72       1.6950092     0.011948058
      5966.68       1.6684516     0.011970230
      5972.64       1.6459787     0.011990568
      5978.62       1.6160872     0.012011503
      5984.60       1.5841424     0.012034252
      5990.58       1.5526984     0.012058410
      5996.57       1.5204047     0.012015007
      6002.57       1.4918321     0.012118577
      6008.57       1.4712047     0.012143509
      6014.58       1.4405367     0.012168777
      6020.60       1.4055037     0.012193957
      6026.62       1.3760728     0.012219228
      6032.65       1.3362647     0.012244786
      6038.68       1.3076553     0.012201230
      6044.72       1.2675468     0.012226863
      6050.76       1.2398459     0.012252673
      6056.81       1.2191925     0.012278593
      6062.87       1.2037910     0.012304504
      6068.93       1.2069596     0.012258080
      6075.00       1.1992828     0.012361344
      6081.08       1.2037475     0.012386074
      6087.16       1.2061136     0.012410936
      6093.25       1.1984093     0.012435841
      6099.34       1.1968679     0.012389532
      6105.44       1.1889350     0.012412903
      6111.54       1.1931588     0.012436666
      6117.66       1.1966088     0.012460407
      6123.78       1.1930649     0.012564261
      6129.90       1.1729607     0.012517077
      6136.03       1.1671475     0.012539395
      6142.17       1.1693584     0.012561990
      6148.31       1.1603059     0.012584611
      6154.46       1.1618290     0.012537894
      6160.61       1.1613542     0.012639044
      6166.77       1.1803395     0.012660759
      6172.94       1.2103926     0.012684484
      6179.11       1.2488117     0.012644031
      6185.29       1.2832279     0.012669558
      6191.48       1.3156615     0.012767110
      6197.67       1.3488424     0.012721251
      6203.87       1.3739838     0.012752810
      6210.07       1.3964535     0.012791064
      6216.28       1.4134167     0.012835704
      6222.50       1.4201167     0.012896460
      6228.72       1.4223679     0.012945857
      6234.95       1.4159046     0.012993996
      6241.19       1.4079216     0.012966558
      6247.42       1.4027507     0.013000925
      6253.67       1.4015479     0.013109658
      6259.93       1.3996817     0.013050522
      6266.19       1.3868027     0.013054964
      6272.46       1.3796747     0.013053037
      6278.73       1.3787046     0.013049727
      6285.01       1.3737802     0.013041764
      6291.29       1.3731154     0.013040083
      6297.58       1.3690173     0.012973211
      6303.88       1.3634089     0.013056345
      6310.19       1.3557345     0.013056189
      6316.50       1.3484557     0.012987964
      6322.81       1.3414893     0.012996011
      6329.14       1.3222635     0.013078721
      6335.47       1.3072127     0.013013924
      6341.80       1.2880415     0.013023376
      6348.14       1.2680279     0.013036121
      6354.49       1.2582200     0.013045945
      6360.85       1.2492497     0.013057428
      6367.21       1.2483647     0.013072999
      6373.57       1.2465018     0.013085114
      6379.95       1.2465281     0.013098115
      6386.33       1.2529869     0.013113764
      6392.72       1.2628457     0.013126822
      6399.11       1.2797729     0.013069151
      6405.51       1.2918856     0.013086124
      6411.92       1.3145359     0.013115503
      6418.32       1.3345629     0.013134802
      6424.74       1.3530074     0.013231845
      6431.17       1.3685253     0.013175329
      6437.60       1.3897261     0.013189940
      6444.04       1.4039223     0.013210221
      6450.48       1.3962090     0.013218899
      6456.94       1.4020502     0.013153208
      6463.39       1.4036928     0.013232160
      6469.85       1.3942992     0.013160462
      6476.33       1.3778709     0.013161927
      6482.80       1.3430441     0.013164004
      6489.28       1.3054390     0.013166450
      6495.77       1.2577073     0.013171529
      6502.27       1.2237301     0.013173619
      6508.77       1.1916082     0.013100560
      6515.28       1.1541220     0.013173021
      6521.80       1.1268424     0.013096243
      6528.32       1.1090344     0.013166866
      6534.85       1.1030356     0.013091555
      6541.38       1.1017143     0.013161685
      6547.92       1.1186241     0.013082299
      6554.47       1.1482087     0.013074693
      6561.03       1.1870760     0.013072038
      6567.59       1.2224029     0.013067102
      6574.16       1.2701738     0.013066233
      6580.73       1.3269283     0.013061265
      6587.31       1.3801085     0.013060045
      6593.90       1.4142236     0.013054796
      6600.50       1.4509254     0.013052330
      6607.10       1.4725988     0.013045791
      6613.70       1.4906068     0.013041694
      6620.32       1.4960366     0.012963412
      6626.94       1.5088512     0.012958087
      6633.57       1.5093997     0.012949914
      6640.20       1.5012794     0.012943690
      6646.84       1.4977814     0.012933743
      6653.49       1.4900866     0.012853667
      6660.14       1.4800895     0.012915049
      6666.80       1.4788384     0.012904109
      6673.47       1.4743515     0.012893744
      6680.14       1.4665918     0.012880590
      6686.82       1.4591152     0.012797840
      6693.51       1.4533595     0.012854399
      6700.20       1.4522527     0.012769736
      6706.90       1.4372156     0.012825594
      6713.61       1.4209151     0.012738964
      6720.32       1.3970474     0.012722808
      6727.05       1.3770466     0.012705597
      6733.77       1.3618989     0.012687004
      6740.51       1.3361576     0.012600503
      6747.25       1.3103028     0.012649422
      6754.00       1.2938870     0.012640954
      6760.75       1.2764730     0.012599999
      6767.51       1.2548961     0.012676474
      6774.28       1.2294948     0.012580294
      6781.05       1.2073056     0.012555902
      6787.84       1.1891029     0.012582243
      6794.62       1.1658223     0.012660747
      6801.42       1.1423490     0.012787176
      6808.22       1.1254239     0.012916596
      6815.03       1.1150016     0.013098623
      6821.85       1.1036842     0.013282127
      6828.67       1.0916156     0.013349750
      6835.50       1.0701978     0.013520181
      6842.33       1.0453650     0.013472696
      6849.17       1.0156434     0.013432412
      6856.02      0.98803249     0.013315217
      6862.88      0.97411466     0.013173125
      6869.74      0.95746193     0.012969927
      6876.61      0.95026482     0.012763658
      6883.49      0.95985719     0.012539645
      6890.37      0.97500678     0.012484871
      6897.27      0.99740391     0.012370783
      6904.16       1.0377481     0.012177339
      6911.07       1.0765631     0.012054844
      6917.98       1.1252255     0.012035500
      6924.89       1.1799014     0.011892992
      6931.82       1.2363885     0.011810157
      6938.75       1.2900025     0.011736702
      6945.69       1.3427527     0.011684554
      6952.64       1.3919919     0.011624413
      6959.59       1.4292089     0.011568434
      6966.55       1.4573238     0.011512747
      6973.52       1.4685406     0.011398136
      6980.49       1.4867085     0.011334420
      6987.47       1.5036519     0.011212761
      6994.46       1.5152985     0.011026391
      7001.46       1.5330942     0.010904583
      7008.46       1.5436209     0.010727258
      7015.46       1.5677582     0.010555722
      7022.48       1.5893145     0.010344703
      7029.51       1.6127628     0.010234638
      7036.53       1.6324386     0.010074718
      7043.57       1.6505307    0.0099261702
      7050.62       1.6697354    0.0098368099
      7057.66       1.6805878    0.0096991437
      7064.72       1.6943522    0.0095604089
      7071.79       1.6971760    0.0094224749
      7078.86       1.6928645    0.0092918309
      7085.94       1.6821615    0.0092183635
      7093.03       1.6664879    0.0090947734
      7100.12       1.6545176    0.0090295796
      7107.22       1.6459082    0.0089658442
      7114.33       1.6349403    0.0088905758
      7121.44       1.6284274    0.0088434669
      7128.56       1.6230738    0.0087537635
      7135.69       1.6155377    0.0086595110
      7142.83       1.6183361    0.0085548506
      7149.97       1.6162133    0.0084442899
      7157.12       1.6170550    0.0083271034
      7164.28       1.6166097    0.0082398657
      7171.44       1.6247792    0.0081076271
      7178.62       1.6394314    0.0079685819
      7185.80       1.6591683    0.0078080382
      7192.98       1.6793694    0.0076669368
      7200.17       1.7047477    0.0075243360
      7207.38       1.7314053    0.0073795358
      7214.58       1.7485174    0.0072319525
      7221.80       1.7662569    0.0070825698
      7229.02       1.7684678    0.0069337160
      7236.25       1.7660555    0.0068194039
      7243.49       1.7714010    0.0066711506
      7250.73       1.7696614    0.0065225423
      7257.98       1.7621910    0.0065367192
      7265.24       1.7522036    0.0065962560
      7272.51       1.7361486    0.0066715120
      7279.78       1.7175788    0.0067673738
      7287.06       1.6926495    0.0068908790
      7294.35       1.6654902    0.0070530187
      7301.64       1.6311910    0.0072718219
      7308.94       1.5962451    0.0075728263
      7316.25       1.5574935    0.0079842949
      7323.57       1.5145481    0.0085366221
      7330.89       1.4658057    0.0092594162
      7338.22       1.4104620     0.010199460
      7345.56       1.3495213     0.011416435
      7352.91       1.2837107     0.012977764
      7360.26       1.2138301     0.014968364
      7367.62       1.1442612     0.017479473
