# starting wavelength =        3404.1500
# ending wavelength =        8586.0600
# O2 telluric scale =        0
# O2 telluric shift =        0
# H2O telluric scale =        0
# H2O telluric shift =        0
      3405.68     0.066353864    0.0087971662
      3409.09     0.064622085    0.0074323121
      3412.49     0.065324619    0.0063703370
      3415.91     0.064805877    0.0053403262
      3419.32     0.065061049    0.0047318561
      3422.74     0.066205067    0.0042621057
      3426.17     0.066270606    0.0038971370
      3429.59     0.065884967    0.0036867042
      3433.02     0.066377500    0.0034498366
      3436.45     0.066634681    0.0032625890
      3439.89     0.067134425    0.0030831149
      3443.33     0.067040420    0.0029738560
      3446.78     0.067224670    0.0028834727
      3450.22     0.067472187    0.0028324227
      3453.67     0.068835326    0.0027652903
      3457.13     0.069433291    0.0027071886
      3460.58     0.070556409    0.0026681559
      3464.04     0.069640072    0.0026253842
      3467.51     0.069860852    0.0025869585
      3470.98     0.070765571    0.0025718228
      3474.45     0.071005172    0.0025956426
      3477.92     0.071183592    0.0026013200
      3481.40     0.069578708    0.0026070914
      3484.88     0.068282596    0.0026306869
      3488.37     0.068817635    0.0026367472
      3491.86     0.068240281    0.0026429013
      3495.35     0.070270525    0.0026492084
      3498.84     0.069198180    0.0026731655
      3502.34     0.069466543    0.0026566549
      3505.84     0.071376042    0.0026626607
      3509.35     0.071838250    0.0026878637
      3512.86     0.073700383    0.0026935104
      3516.37     0.073750348    0.0026992382
      3519.89     0.073128483    0.0027050786
      3523.41     0.070832758    0.0027301098
      3526.93     0.071652344    0.0027362277
      3530.46     0.072189532    0.0027424611
      3533.99     0.072725182    0.0027681471
      3537.53     0.073448918    0.0027740010
      3541.06     0.074236598    0.0027560114
      3544.60     0.077135146    0.0027620106
      3548.15     0.078173166    0.0027887672
      3551.70     0.078474012    0.0027943904
      3555.25     0.080879972    0.0028001182
      3558.80     0.083894456    0.0028059478
      3562.36     0.086007116    0.0028322801
      3565.92     0.086884542    0.0028383558
      3569.49     0.087257424    0.0028445082
      3573.06     0.090825458    0.0028507605
      3576.64     0.091910213    0.0028780029
      3580.21     0.093564945    0.0028838636
      3583.79     0.092192822    0.0028897758
      3587.38     0.093343683    0.0028957841
      3590.96     0.093077146    0.0029237427
      3594.55     0.093257216    0.0029299734
      3598.15     0.092954603    0.0029100572
      3601.75     0.092530724    0.0029158145
      3605.35     0.093342346    0.0029436469
      3608.96     0.091698307    0.0029495559
      3612.56     0.090110059    0.0029555642
      3616.18     0.087198164    0.0029616422
      3619.79     0.087052833    0.0029915735
      3623.41     0.085215358    0.0029972500
      3627.04     0.083476049    0.0030030484
      3630.66     0.082082035    0.0030088781
      3634.29     0.079403096    0.0030147394
      3637.93     0.077740425    0.0030443390
      3641.57     0.076691552    0.0030503810
      3645.21     0.075523929    0.0030564994
      3648.86     0.075168658    0.0030626879
      3652.50     0.075548356    0.0030939661
      3656.16     0.075900725    0.0030997845
      3659.81     0.075790778    0.0031056218
      3663.47     0.075216042    0.0031115258
      3667.14     0.074819096    0.0031174867
      3670.80     0.073434538    0.0031487946
      3674.48     0.071631992    0.0031549122
      3678.15     0.069984686    0.0031610409
      3681.83     0.068813988    0.0031672731
      3685.51     0.068247085    0.0031734985
      3689.20     0.065897774    0.0032065350
      3692.88     0.063895482    0.0032123688
      3696.58     0.062306180    0.0032182529
      3700.27     0.058933603    0.0032241917
      3703.98     0.056409931    0.0032301131
      3707.68     0.053496634    0.0032634326
      3711.39     0.051813329    0.0032694931
      3715.10     0.047787932    0.0032756754
      3718.81     0.045214212    0.0032818816
      3722.53     0.043623566    0.0032880634
      3726.26     0.041854110    0.0033239401
      3729.98     0.040070509    0.0033297417
      3733.71     0.038981925    0.0033355918
      3737.45     0.038667315    0.0033414885
      3741.18     0.035658421    0.0033474335
      3744.93     0.036657304    0.0034186173
      3748.67     0.037111476    0.0034247297
      3752.42     0.038084779    0.0034307972
      3756.17     0.038012878    0.0034368853
      3759.93     0.038029348    0.0034430696
      3763.69     0.039308180    0.0034492197
      3767.45     0.040176875    0.0034869263
      3771.22     0.040868687    0.0034931799
      3774.99     0.041911562    0.0034994501
      3778.77     0.043017187    0.0035056494
      3782.54     0.044277193    0.0035119187
      3786.33     0.047938413    0.0035182226
      3790.11     0.051397758    0.0035588229
      3793.90     0.052802364    0.0035648048
      3797.70     0.054273989    0.0035708232
      3801.50     0.059332768    0.0035768662
      3805.30     0.063615577    0.0036230334
      3809.10     0.065022850    0.0036293856
      3812.91     0.068633659    0.0036707873
      3816.73     0.071515322    0.0036769937
      3820.54     0.074128388    0.0036831367
      3824.36     0.078027803    0.0036893042
      3828.19     0.080875812    0.0036955009
      3832.02     0.084174222    0.0037016969
      3835.85     0.088893226    0.0037077955
      3839.68     0.095571760    0.0037508814
      3843.52      0.10206867    0.0038020535
      3847.37      0.10936933    0.0038084078
      3851.22      0.11764756    0.0038146827
      3855.07      0.12851522    0.0038208765
      3858.92      0.13785865    0.0038271848
      3862.78      0.14908089    0.0038334518
      3866.64      0.15858767    0.0038795980
      3870.51      0.16923767    0.0038858940
      3874.38      0.18088244    0.0038922498
      3878.26      0.18925497    0.0039473070
      3882.13      0.19994493    0.0039536616
      3886.02      0.21129178    0.0039599328
      3889.90      0.21941503    0.0039662845
      3893.79      0.22714242    0.0039726418
      3897.69      0.23341163    0.0040223135
      3901.59      0.23758211    0.0040286347
      3905.49      0.24024726    0.0040879986
      3909.39      0.24200183    0.0040944539
      3913.30      0.24558368    0.0041007814
      3917.22      0.24730320    0.0041072554
      3921.13      0.25180630    0.0041137411
      3925.06      0.25934677    0.0041202558
      3928.98      0.26535915    0.0041266547
      3932.91      0.27341109    0.0041330831
      3936.84      0.28260226    0.0041395488
      3940.78      0.29262172    0.0041458875
      3944.72      0.30137389    0.0041524036
      3948.67      0.31086803    0.0041589497
      3952.61      0.31879634    0.0041655228
      3956.57      0.32900674    0.0041720185
      3960.52      0.33948672    0.0041785653
      3964.48      0.34843205    0.0041851731
      3968.45      0.35674742    0.0041916579
      3972.42      0.36708789    0.0041983581
      3976.39      0.37348614    0.0041535945
      3980.37      0.37868633    0.0042142104
      3984.35      0.38371512    0.0042203331
      3988.33      0.38808443    0.0042263679
      3992.32      0.39070519    0.0042324172
      3996.31      0.39414335    0.0042385129
      4000.31      0.39386080    0.0042447080
      4004.31      0.39415176    0.0042509763
      4008.31      0.39244798    0.0042573013
      4012.32      0.39133364    0.0042637009
      4016.33      0.39050025    0.0042700316
      4020.35      0.38594221    0.0042764467
      4024.37      0.37887977    0.0042334124
      4028.40      0.37311479    0.0042389986
      4032.42      0.36974553    0.0042446390
      4036.46      0.36296111    0.0042502479
      4040.50      0.35580178    0.0042560791
      4044.54      0.34936243    0.0042618922
      4048.58      0.34354230    0.0042676646
      4052.63      0.33949282    0.0042737032
      4056.68      0.33190847    0.0043356880
      4060.74      0.33052167    0.0042947942
      4064.80      0.32827618    0.0042998562
      4068.86      0.32725498    0.0043049056
      4072.93      0.32709447    0.0043102189
      4077.01      0.32372184    0.0043155480
      4081.08      0.32407918    0.0043208835
      4085.17      0.32226696    0.0043264952
      4089.25      0.32261928    0.0043323938
      4093.34      0.32428849    0.0042914114
      4097.43      0.32166647    0.0042973777
      4101.53      0.31730723    0.0043035345
      4105.63      0.31623231    0.0043633711
      4109.74      0.31227053    0.0043683073
      4113.85      0.31008925    0.0043735462
      4117.96      0.30704508    0.0043788650
      4122.08      0.30560239    0.0043370342
      4126.20      0.30361389    0.0043427851
      4130.33      0.30106592    0.0043486570
      4134.46      0.29894970    0.0043547594
      4138.59      0.29847102    0.0043610941
      4142.73      0.29880319    0.0044197984
      4146.88      0.29643165    0.0044249524
      4151.02      0.29246269    0.0043823303
      4155.18      0.28868752    0.0043879025
      4159.33      0.28781190    0.0043937423
      4163.49      0.28482965    0.0043997462
      4167.65      0.28066551    0.0044061429
      4171.82      0.27614416    0.0044128456
      4175.99      0.26683633    0.0044216898
      4180.17      0.26124973    0.0044270155
      4184.35      0.25795046    0.0044325417
      4188.54      0.25764718    0.0044384156
      4192.72      0.26052657    0.0044446360
      4196.92      0.26176319    0.0044007600
      4201.11      0.26570320    0.0044055969
      4205.31      0.26968680    0.0044657047
      4209.52      0.27352375    0.0044712622
      4213.73      0.27984903    0.0044772233
      4217.94      0.28302495    0.0044343858
      4222.16      0.28642930    0.0044387998
      4226.38      0.28892892    0.0044435749
      4230.61      0.29350106    0.0044487486
      4234.84      0.29877036    0.0045097838
      4239.08      0.29922817    0.0044674236
      4243.32      0.29841926    0.0044715091
      4247.56      0.29556340    0.0044759106
      4251.81      0.29434120    0.0044809186
      4256.06      0.29145830    0.0044863583
      4260.32      0.28863325    0.0044998649
      4264.58      0.28595566    0.0045037980
      4268.84      0.28435060    0.0045081297
      4273.11      0.28213755    0.0045130047
      4277.38      0.28133622    0.0044715610
      4281.66      0.27997743    0.0045315886
      4285.94      0.27652490    0.0045354930
      4290.23      0.27278977    0.0045398455
      4294.52      0.26935698    0.0045447995
      4298.81      0.26465468    0.0045031603
      4303.11      0.25974538    0.0045627492
      4307.42      0.25793807    0.0045665720
      4311.72      0.25649036    0.0045711747
      4316.04      0.25438016    0.0045289229
      4320.35      0.25072721    0.0045348017
      4324.67      0.25071269    0.0045934716
      4329.00      0.24993381    0.0045976412
      4333.33      0.25416735    0.0045547123
      4337.66      0.25704908    0.0045602920
      4342.00      0.25993083    0.0045666828
      4346.34      0.26457396    0.0045758603
      4350.69      0.27056166    0.0045806003
      4355.04      0.27660245    0.0045859748
      4359.39      0.28219914    0.0045922157
      4363.75      0.28403913    0.0046013504
      4368.12      0.28741846    0.0046061571
      4372.48      0.29015602    0.0046116524
      4376.86      0.29348306    0.0046178507
      4381.23      0.29336577    0.0045726614
      4385.61      0.29377035    0.0046316890
      4390.00      0.29356889    0.0046372467
      4394.39      0.28956623    0.0045935553
      4398.79      0.28751882    0.0045975977
      4403.18      0.28391974    0.0046570488
      4407.59      0.28358283    0.0046629620
      4412.00      0.28103295    0.0046182048
      4416.41      0.28078812    0.0046224572
      4420.82      0.27909266    0.0046825260
      4425.25      0.27940870    0.0046389191
      4429.67      0.28135643    0.0046426544
      4434.10      0.28649256    0.0046473822
      4438.54      0.29521415    0.0046598152
      4442.97      0.30305478    0.0046629592
      4447.42      0.31261002    0.0046671567
      4451.86      0.32426936    0.0046805618
      4456.32      0.33864127    0.0046833287
      4460.77      0.35198652    0.0046871678
      4465.24      0.36543136    0.0046453159
      4469.70      0.38264554    0.0047036473
      4474.17      0.39733389    0.0047071302
      4478.65      0.41145662    0.0046647385
      4483.12      0.42654467    0.0047238074
      4487.61      0.44040569    0.0047269365
      4492.09      0.45232771    0.0046840657
      4496.59      0.46112128    0.0046895553
      4501.08      0.47065307    0.0047466676
      4505.58      0.48015489    0.0047034350
      4510.09      0.48812631    0.0047087470
      4514.60      0.49803002    0.0047662605
      4519.12      0.50965091    0.0047227254
      4523.63      0.52041557    0.0047280828
      4528.16      0.52902537    0.0047857477
      4532.69      0.54096009    0.0047421769
      4537.22      0.54921005    0.0047473714
      4541.76      0.56098832    0.0048051461
      4546.30      0.57186364    0.0047612693
      4550.85      0.58322915    0.0047667864
      4555.40      0.59506899    0.0047226444
      4559.95      0.60675713    0.0047804376
      4564.51      0.61567758    0.0047861195
      4569.08      0.62423353    0.0047413182
      4573.65      0.63073472    0.0047996103
      4578.22      0.63655775    0.0048056542
      4582.80      0.64194652    0.0048139404
      4587.38      0.64783762    0.0048187987
      4591.97      0.65441725    0.0047749942
      4596.56      0.65840415    0.0048328467
      4601.16      0.66330536    0.0048381807
      4605.76      0.66397697    0.0047933234
      4610.37      0.66334674    0.0048518789
      4614.98      0.66271657    0.0048085756
      4619.59      0.66570663    0.0048116809
      4624.21      0.66567198    0.0048710508
      4628.84      0.66711723    0.0048263745
      4633.47      0.66669957    0.0048302855
      4638.10      0.66592297    0.0048416753
      4642.74      0.66410302    0.0048445754
      4647.38      0.66438819    0.0048573602
      4652.03      0.66225574    0.0048592296
      4656.68      0.66025537    0.0048628550
      4661.34      0.65554250    0.0048742685
      4666.00      0.65408234    0.0048771117
      4670.67      0.65054946    0.0048350554
      4675.33      0.64634137    0.0048916364
      4680.01      0.64235729    0.0048486550
      4684.69      0.63525166    0.0049065232
      4689.38      0.62758007    0.0049094573
      4694.07      0.61797463    0.0048675819
      4698.76      0.60933179    0.0049238055
      4703.46      0.60122695    0.0048808693
      4708.16      0.59646091    0.0049382579
      4712.87      0.58889512    0.0048945000
      4717.58      0.57741901    0.0049000957
      4722.30      0.56731110    0.0049082979
      4727.03      0.55963687    0.0049133587
      4731.75      0.55063651    0.0049221650
      4736.48      0.54318424    0.0049266466
      4741.22      0.53349469    0.0049333420
      4745.96      0.52250311    0.0049402142
      4750.71      0.51165613    0.0049463405
      4755.46      0.50153254    0.0049539036
      4760.22      0.49036079    0.0049596439
      4764.97      0.47951554    0.0049675891
      4769.74      0.46833922    0.0049728758
      4774.51      0.45620453    0.0049814416
      4779.29      0.44487589    0.0049863158
      4784.07      0.43402014    0.0049414980
      4788.85      0.42300641    0.0049997194
      4793.64      0.41496844    0.0049551085
      4798.43      0.40645582    0.0050131618
      4803.23      0.39895256    0.0049687590
      4808.03      0.39267820    0.0050267318
      4812.84      0.39288120    0.0049823603
      4817.66      0.39274073    0.0050402650
      4822.48      0.39301694    0.0049959423
      4827.30      0.39399241    0.0050539092
      4832.12      0.39462955    0.0050095050
      4836.96      0.39385187    0.0050132009
      4841.79      0.39192633    0.0050230838
      4846.63      0.39331233    0.0050265896
      4851.48      0.39103654    0.0050364505
      4856.33      0.39272302    0.0049936044
      4861.19      0.39629915    0.0050498294
      4866.05      0.40209851    0.0050068977
      4870.92      0.40872653    0.0050630827
      4875.79      0.41951747    0.0050201751
      4880.66      0.43418998    0.0050763840
      4885.55      0.45364774    0.0050335981
      4890.43      0.47328360    0.0050896695
      4895.32      0.49676811    0.0050470335
      4900.22      0.52477992    0.0051029343
      4905.12      0.55220292    0.0050604576
      4910.02      0.58313114    0.0050690677
      4914.94      0.61178497    0.0050740019
      4919.85      0.64012162    0.0050822726
      4924.77      0.66629479    0.0050875813
      4929.70      0.68988872    0.0050953627
      4934.62      0.70915303    0.0051012486
      4939.56      0.72855813    0.0051086984
      4944.50      0.74314097    0.0051151619
      4949.44      0.75730063    0.0051221402
      4954.39      0.76595775    0.0050782464
      4959.35      0.77050105    0.0051356051
      4964.31      0.77128261    0.0051441496
      4969.27      0.76709326    0.0051492949
      4974.24      0.75995800    0.0051573587
      4979.22      0.74276924    0.0051141005
      4984.20      0.72569680    0.0051707406
      4989.18      0.70207653    0.0051266039
      4994.17      0.67700585    0.0051843082
      4999.16      0.65090248    0.0051393953
      5004.16      0.62534994    0.0051497345
      5009.17      0.59988760    0.0051524169
      5014.18      0.57450455    0.0051620016
      5019.19      0.55658843    0.0052195087
      5024.21      0.54135337    0.0051745123
      5029.23      0.52725242    0.0051850846
      5034.26      0.52078198    0.0051874831
      5039.30      0.52160961    0.0051970955
      5044.34      0.52524881    0.0051546013
      5049.39      0.53064368    0.0052095629
      5054.43      0.54093233    0.0052201206
      5059.49      0.55074753    0.0052225289
      5064.55      0.56306484    0.0052320975
      5069.61      0.57459402    0.0051894457
      5074.68      0.58659276    0.0052445600
      5079.76      0.60087333    0.0052547316
      5084.84      0.61043792    0.0052110244
      5089.92      0.61778216    0.0052668644
      5095.01      0.62661789    0.0052246693
      5100.11      0.63313449    0.0052326919
      5105.21      0.63785928    0.0052891464
      5110.31      0.64642537    0.0052461664
      5115.42      0.65393229    0.0052546496
      5120.54      0.65657475    0.0052603227
      5125.66      0.66044679    0.0052677358
      5130.79      0.66615866    0.0052764701
      5135.92      0.67137406    0.0052817415
      5141.05      0.67456131    0.0052895281
      5146.20      0.67516780    0.0052984672
      5151.34      0.67954982    0.0053034323
      5156.49      0.68110599    0.0053112938
      5161.65      0.68371587    0.0052675229
      5166.81      0.68714532    0.0053252683
      5171.98      0.69003753    0.0053331964
      5177.15      0.69341027    0.0052892643
      5182.33      0.69666460    0.0052991358
      5187.51      0.70084853    0.0053550683
      5192.70      0.71228610    0.0053108608
      5197.89      0.72334045    0.0053207216
      5203.09      0.73578956    0.0053771026
      5208.29      0.75132182    0.0053324559
      5213.50      0.76604495    0.0053421042
      5218.72      0.78289677    0.0053527066
      5223.93      0.79912099    0.0053542006
      5229.16      0.81499998    0.0053636226
      5234.39      0.83201156    0.0053738989
      5239.62      0.84730780    0.0053758684
      5244.86      0.86300584    0.0053849814
      5250.11      0.87749513    0.0053949964
      5255.36      0.88708871    0.0053517085
      5260.61      0.89852195    0.0054065775
      5265.87      0.90797003    0.0054160760
      5271.14      0.91743767    0.0053736075
      5276.41      0.92533027    0.0053818627
      5281.69      0.93539951    0.0054374383
      5286.97      0.94523130    0.0054473267
      5292.26      0.95880330    0.0054039042
      5297.55      0.96846069    0.0054123493
      5302.85      0.97762719    0.0054683371
      5308.15      0.98626977    0.0054263154
      5313.46      0.99327109    0.0054343613
      5318.77      0.99925072    0.0054429906
      5324.09      0.99966391    0.0054492232
      5329.42       1.0002378    0.0054567024
      5334.75       1.0029292    0.0054648759
      5340.08       1.0002165    0.0054735863
      5345.42      0.99845589    0.0054304481
      5350.77      0.99232026    0.0054874069
      5356.12      0.98809082    0.0054954910
      5361.48      0.98333677    0.0055042006
      5366.83      0.98057718    0.0054607333
      5372.20      0.98090318    0.0054702961
      5377.58      0.98086323    0.0055264973
      5382.95      0.98393848    0.0055349047
      5388.34      0.98806738    0.0054910056
      5393.72      0.99958598    0.0055003755
      5399.12       1.0108599    0.0055101528
      5404.52       1.0241613    0.0055660253
      5409.92       1.0384912    0.0055214273
      5415.33       1.0577702    0.0055304637
      5420.75       1.0761739    0.0055399758
      5426.17       1.0935281    0.0055499367
      5431.60       1.1166710    0.0055065561
      5437.03       1.1343975    0.0055609994
      5442.47       1.1507675    0.0055701321
      5447.91       1.1657397    0.0055795727
      5453.36       1.1760163    0.0055893261
      5458.81       1.1851704    0.0055460078
      5464.27       1.1872045    0.0055544962
      5469.73       1.1859566    0.0056097211
      5475.20       1.1816625    0.0056190030
      5480.68       1.1705810    0.0056285472
      5486.16       1.1594828    0.0055858187
      5491.65       1.1498474    0.0055941757
      5497.14       1.1388735    0.0056028661
      5502.64       1.1287464    0.0056118857
      5508.14       1.1198806    0.0056679368
      5513.65       1.1120964    0.0056264403
      5519.16       1.1084914    0.0056346498
      5524.68       1.1042609    0.0056431116
      5530.20       1.1025664    0.0056518045
      5535.73       1.1048460    0.0056606737
      5541.27       1.1044237    0.0056697523
      5546.81       1.1070203    0.0056265124
      5552.36       1.1076500    0.0056358419
      5557.91       1.1093138    0.0056925402
      5563.47       1.1084258    0.0057010999
      5569.04       1.1027214    0.0057097962
      5574.60       1.0945779    0.0057186161
      5580.18       1.0852515    0.0056748502
      5585.76       1.0707084    0.0056839978
      5591.35       1.0550532    0.0056932400
      5596.94       1.0326565    0.0057025739
      5602.53       1.0027120    0.0057120074
      5608.14      0.96656319    0.0057215617
      5613.75      0.92386803    0.0057312367
      5619.36      0.87796042    0.0057330416
      5624.98      0.82786159    0.0057419183
      5630.60      0.77331990    0.0057508528
      5636.23      0.71865680    0.0057600476
      5641.87      0.66744293    0.0057692717
      5647.51      0.61934192    0.0057785487
      5653.16      0.57808962    0.0057878712
      5658.82      0.53950506    0.0057972328
      5664.47      0.51347415    0.0058066828
      5670.14      0.49751432    0.0057639975
      5675.81      0.48995724    0.0057728165
      5681.48      0.49364226    0.0057816765
      5687.17      0.51046381    0.0057905704
      5692.85      0.53456253    0.0057995268
      5698.55      0.56466404    0.0058085774
      5704.25      0.59686879    0.0058176531
      5709.95      0.63732217    0.0058267577
      5715.66      0.67761334    0.0058358656
      5721.38      0.72487428    0.0058451396
      5727.10      0.77348866    0.0058544174
      5732.83      0.81657824    0.0058113766
      5738.56      0.86146325    0.0058205483
      5744.30      0.90669282    0.0058297705
      5750.04      0.95214822    0.0058390110
      5755.79      0.99260857    0.0058482411
      5761.55       1.0326494    0.0058574528
      5767.31       1.0717797    0.0058666633
      5773.08       1.1119218    0.0058759375
      5778.85       1.1466725    0.0058855660
      5784.63       1.1815560    0.0058955258
      5790.41       1.2141504    0.0059055219
      5796.21       1.2483254    0.0059152068
      5802.00       1.2724406    0.0059250895
      5807.81       1.2893053    0.0059356469
      5813.61       1.3079392    0.0059476575
      5819.43       1.3229700    0.0059614637
      5825.25       1.3336313    0.0059760661
      5831.07       1.3459094    0.0059907383
      5836.90       1.3520623    0.0060060421
      5842.74       1.3499296    0.0060219910
      5848.58       1.3507814    0.0060369772
      5854.43       1.3516038    0.0060497427
      5860.29       1.3507308    0.0060612221
      5866.15       1.3499098    0.0060718071
      5872.01       1.3506774    0.0060814488
      5877.89       1.3524250    0.0060900445
      5883.76       1.3530301    0.0060981056
      5889.65       1.3509068    0.0061063092
      5895.54       1.3538392    0.0060676621
      5901.43       1.3504168    0.0060760881
      5907.34       1.3508096    0.0060837129
      5913.24       1.3396256    0.0060906385
      5919.16       1.3298889    0.0060969925
      5925.08       1.3222580    0.0061032869
      5931.00       1.3088944    0.0061097165
      5936.93       1.2974089    0.0061154395
      5942.87       1.2828532    0.0061205114
      5948.81       1.2670483    0.0061264945
      5954.76       1.2491996    0.0061338566
      5960.72       1.2325514    0.0060932963
      5966.68       1.2185885    0.0060992442
      5972.64       1.2022504    0.0061057534
      5978.62       1.1875297    0.0061133310
      5984.60       1.1769551    0.0061215593
      5990.58       1.1655554    0.0061300639
      5996.57       1.1553295    0.0061388992
      6002.57       1.1515083    0.0061481618
      6008.57       1.1484638    0.0061576992
      6014.58       1.1436993    0.0061212559
      6020.60       1.1420883    0.0061830824
      6026.62       1.1348477    0.0061920546
      6032.65       1.1350586    0.0062012787
      6038.68       1.1331430    0.0062106359
      6044.72       1.1305955    0.0062201214
      6050.76       1.1279249    0.0062297886
      6056.81       1.1200184    0.0061930243
      6062.87       1.1150324    0.0062028950
      6068.93       1.1087782    0.0062129122
      6075.00       1.1021362    0.0062230932
      6081.08       1.0963292    0.0062334412
      6087.16       1.0921134    0.0062939520
      6093.25       1.0912868    0.0062566480
      6099.34       1.0971221    0.0062664291
      6105.44       1.1025808    0.0062763937
      6111.54       1.1149909    0.0062866024
      6117.66       1.1289018    0.0062970990
      6123.78       1.1421416    0.0062587562
      6129.90       1.1528712    0.0062682323
      6136.03       1.1617142    0.0063309212
      6142.17       1.1663340    0.0063409162
      6148.31       1.1698896    0.0063512478
      6154.46       1.1627571    0.0063138293
      6160.61       1.1568037    0.0063234185
      6166.77       1.1428420    0.0063343830
      6172.94       1.1248011    0.0063474187
      6179.11       1.1026358    0.0064135573
      6185.29       1.0788358    0.0063750968
      6191.48       1.0561641    0.0063868331
      6197.67       1.0292731    0.0064022235
      6203.87       1.0103797    0.0064210506
      6210.07      0.99416869    0.0063986159
      6216.28      0.98101898    0.0064787731
      6222.50      0.97234199    0.0065029119
      6228.72      0.96789201    0.0065264946
      6234.95      0.96025830    0.0065013145
      6241.19      0.95418488    0.0065194667
      6247.42      0.94963111    0.0065876077
      6253.67      0.94697854    0.0065948763
      6259.93      0.94438836    0.0065493734
      6266.19      0.94403278    0.0065497661
      6272.46      0.94323206    0.0065487483
      6278.73      0.94745820    0.0065970844
      6285.01      0.94983283    0.0065501070
      6291.29      0.95543286    0.0065555918
      6297.58      0.96340398    0.0065608406
      6303.88      0.97667703    0.0065149680
      6310.19      0.98940531    0.0065717055
      6316.50      0.99954513    0.0065781244
      6322.81       1.0169202    0.0065853650
      6329.14       1.0299176    0.0065435799
      6335.47       1.0451842    0.0066038045
      6341.80       1.0595109    0.0066122374
      6348.14       1.0675739    0.0065730964
      6354.49       1.0740622    0.0065816132
      6360.85       1.0816693    0.0066450863
      6367.21       1.0846612    0.0066085565
      6373.57       1.0881005    0.0066177626
      6379.95       1.0821229    0.0066279812
      6386.33       1.0735443    0.0066477926
      6392.72       1.0559245    0.0066591182
      6399.11       1.0370380    0.0066728329
      6405.51       1.0141243    0.0066431822
      6411.92      0.99008259    0.0067136652
      6418.32      0.96526146    0.0067276454
      6424.74      0.93897775    0.0066950257
      6431.17      0.91699481    0.0067099328
      6437.60      0.89233909    0.0067768221
      6444.04      0.87174388    0.0067411359
      6450.48      0.85682171    0.0067520899
      6456.94      0.85285373    0.0068138068
      6463.39      0.85532031    0.0067739679
      6469.85      0.85809834    0.0067828596
      6476.33      0.86937241    0.0068443732
      6482.80      0.88935179    0.0068056075
      6489.28      0.91508906    0.0068165977
      6495.77      0.94497398    0.0068315246
      6502.27      0.97181098    0.0068404603
      6508.77      0.99986397    0.0068497499
      6515.28       1.0274484    0.0068078910
      6521.80       1.0580516    0.0068700892
      6528.32       1.0837259    0.0068308400
      6534.85       1.1109759    0.0068389476
      6541.38       1.1393694    0.0069006326
      6547.92       1.1713980    0.0068594140
      6554.47       1.2018037    0.0069224764
      6561.03       1.2293375    0.0068845579
      6567.59       1.2615539    0.0068939770
      6574.16       1.2948665    0.0069595147
      6580.73       1.3267903    0.0069216036
      6587.31       1.3469790    0.0069321233
      6593.90       1.3637638    0.0069500319
      6600.50       1.3809974    0.0069598779
      6607.10       1.4024221    0.0069238936
      6613.70       1.4119454    0.0069882745
      6620.32       1.4093831    0.0069517310
      6626.94       1.4103876    0.0070174033
      6633.57       1.4114852    0.0070278778
      6640.20       1.4069988    0.0069920514
      6646.84       1.3968681    0.0070567271
      6653.49       1.3881831    0.0070202211
      6660.14       1.3766310    0.0070859033
      6666.80       1.3722422    0.0070488431
      6673.47       1.3703976    0.0070613930
      6680.14       1.3689186    0.0070775387
      6686.82       1.3675848    0.0070898716
      6693.51       1.3717629    0.0071066007
      6700.20       1.3726296    0.0071185532
      6706.90       1.3712057    0.0070810805
      6713.61       1.3647502    0.0071476111
      6720.32       1.3642964    0.0071102748
      6727.05       1.3587891    0.0071768233
      6733.77       1.3449291    0.0071395846
      6740.51       1.3215851    0.0072068156
      6747.25       1.2987377    0.0071782195
      6754.00       1.2798832    0.0072675618
      6760.75       1.2550010    0.0072472986
      6767.51       1.2219890    0.0072517822
      6774.28       1.1823727    0.0072757048
      6781.05       1.1452563    0.0073167814
      6787.84       1.1028329    0.0074054710
      6794.62       1.0691280    0.0074899439
      6801.42       1.0340333    0.0076297485
      6808.22       1.0042233    0.0077029875
      6815.03      0.97369050    0.0078988352
      6821.85      0.95050408    0.0079549485
      6828.67      0.93762503    0.0081160307
      6835.50      0.93237278    0.0081076336
      6842.33      0.93118467    0.0081871502
      6849.17      0.94666615    0.0081008981
      6856.02      0.95830057    0.0080971921
      6862.88      0.98522615    0.0079677730
      6869.74       1.0204645    0.0078779011
      6876.61       1.0550341    0.0078238053
      6883.49       1.0982982    0.0077879523
      6890.37       1.1353878    0.0077659782
      6897.27       1.1701841    0.0077156209
      6904.16       1.2045870    0.0076360710
      6911.07       1.2409269    0.0076769783
      6917.98       1.2739345    0.0076161302
      6924.89       1.3083817    0.0076621673
      6931.82       1.3419157    0.0076095451
      6938.75       1.3765272    0.0076179532
      6945.69       1.4058563    0.0076815298
      6952.64       1.4363259    0.0076422240
      6959.59       1.4628721    0.0076612710
      6966.55       1.4816397    0.0076691004
      6973.52       1.4930637    0.0076825043
      6980.49       1.5004096    0.0076866144
      6987.47       1.4956186    0.0076940859
      6994.46       1.4891967    0.0076491067
      7001.46       1.4802987    0.0077100083
      7008.46       1.4609624    0.0077227976
      7015.46       1.4409167    0.0076785693
      7022.48       1.4183585    0.0077406749
      7029.51       1.4000149    0.0076996260
      7036.53       1.3848328    0.0077140403
      7043.57       1.3705344    0.0077816249
      7050.62       1.3596010    0.0077504190
      7057.66       1.3589332    0.0077774832
      7064.72       1.3564611    0.0077984841
      7071.79       1.3609420    0.0078278664
      7078.86       1.3639020    0.0078652703
      7085.94       1.3690195    0.0079021873
      7093.03       1.3746028    0.0079668199
      7100.12       1.3739686    0.0079952478
      7107.22       1.3729422    0.0081080487
      7114.33       1.3668654    0.0082651339
      7121.44       1.3599720    0.0083080617
      7128.56       1.3537075    0.0083993197
      7135.69       1.3511877    0.0085213038
      7142.83       1.3558400    0.0085007578
      7149.97       1.3652880    0.0085333278
      7157.12       1.3768858    0.0085483031
      7164.28       1.3882538    0.0085446334
      7171.44       1.4073120    0.0085430076
      7178.62       1.4223778    0.0085499818
      7185.80       1.4421011    0.0085624743
      7192.98       1.4610239    0.0085934624
      7200.17       1.4730616    0.0086265911
      7207.38       1.4849037    0.0085873593
      7214.58       1.4865954    0.0086029284
      7221.80       1.4870832    0.0086603103
      7229.02       1.4904478    0.0085887477
      7236.25       1.4878266    0.0085674847
      7243.49       1.4872111    0.0085511871
      7250.73       1.4849648    0.0085397463
      7257.98       1.4776971    0.0085170621
      7265.24       1.4703363    0.0084871489
      7272.51       1.4676551    0.0084577014
      7279.78       1.4614781    0.0083786012
      7287.06       1.4562384    0.0084173856
      7294.35       1.4559895    0.0084033327
      7301.64       1.4539580    0.0083935463
      7308.94       1.4525746    0.0083365261
      7316.25       1.4405150    0.0083406738
      7323.57       1.4377987    0.0084000001
      7330.89       1.4319575    0.0083496213
      7338.22       1.4292647    0.0083549526
      7345.56       1.4240105    0.0083608878
      7352.91       1.4131574    0.0083701239
      7360.26       1.3998020    0.0083749467
      7367.62       1.3972032    0.0083874102
      7374.99       1.3985245    0.0084022807
      7382.37       1.4048007    0.0084186723
      7389.75       1.4079246    0.0084358810
      7397.14       1.4033106    0.0083949791
      7404.53       1.4017835    0.0084137903
      7411.94       1.4043983    0.0084848716
      7419.35       1.4114589    0.0085051335
      7426.77       1.4197140    0.0084682781
      7434.20       1.4217046    0.0084889093
      7441.63       1.4089265    0.0085100622
      7449.07       1.3921992    0.0085318204
      7456.52       1.3755228    0.0085586219
      7463.98       1.3655683    0.0086165297
      7471.45       1.3543471    0.0086981096
      7478.92       1.3392234    0.0088251893
      7486.40       1.3129853    0.0088815197
      7493.88       1.2836860    0.0088663249
      7501.38       1.2509936    0.0089675880
      7508.88       1.2280024    0.0091343598
      7516.39       1.2058797    0.0095087542
      7523.91       1.1842680     0.010018115
      7531.43       1.1535368     0.010645489
      7538.96       1.1226859     0.011361696
      7546.50       1.1044531     0.012115268
      7554.05       1.0973737     0.012818254
      7561.60       1.0991344     0.013141955
      7569.16       1.0926929     0.013549161
      7576.73       1.0872839     0.013510614
      7584.31       1.0757832     0.013140456
      7591.89       1.0889786     0.012545652
      7599.49       1.1144901     0.011857756
      7607.09       1.1421406     0.011191849
      7614.70       1.1754973     0.010649752
      7622.31       1.2068670     0.010240430
      7629.93       1.2291901    0.0098915867
      7637.56       1.2497012    0.0096121278
      7645.20       1.2746233    0.0094481974
      7652.85       1.3005840    0.0093606818
      7660.50       1.3267342    0.0092865692
      7668.16       1.3478237    0.0092272346
      7675.83       1.3539926    0.0091881795
      7683.50       1.3600815    0.0091685962
      7691.19       1.3636772    0.0091645492
      7698.88       1.3784427    0.0091716268
      7706.58       1.3958154    0.0091859064
      7714.29       1.4039217    0.0091436276
      7722.00       1.4125307    0.0091634965
      7729.73       1.4133227    0.0091855665
      7737.45       1.4238891    0.0092093384
      7745.19       1.4398123    0.0092336806
      7752.94       1.4595655    0.0092580559
      7760.69       1.4852935    0.0092831057
      7768.45       1.4993181    0.0093084357
      7776.22       1.5048500    0.0093337593
      7784.00       1.5130734    0.0093074117
      7791.78       1.5280042    0.0093361024
      7799.57       1.5460551    0.0093660638
      7807.37       1.5623799    0.0093972234
      7815.18       1.5688697    0.0094305046
      7822.99       1.5625907    0.0094653403
      7830.82       1.5555319    0.0094995065
      7838.65       1.5577804    0.0095296687
      7846.49       1.5621853    0.0095570556
      7854.34       1.5616541    0.0095834610
      7862.19       1.5515939    0.0096091503
      7870.05       1.5441868    0.0096346530
      7877.93       1.5229247    0.0096596288
      7885.80       1.5029105    0.0096275412
      7893.69       1.4843439    0.0096523860
      7901.58       1.4757795    0.0096788949
      7909.49       1.4620440    0.0097072769
      7917.40       1.4319846    0.0097359724
      7925.31       1.3987922    0.0097643585
      7933.24       1.3672159    0.0097930509
      7941.17       1.3488386    0.0098212648
      7949.11       1.3358126    0.0098571205
      7957.06       1.3237338    0.0098806002
      7965.02       1.3118414    0.0099047734
      7972.98       1.2900079    0.0099303162
      7980.96       1.2748488    0.0099555462
      7988.94       1.2656994    0.0099793718
      7996.93       1.2564266    0.0099526531
      8004.93       1.2488669    0.0099842854
      8012.93       1.2414120     0.010020735
      8020.95       1.2354935     0.010065237
      8028.97       1.2127289     0.010118176
      8036.99       1.1960917     0.010177951
      8045.03       1.1863071     0.010271644
      8053.08       1.1848030     0.010365918
      8061.13       1.1767983     0.010476126
      8069.20       1.1677902     0.010595818
      8077.26       1.1558177     0.010598201
      8085.34       1.1474989     0.010693673
      8093.43       1.1466050     0.010681950
      8101.52       1.1584816     0.010696365
      8109.62       1.1677707     0.010625623
      8117.73       1.1775585     0.010623640
      8125.85       1.1788974     0.010545760
      8133.98       1.1669863     0.010572593
      8142.11       1.1579525     0.010469380
      8150.25       1.1418478     0.010415186
      8158.41       1.1208294     0.010304171
      8166.56       1.0862453     0.010252732
      8174.73       1.0444013     0.010154177
      8182.91      0.99646463     0.010112153
      8191.09      0.94968918     0.010023278
      8199.28      0.89881769    0.0099902230
      8207.48      0.84897726    0.0099042046
      8215.69      0.80332131    0.0098602785
      8223.91      0.77189808    0.0097690135
      8232.13      0.74150641    0.0097200627
      8240.36      0.72084594    0.0096270609
      8248.60      0.69687939    0.0095758234
      8256.85      0.68397635    0.0094862962
      8265.11      0.67931991    0.0094472650
      8273.37      0.67851260    0.0093753451
      8281.65      0.68453552    0.0093444886
      8289.93      0.69372648    0.0092610601
      8298.22      0.70966232    0.0092054949
      8306.52      0.72250740    0.0091240291
      8314.83      0.74335747    0.0090891207
      8323.14      0.75911149    0.0090596043
      8331.46      0.78514401    0.0089984040
      8339.80      0.80876445    0.0089784220
      8348.13      0.83638378    0.0089233273
      8356.48      0.86707030    0.0089036329
      8364.84      0.89885803    0.0088511091
      8373.21      0.92545900    0.0088357640
      8381.58      0.95859600    0.0087899715
      8389.96      0.98577223    0.0087800877
      8398.35       1.0259751    0.0087432148
      8406.75       1.0721836    0.0087009091
      8415.16       1.1209672    0.0086929607
      8423.57       1.1729838    0.0086542132
      8432.00       1.2280221    0.0086488917
      8440.43       1.2830336    0.0086126079
      8448.87       1.3338586    0.0087187637
      8457.32       1.3884486    0.0088694919
      8465.78       1.4438536    0.0090077853
      8474.25       1.5020472    0.0092099608
      8482.72       1.5587310    0.0094498193
      8491.20       1.6168597    0.0097544489
      8499.69       1.6778974     0.010078377
      8508.19       1.7389903     0.010546540
      8516.70       1.8047473     0.011146755
      8525.22       1.8651575     0.012027661
      8533.75       1.9238611     0.013081130
      8542.28       1.9748545     0.014286899
      8550.82       2.0229320     0.016012248
      8559.37       2.0641078     0.018247393
      8567.93       2.0987870     0.021415351
      8576.50       2.1283061     0.025123778
      8585.08       2.1508234     0.029171531
