# starting wavelength =        3463.5200
# ending wavelength =        7364.2300
# O2 telluric scale =        0
# O2 telluric shift =        0
# H2O telluric scale =        0
# H2O telluric shift =        0
      3464.04       1.3548153     0.031671693
      3467.51       1.3616166     0.026716377
      3470.98       1.3688838     0.022009253
      3474.45       1.3784494     0.019073785
      3477.92       1.3873745     0.016762711
      3481.40       1.3941189     0.014955144
      3484.88       1.3982648     0.013825611
      3488.37       1.4012520     0.012677439
      3491.86       1.4030246     0.011785951
      3495.35       1.4048440     0.011095498
      3498.84       1.4061766     0.010556005
      3502.34       1.4121787     0.010040726
      3505.84       1.4157239    0.0097135356
      3509.35       1.4164077    0.0094478053
      3512.86       1.4188947    0.0093237135
      3516.37       1.4212132    0.0092600057
      3519.89       1.4233654    0.0092473930
      3523.41       1.4268025    0.0088618837
      3526.93       1.4261228    0.0086527071
      3530.46       1.4285812    0.0085054906
      3533.99       1.4313835    0.0085234998
      3537.53       1.4303743    0.0085372863
      3541.06       1.4321001    0.0086092789
      3544.60       1.4311644    0.0086892170
      3548.15       1.4318204    0.0087104421
      3551.70       1.4301040    0.0088094997
      3555.25       1.4319896    0.0088754792
      3558.80       1.4287488    0.0090013772
      3562.36       1.4280072    0.0090652480
      3565.92       1.4296513    0.0091158371
      3569.49       1.4327827    0.0092059481
      3573.06       1.4412612    0.0091740461
      3576.64       1.4442302    0.0092320305
      3580.21       1.4467255    0.0092744965
      3583.79       1.4480831    0.0092125829
      3587.38       1.4530800    0.0091287475
      3590.96       1.4555720    0.0091002195
      3594.55       1.4531867    0.0089944390
      3598.15       1.4451631    0.0089116987
      3601.75       1.4310077    0.0087658572
      3605.35       1.4152397    0.0086410098
      3608.96       1.3964935    0.0085671399
      3612.56       1.3712334    0.0084350816
      3616.18       1.3480456    0.0083343823
      3619.79       1.3231224    0.0082938427
      3623.41       1.2993014    0.0083097328
      3627.04       1.2652845    0.0082761130
      3630.66       1.2289412    0.0085099267
      3634.29       1.1908215    0.0085604342
      3637.93       1.1536190    0.0083387457
      3641.57       1.1185227    0.0082075086
      3645.21       1.0780001    0.0082321099
      3648.86       1.0428367    0.0082071212
      3652.50      0.99864606    0.0081734430
      3656.16      0.96398985    0.0081985117
      3659.81      0.92901595    0.0081756470
      3663.47      0.89365107    0.0081401545
      3667.14      0.86251804    0.0081657626
      3670.80      0.83911743    0.0081409105
      3674.48      0.81398512    0.0081076004
      3678.15      0.79938921    0.0081339518
      3681.83      0.78572971    0.0081607660
      3685.51      0.77924803    0.0080758048
      3689.20      0.77512462    0.0081025089
      3692.88      0.77885234    0.0081307030
      3696.58      0.78213738    0.0080966692
      3700.27      0.78335981    0.0080725055
      3703.98      0.79083879    0.0081002087
      3707.68      0.79702743    0.0081305463
      3711.39      0.80950360    0.0080421002
      3715.10      0.82251267    0.0080724900
      3718.81      0.83645275    0.0081010523
      3722.53      0.85066015    0.0080682074
      3726.26      0.86809179    0.0080987084
      3729.98      0.88176475    0.0080097726
      3733.71      0.89739788    0.0080406248
      3737.45      0.91552875    0.0080716745
      3741.18      0.93508034    0.0080401522
      3744.93      0.95278955    0.0080135381
      3748.67      0.97327399    0.0080473146
      3752.42      0.99528846    0.0080126870
      3756.17       1.0160391    0.0080463550
      3759.93       1.0340804    0.0080209840
      3763.69       1.0546642    0.0079879607
      3767.45       1.0769046    0.0080225878
      3771.22       1.0974638    0.0080568156
      3774.99       1.1177547    0.0080250892
      3778.77       1.1426239    0.0079986639
      3782.54       1.1695083    0.0080374749
      3786.33       1.2009417    0.0080019948
      3790.11       1.2270170    0.0080387126
      3793.90       1.2572388    0.0080072014
      3797.70       1.2860892    0.0080440196
      3801.50       1.3108375    0.0080210693
      3805.30       1.3348671    0.0079859599
      3809.10       1.3563292    0.0080245300
      3812.91       1.3776770    0.0080669512
      3816.73       1.3974668    0.0080322390
      3820.54       1.4159975    0.0080743387
      3824.36       1.4320515    0.0079741809
      3828.19       1.4408163    0.0080147852
      3832.02       1.4528289    0.0080603450
      3835.85       1.4617229    0.0080251642
      3839.68       1.4732482    0.0080691007
      3843.52       1.4847417    0.0080382765
      3847.37       1.4972863    0.0080098022
      3851.22       1.5086674    0.0080592707
      3855.07       1.5202552    0.0080233181
      3858.92       1.5398635    0.0079898297
      3862.78       1.5544020    0.0079667906
      3866.64       1.5750353    0.0079313716
      3870.51       1.5962872    0.0078983464
      3874.38       1.6115124    0.0078747293
      3878.26       1.6251757    0.0078408321
      3882.13       1.6393848    0.0077382056
      3886.02       1.6536278    0.0077841668
      3889.90       1.6608158    0.0077505950
      3893.79       1.6677316    0.0076497083
      3897.69       1.6789562    0.0076948375
      3901.59       1.6797064    0.0076614612
      3905.49       1.6755324    0.0075617188
      3909.39       1.6809422    0.0076070237
      3913.30       1.6728817    0.0075736829
      3917.22       1.6683150    0.0074747728
      3921.13       1.6547044    0.0074453798
      3925.06       1.6476383    0.0074871902
      3928.98       1.6428898    0.0073888906
      3932.91       1.6400596    0.0073592389
      3936.84       1.6313855    0.0074010108
      3940.78       1.6236854    0.0073039989
      3944.72       1.6072352    0.0072741370
      3948.67       1.6029880    0.0072458543
      3952.61       1.5988050    0.0072197643
      3956.57       1.5963822    0.0071903150
      3960.52       1.5960264    0.0071616387
      3964.48       1.5942555    0.0070688975
      3968.45       1.5949150    0.0071071617
      3972.42       1.5922249    0.0070786195
      3976.39       1.5784143    0.0069880116
      3980.37       1.5740493    0.0069582174
      3984.35       1.5706750    0.0069963027
      3988.33       1.5599774    0.0069085362
      3992.32       1.5542284    0.0068783457
      3996.31       1.5513523    0.0068493787
      4000.31       1.5478159    0.0068871410
      4004.31       1.5460732    0.0068001697
      4008.31       1.5407405    0.0067707160
      4012.32       1.5307636    0.0067424033
      4016.33       1.5263039    0.0067234242
      4020.35       1.5203110    0.0066936901
      4024.37       1.5267406    0.0066648217
      4028.40       1.5276136    0.0066370065
      4032.42       1.5265956    0.0065530731
      4036.46       1.5282669    0.0065891806
      4040.50       1.5262453    0.0065607236
      4044.54       1.5244359    0.0065332237
      4048.58       1.5197334    0.0064504570
      4052.63       1.5149049    0.0064865617
      4056.68       1.5130136    0.0064584237
      4060.74       1.5063609    0.0063758776
      4064.80       1.5021769    0.0063494209
      4068.86       1.4994815    0.0063235446
      4072.93       1.4989746    0.0062983187
      4077.01       1.4881987    0.0063309537
      4081.08       1.4810029    0.0062501874
      4085.17       1.4707501    0.0062244075
      4089.25       1.4660230    0.0061992143
      4093.34       1.4629386    0.0061747283
      4097.43       1.4594738    0.0061530300
      4101.53       1.4565956    0.0061271330
      4105.63       1.4588560    0.0061018761
      4109.74       1.4572184    0.0060771591
      4113.85       1.4561120    0.0060019546
      4117.96       1.4597183    0.0059763769
      4122.08       1.4624522    0.0060066507
      4126.20       1.4633500    0.0059818811
      4130.33       1.4679872    0.0059574728
      4134.46       1.4729734    0.0058845989
      4138.59       1.4752593    0.0058595659
      4142.73       1.4777013    0.0058347919
      4146.88       1.4804197    0.0058104745
      4151.02       1.4814429    0.0057865613
      4155.18       1.4804040    0.0057704480
      4159.33       1.4764143    0.0057456022
      4163.49       1.4762683    0.0057211865
      4167.65       1.4746545    0.0056971251
      4171.82       1.4726333    0.0056733835
      4175.99       1.4715240    0.0056499872
      4180.17       1.4664780    0.0055802217
      4184.35       1.4620303    0.0055575817
      4188.54       1.4534697    0.0055869824
      4192.72       1.4492126    0.0055634550
      4196.92       1.4451107    0.0055401660
      4201.11       1.4351221    0.0055172581
      4205.31       1.4261911    0.0054489171
      4209.52       1.4167748    0.0054266911
      4213.73       1.4026029    0.0054046067
      4217.94       1.3888198    0.0053827612
      4222.16       1.3725060    0.0053611487
      4226.38       1.3576790    0.0053396315
      4230.61       1.3401840    0.0053183992
      4234.84       1.3209187    0.0052999537
      4239.08       1.3016022    0.0052782715
      4243.32       1.2810255    0.0052566359
      4247.56       1.2610802    0.0052353039
      4251.81       1.2418061    0.0052140106
      4256.06       1.2224639    0.0051930553
      4260.32       1.2077479    0.0051721875
      4264.58       1.1946775    0.0051514807
      4268.84       1.1837732    0.0051309518
      4273.11       1.1789919    0.0050691005
      4277.38       1.1708689    0.0050483917
      4281.66       1.1657831    0.0050276883
      4285.94       1.1645359    0.0050073819
      4290.23       1.1649924    0.0049871118
      4294.52       1.1650795    0.0049669484
      4298.81       1.1700529    0.0049469200
      4303.11       1.1700079    0.0049271598
      4307.42       1.1728998    0.0049074751
      4311.72       1.1746377    0.0048877981
      4316.04       1.1741680    0.0048293976
      4320.35       1.1772695    0.0048102088
      4324.67       1.1804935    0.0047910308
      4329.00       1.1876452    0.0047719542
      4333.33       1.1979271    0.0047531931
      4337.66       1.2104896    0.0047343938
      4342.00       1.2264554    0.0047156002
      4346.34       1.2386050    0.0046970119
      4350.69       1.2531830    0.0046786258
      4355.04       1.2713880    0.0046602621
      4359.39       1.2877787    0.0046418487
      4363.75       1.3048183    0.0046237247
      4368.12       1.3209094    0.0046055918
      4372.48       1.3377135    0.0045874455
      4376.86       1.3513203    0.0045694932
      4381.23       1.3662658    0.0045517427
      4385.61       1.3775357    0.0045339947
      4390.00       1.3898142    0.0045161895
      4394.39       1.3976356    0.0044986676
      4398.79       1.4018618    0.0044812382
      4403.18       1.4073473    0.0044638010
      4407.59       1.4148778    0.0044464429
      4412.00       1.4235799    0.0044292847
      4416.41       1.4330126    0.0044121540
      4420.82       1.4397271    0.0043949722
      4425.25       1.4453495    0.0043780769
      4429.67       1.4513581    0.0043281430
      4434.10       1.4565765    0.0043444001
      4438.54       1.4628857    0.0043277301
      4442.97       1.4654619    0.0043113274
      4447.42       1.4688898    0.0042948917
      4451.86       1.4751913    0.0042784299
      4456.32       1.4818771    0.0042256230
      4460.77       1.4853912    0.0042097085
      4465.24       1.4911455    0.0041937162
      4469.70       1.4930437    0.0041779106
      4474.17       1.4947579    0.0041623681
      4478.65       1.4954248    0.0041467590
      4483.12       1.4940628    0.0041312337
      4487.61       1.4924184    0.0041159855
      4492.09       1.4955097    0.0041009343
      4496.59       1.4967906    0.0040858050
      4501.08       1.4988054    0.0040360527
      4505.58       1.5013446    0.0040210990
      4510.09       1.5029442    0.0040060897
      4514.60       1.5060880    0.0039911860
      4519.12       1.5081998    0.0039765563
      4523.63       1.5097896    0.0039620342
      4528.16       1.5073799    0.0039845226
      4532.69       1.5094708    0.0040873046
      4537.22       1.5112417    0.0042410606
      4541.76       1.5086645    0.0038893160
      4546.30       1.5081681    0.0039100193
      4550.85       1.5059126    0.0039676497
      4555.40       1.5004766    0.0040514799
      4559.95       1.4960422    0.0041455066
      4564.51       1.4890962    0.0042364190
      4569.08       1.4827270    0.0042762959
      4573.65       1.4733343    0.0043124050
      4578.22       1.4613003    0.0042914891
      4582.80       1.4443125    0.0042252739
      4587.38       1.4262570    0.0041325483
      4591.97       1.4067125    0.0040236772
      4596.56       1.3884317    0.0039019591
      4601.16       1.3690333    0.0037991143
      4605.76       1.3506317    0.0037180005
      4610.37       1.3289435    0.0036776194
      4614.98       1.3033193    0.0037270547
      4619.59       1.2800409    0.0038406696
      4624.21       1.2608586    0.0036879433
      4628.84       1.2435131    0.0035878652
      4633.47       1.2283330    0.0036030022
      4638.10       1.2116679    0.0035909715
      4642.74       1.1967075    0.0035792899
      4647.38       1.1816564    0.0035382909
      4652.03       1.1645776    0.0035257026
      4656.68       1.1500933    0.0035139611
      4661.34       1.1323384    0.0035025544
      4666.00       1.1135578    0.0034893887
      4670.67       1.0966894    0.0034774959
      4675.33       1.0799629    0.0034659537
      4680.01       1.0648881    0.0034546359
      4684.69       1.0509996    0.0034434695
      4689.38       1.0349968    0.0034052042
      4694.07       1.0222250    0.0034195465
      4698.76       1.0083703    0.0034082773
      4703.46      0.99663573    0.0033973850
      4708.16      0.98840318    0.0033598081
      4712.87      0.98095974    0.0033495156
      4717.58      0.97566126    0.0033635243
      4722.30      0.97002412    0.0033529198
      4727.03      0.96484954    0.0033158913
      4731.75      0.96267945    0.0033058884
      4736.48      0.95944205    0.0032962854
      4741.22      0.95660325    0.0032834574
      4745.96      0.95540410    0.0032734196
      4750.71      0.95619505    0.0032637940
      4755.46      0.95814796    0.0032545837
      4760.22      0.95974976    0.0032182432
      4764.97      0.96357863    0.0032324638
      4769.74      0.97040579    0.0032232478
      4774.51      0.97568600    0.0032719451
      4779.29      0.98194849    0.0033604937
      4784.07      0.99055107    0.0035014472
      4788.85       1.0035543    0.0032878640
      4793.64       1.0119264    0.0031926223
      4798.43       1.0195783    0.0032555410
      4803.23       1.0248698    0.0033699444
      4808.03       1.0284985    0.0034635499
      4812.84       1.0321711    0.0035724153
      4817.66       1.0334671    0.0036674823
      4822.48       1.0312640    0.0037246179
      4827.30       1.0243429    0.0037191304
      4832.12       1.0144337    0.0036433955
      4836.96       1.0054567    0.0035094560
      4841.79      0.99648201    0.0034103851
      4846.63      0.98957145    0.0032857288
      4851.48      0.98640867    0.0031530319
      4856.33      0.98345403    0.0030931127
      4861.19      0.98263258    0.0030591979
      4866.05      0.97966194    0.0031517999
      4870.92      0.97771727    0.0032055171
      4875.79      0.97774406    0.0030753185
      4880.66      0.98023868    0.0029909920
      4885.55      0.98236997    0.0029616937
      4890.43      0.98629405    0.0029521443
      4895.32      0.98948906    0.0029449608
      4900.22      0.99645714    0.0029382498
      4905.12       1.0033525    0.0029288861
      4910.02       1.0067875    0.0029220206
      4914.94       1.0130807    0.0028924414
      4919.85       1.0192397    0.0029063850
      4924.77       1.0265687    0.0028998795
      4929.70       1.0357713    0.0028705079
      4934.62       1.0444308    0.0028846562
      4939.56       1.0574590    0.0028561185
      4944.50       1.0684927    0.0028492852
      4949.44       1.0796297    0.0028636887
      4954.39       1.0890677    0.0028352741
      4959.35       1.0970287    0.0028288083
      4964.31       1.1041344    0.0028217014
      4969.27       1.1119938    0.0028151525
      4974.24       1.1209407    0.0028086360
      4979.22       1.1264729    0.0028019417
      4984.20       1.1331564    0.0027751957
      4989.18       1.1386576    0.0027891605
      4994.17       1.1452918    0.0027829612
      4999.16       1.1493983    0.0027568966
      5004.16       1.1533430    0.0027704840
      5009.17       1.1590344    0.0027444663
      5014.18       1.1656381    0.0027584090
      5019.19       1.1721643    0.0027324054
      5024.21       1.1780695    0.0027274369
      5029.23       1.1841867    0.0027207599
      5034.26       1.1935104    0.0027157065
      5039.30       1.1999651    0.0027094348
      5044.34       1.2074324    0.0027043892
      5049.39       1.2137670    0.0026792968
      5054.43       1.2210227    0.0026934250
      5059.49       1.2266351    0.0026687063
      5064.55       1.2354604    0.0026827215
      5069.61       1.2428206    0.0026583784
      5074.68       1.2497462    0.0026724351
      5079.76       1.2555460    0.0026483573
      5084.84       1.2623380    0.0026434809
      5089.92       1.2687486    0.0026386438
      5095.01       1.2739789    0.0026338033
      5100.11       1.2788499    0.0026291461
      5105.21       1.2844904    0.0026244166
      5110.31       1.2886342    0.0026198995
      5115.42       1.2916096    0.0026152520
      5120.54       1.2926694    0.0026109830
      5125.66       1.2942610    0.0026064556
      5130.79       1.2991650    0.0026022773
      5135.92       1.3005697    0.0025979100
      5141.05       1.3004989    0.0025938346
      5146.20       1.3010259    0.0025895971
      5151.34       1.3018763    0.0025856699
      5156.49       1.3014896    0.0025633159
      5161.65       1.3011602    0.0025777205
      5166.81       1.3008582    0.0025556991
      5171.98       1.3009884    0.0025700287
      5177.15       1.3018645    0.0025482774
      5182.33       1.3032415    0.0025626686
      5187.51       1.3035731    0.0025411967
      5192.70       1.3033886    0.0025374782
      5197.89       1.3010164    0.0025344551
      5203.09       1.2982952    0.0025307093
      5208.29       1.2924384    0.0025279203
      5213.50       1.2885658    0.0025242446
      5218.72       1.2826884    0.0025034332
      5223.93       1.2776366    0.0025179900
      5229.16       1.2718714    0.0024972920
      5234.39       1.2635395    0.0025120952
      5239.62       1.2555856    0.0024913266
      5244.86       1.2477600    0.0024887282
      5250.11       1.2413020    0.0024857610
      5255.36       1.2346702    0.0024830364
      5260.61       1.2279820    0.0024808515
      5265.87       1.2213728    0.0024776940
      5271.14       1.2166375    0.0024754060
      5276.41       1.2138577    0.0024558914
      5281.69       1.2092318    0.0024702902
      5286.97       1.2050781    0.0024512461
      5292.26       1.2020016    0.0024655944
      5297.55       1.1981415    0.0024634798
      5302.85       1.1949694    0.0024444371
      5308.15       1.1918622    0.0024590433
      5313.46       1.1890708    0.0024404784
      5318.77       1.1843205    0.0024382373
      5324.09       1.1801808    0.0024530261
      5329.42       1.1768909    0.0024345384
      5334.75       1.1722604    0.0024325569
      5340.08       1.1676848    0.0024142177
      5345.42       1.1635257    0.0024291555
      5350.77       1.1593342    0.0024273959
      5356.12       1.1526340    0.0024092492
      5361.48       1.1455078    0.0024242978
      5366.83       1.1388987    0.0024227500
      5372.20       1.1330659    0.0024047567
      5377.58       1.1254899    0.0024199548
      5382.95       1.1173273    0.0024018878
      5388.34       1.1100530    0.0024007090
      5393.72       1.1021749    0.0023998337
      5399.12       1.0964407    0.0023981917
      5404.52       1.0889124    0.0023971182
      5409.92       1.0820293    0.0023963513
      5415.33       1.0754014    0.0023792570
      5420.75       1.0684865    0.0023939718
      5426.17       1.0624522    0.0023932856
      5431.60       1.0581075    0.0023765601
      5437.03       1.0512396    0.0023756384
      5442.47       1.0458124    0.0023906803
      5447.91       1.0427227    0.0023903123
      5453.36       1.0380967    0.0023735074
      5458.81       1.0332100    0.0023729403
      5464.27       1.0297959    0.0023881605
      5469.73       1.0253555    0.0023718490
      5475.20       1.0199872    0.0023713094
      5480.68       1.0145930    0.0023709107
      5486.16       1.0086869    0.0023546900
      5491.65       1.0016821    0.0023702151
      5497.14      0.99445357    0.0023698248
      5502.64      0.98776840    0.0023696193
      5508.14      0.97710270    0.0023535921
      5513.65      0.96632221    0.0023536944
      5519.16      0.95396080    0.0023690944
      5524.68      0.93732208    0.0023690733
      5530.20      0.92086670    0.0023530829
      5535.73      0.90389036    0.0023533347
      5541.27      0.88419222    0.0023537228
      5546.81      0.86572899    0.0023691248
      5552.36      0.84873610    0.0023532719
      5557.91      0.83109436    0.0023535962
      5563.47      0.81424565    0.0023540195
      5569.04      0.79760772    0.0023546394
      5574.60      0.78533187    0.0023392475
      5580.18      0.77450676    0.0023396214
      5585.76      0.76749843    0.0023550503
      5591.35      0.76339539    0.0023556056
      5596.94      0.76478908    0.0023408645
      5602.53      0.76898355    0.0023413039
      5608.14      0.77509964    0.0023418169
      5613.75      0.78478694    0.0023424635
      5619.36      0.79602295    0.0023431759
      5624.98      0.80597622    0.0023437773
      5630.60      0.81915181    0.0023443524
      5636.23      0.83384739    0.0023449937
      5641.87      0.85034540    0.0023456896
      5647.51      0.86473579    0.0023465074
      5653.16      0.88240467    0.0023473702
      5658.82      0.89826219    0.0023327161
      5664.47      0.91389244    0.0023337375
      5670.14      0.92983150    0.0023347800
      5675.81      0.94286004    0.0023359060
      5681.48      0.95791310    0.0023370794
      5687.17      0.97161114    0.0023527611
      5692.85      0.98711456    0.0023381806
      5698.55       1.0022172    0.0023392842
      5704.25       1.0152738    0.0023404051
      5709.95       1.0270496    0.0023416158
      5715.66       1.0385050    0.0023428376
      5721.38       1.0508395    0.0023441045
      5727.10       1.0595337    0.0023454146
      5732.83       1.0669187    0.0023467520
      5738.56       1.0730066    0.0023329280
      5744.30       1.0771331    0.0023341701
      5750.04       1.0812915    0.0023354620
      5755.79       1.0820261    0.0023367936
      5761.55       1.0848560    0.0023381474
      5767.31       1.0854128    0.0023395210
      5773.08       1.0848710    0.0023409231
      5778.85       1.0853087    0.0023424173
      5784.63       1.0828438    0.0023440409
      5790.41       1.0814545    0.0023458581
      5796.21       1.0798007    0.0023476622
      5802.00       1.0778930    0.0023340211
      5807.81       1.0725372    0.0023358246
      5813.61       1.0657434    0.0023378829
      5819.43       1.0592438    0.0023405855
      5825.25       1.0541217    0.0023440402
      5831.07       1.0524905    0.0023477079
      5836.90       1.0422020    0.0023514314
      5842.74       1.0370537    0.0023554549
      5848.58       1.0260269    0.0023596919
      5854.43       1.0170707    0.0023634694
      5860.29       1.0089762    0.0023663634
      5866.15       1.0013569    0.0023687772
      5872.01      0.99613204    0.0023709184
      5877.89      0.99064166    0.0023726402
      5883.76      0.98519278    0.0023739890
      5889.65      0.98126048    0.0023751427
      5895.54      0.97710822    0.0023622105
      5901.43      0.97365475    0.0023636197
      5907.34      0.97063354    0.0023649168
      5913.24      0.96648227    0.0023658643
      5919.16      0.96127748    0.0023666139
      5925.08      0.95557781    0.0023671145
      5931.00      0.95161083    0.0023676036
      5936.93      0.94979846    0.0023681398
      5942.87      0.94608740    0.0023683274
      5948.81      0.93791201    0.0023683637
      5954.76      0.93416749    0.0023687991
      5960.72      0.92459834    0.0023552954
      5966.68      0.91738936    0.0023560079
      5972.64      0.91132695    0.0023564081
      5978.62      0.90371803    0.0023571589
      5984.60      0.89722134    0.0023582656
      5990.58      0.88843810    0.0023595456
      5996.57      0.88017282    0.0023609799
      6002.57      0.87205564    0.0023487267
      6008.57      0.86338793    0.0023503747
      6014.58      0.85477391    0.0023668959
      6020.60      0.84468252    0.0023683584
      6026.62      0.83453672    0.0023699445
      6032.65      0.82303923    0.0023715166
      6038.68      0.81179061    0.0023593628
      6044.72      0.80099877    0.0023610817
      6050.76      0.79179988    0.0023627441
      6056.81      0.78272517    0.0023644927
      6062.87      0.77456404    0.0023662454
      6068.93      0.76715418    0.0023680103
      6075.00      0.76035537    0.0023555542
      6081.08      0.75358167    0.0023718011
      6087.16      0.74968615    0.0023734355
      6093.25      0.74696740    0.0023750842
      6099.34      0.74685338    0.0023767502
      6105.44      0.74716837    0.0023644439
      6111.54      0.74916900    0.0023658525
      6117.66      0.75145441    0.0023673528
      6123.78      0.75415789    0.0023689407
      6129.90      0.75758134    0.0023715917
      6136.03      0.76078033    0.0023729280
      6142.17      0.76516529    0.0023742169
      6148.31      0.77028162    0.0023756106
      6154.46      0.77592984    0.0023635893
      6160.61      0.78174305    0.0023650848
      6166.77      0.78958594    0.0023810107
      6172.94      0.79624310    0.0023828975
      6179.11      0.80449994    0.0023722872
      6185.29      0.80964100    0.0023738455
      6191.48      0.81474430    0.0023750369
      6197.67      0.81850228    0.0023915750
      6203.87      0.82409634    0.0023819516
      6210.07      0.83067338    0.0023868611
      6216.28      0.83612412    0.0023929128
      6222.50      0.84183178    0.0023864386
      6228.72      0.84490101    0.0024079400
      6234.95      0.84719924    0.0024140885
      6241.19      0.84918426    0.0024057927
      6247.42      0.85010964    0.0024091128
      6253.67      0.84947607    0.0024257118
      6259.93      0.84819253    0.0024257139
      6266.19      0.84501850    0.0024093015
      6272.46      0.83952113    0.0024061652
      6278.73      0.83489728    0.0024026376
      6285.01      0.82692720    0.0023991167
      6291.29      0.81871342    0.0023970087
      6297.58      0.80850658    0.0023961181
      6303.88      0.79501935    0.0023948902
      6310.19      0.78129414    0.0023928371
      6316.50      0.76687509    0.0023781424
      6322.81      0.75465076    0.0023774996
      6329.14      0.74295777    0.0023904581
      6335.47      0.73110293    0.0023763571
      6341.80      0.72271461    0.0023760752
      6348.14      0.71567997    0.0023895130
      6354.49      0.71159253    0.0023759372
      6360.85      0.71136431    0.0023761234
      6367.21      0.71328037    0.0023628487
      6373.57      0.71664016    0.0023770592
      6379.95      0.72358442    0.0023775384
      6386.33      0.73095074    0.0023642909
      6392.72      0.74159078    0.0023789086
      6399.11      0.75263762    0.0023667739
      6405.51      0.76478709    0.0023682934
      6411.92      0.77647200    0.0023716937
      6418.32      0.78574334    0.0023733036
      6424.74      0.79501749    0.0023746938
      6431.17      0.80443089    0.0023768495
      6437.60      0.81378791    0.0023777817
      6444.04      0.82045133    0.0023794002
      6450.48      0.82597101    0.0023791954
      6456.94      0.83149254    0.0023654760
      6463.39      0.83594987    0.0023779392
      6469.85      0.84028728    0.0023633566
      6476.33      0.84275090    0.0023622500
      6482.80      0.84579026    0.0023610629
      6489.28      0.84776980    0.0023602280
      6495.77      0.84873020    0.0023596091
      6502.27      0.84948455    0.0023585857
      6508.77      0.84777544    0.0023575627
      6515.28      0.84776721    0.0023555419
      6521.80      0.84743026    0.0023405313
      6528.32      0.84783590    0.0023519689
      6534.85      0.84543130    0.0023373284
      6541.38      0.84314130    0.0023353058
      6547.92      0.84091948    0.0023331390
      6554.47      0.83953675    0.0023308927
      6561.03      0.83789926    0.0023293447
      6567.59      0.83485628    0.0023275693
      6574.16      0.83236921    0.0023263448
      6580.73      0.82942013    0.0023246114
      6587.31      0.82581771    0.0023234090
      6593.90      0.82255117    0.0023216428
      6600.50      0.81835155    0.0023202447
      6607.10      0.81526819    0.0023183453
      6613.70      0.81079732    0.0023041138
      6620.32      0.80545428    0.0023021088
      6626.94      0.80245200    0.0023005589
      6633.57      0.79940967    0.0022983828
      6640.20      0.79652449    0.0022967362
      6646.84      0.79179277    0.0022943094
      6653.49      0.78775844    0.0022795559
      6660.14      0.78167303    0.0022899345
      6666.80      0.77573677    0.0022749551
      6673.47      0.77027008    0.0022852519
      6680.14      0.76310512    0.0022825146
      6686.82      0.75545203    0.0022675280
      6693.51      0.74749241    0.0022772444
      6700.20      0.73923534    0.0022620083
      6706.90      0.73090017    0.0022716776
      6713.61      0.72322790    0.0022561672
      6720.32      0.71715636    0.0022531957
      6727.05      0.71151693    0.0022500583
      6733.77      0.70528597    0.0022467545
      6740.51      0.70155444    0.0022314416
      6747.25      0.69979509    0.0022403616
      6754.00      0.69968568    0.0022404016
      6760.75      0.70137061    0.0022344144
      6767.51      0.70329643    0.0022457001
      6774.28      0.70595272    0.0022275859
      6781.05      0.70853699    0.0022266884
      6787.84      0.71158975    0.0022339249
      6794.62      0.71546527    0.0022506623
      6801.42      0.71968423    0.0022756512
      6808.22      0.72168845    0.0022927005
      6815.03      0.72491975    0.0023337883
      6821.85      0.72723581    0.0023661845
      6828.67      0.72987978    0.0023767065
      6835.50      0.73203587    0.0024049776
      6842.33      0.73425017    0.0023937193
      6849.17      0.73816066    0.0023836681
      6856.02      0.74039341    0.0023605356
      6862.88      0.74172607    0.0023345196
      6869.74      0.74484048    0.0022987114
      6876.61      0.74681776    0.0022641034
      6883.49      0.74696774    0.0022273815
      6890.37      0.74780318    0.0022212724
      6897.27      0.74720818    0.0022005079
      6904.16      0.74420043    0.0021675112
      6911.07      0.73933390    0.0021490760
      6917.98      0.73729523    0.0021474122
      6924.89      0.73372935    0.0021236572
      6931.82      0.73119713    0.0021108899
      6938.75      0.72750570    0.0020999206
      6945.69      0.72436772    0.0020805035
      6952.64      0.72187011    0.0020837382
      6959.59      0.71994440    0.0020756996
      6966.55      0.71932198    0.0020676558
      6973.52      0.72010676    0.0020487111
      6980.49      0.72074671    0.0020296087
      6987.47      0.72215439    0.0019986619
      6994.46      0.72185040    0.0019680457
      7001.46      0.72436234    0.0019486095
      7008.46      0.72600895    0.0019197575
      7015.46      0.72874266    0.0018918796
      7022.48      0.73077951    0.0018647759
      7029.51      0.73148992    0.0018396921
      7036.53      0.73245044    0.0018142168
      7043.57      0.73295643    0.0017911327
      7050.62      0.73425853    0.0017691860
      7057.66      0.73299988    0.0017555344
      7064.72      0.73235380    0.0017331762
      7071.79      0.73135854    0.0017115117
      7078.86      0.72841685    0.0016914350
      7085.94      0.72567896    0.0016824118
      7093.03      0.72172620    0.0016713382
      7100.12      0.71898462    0.0016562370
      7107.22      0.71646527    0.0016470635
      7114.33      0.71427494    0.0016361151
      7121.44      0.71042220    0.0016304110
      7128.56      0.70758816    0.0016176563
      7135.69      0.70394070    0.0016037905
      7142.83      0.69877525    0.0015882579
      7149.97      0.69330062    0.0015717815
      7157.12      0.69038141    0.0015541044
      7164.28      0.68653949    0.0015350666
      7171.44      0.68266328    0.0015208944
      7178.62      0.67906177    0.0014994419
      7185.80      0.67480299    0.0014736490
      7192.98      0.67236243    0.0014518118
      7200.17      0.66948255    0.0014296115
      7207.38      0.66699018    0.0014069639
      7214.58      0.66402938    0.0013838215
      7221.80      0.66128901    0.0013605446
      7229.02      0.65897671    0.0013374729
      7236.25      0.65656257    0.0013146371
      7243.49      0.65480183    0.0012976606
      7250.73      0.65228135    0.0013103422
      7257.98      0.64907688    0.0013259424
      7265.24      0.64627129    0.0013451236
      7272.51      0.64364257    0.0013688210
      7279.78      0.64109835    0.0013986167
      7287.06      0.63775047    0.0014368953
      7294.35      0.63460915    0.0014871434
      7301.64      0.63176844    0.0015549541
      7308.94      0.62923067    0.0016474903
      7316.25      0.62744034    0.0017724648
      7323.57      0.62508067    0.0019381458
      7330.89      0.62238370    0.0021520492
      7338.22      0.61909195    0.0024254230
      7345.56      0.61544011    0.0027739016
      7352.91      0.61143032    0.0032147414
      7360.26      0.60766889    0.0037703229
