# starting wavelength =        3223.4200
# ending wavelength =        8382.0800
# O2 telluric scale =        0
# O2 telluric shift =        0
# H2O telluric scale =        0
# H2O telluric shift =        0
      3223.51      0.19079182     0.020822318
      3226.73      0.20336921     0.016876105
      3229.96      0.21650319     0.014373722
      3233.19      0.22627190     0.012442832
      3236.42      0.23182412     0.011370870
      3239.66      0.23536580     0.010118085
      3242.90      0.23696576    0.0088708074
      3246.14      0.23834253    0.0081717878
      3249.39      0.23967916    0.0076275924
      3252.64      0.24093368    0.0073165844
      3255.89      0.23724601    0.0069497787
      3259.14      0.23777084    0.0066075019
      3262.40      0.24280939    0.0063843780
      3265.67      0.24420439    0.0061954651
      3268.93      0.24873290    0.0060908713
      3272.20      0.25258411    0.0059446645
      3275.47      0.25880708    0.0058156151
      3278.75      0.26272460    0.0057339079
      3282.03      0.26806182    0.0056341008
      3285.31      0.27036928    0.0056302802
      3288.60      0.27180834    0.0055825167
      3291.88      0.27594633    0.0055801430
      3295.18      0.28145673    0.0056215096
      3298.47      0.28722577    0.0056182249
      3301.77      0.29292618    0.0056170462
      3305.07      0.29619338    0.0056128932
      3308.38      0.29878578    0.0056093574
      3311.69      0.30579810    0.0056510072
      3315.00      0.31040768    0.0056487907
      3318.31      0.31635566    0.0056005952
      3321.63      0.32102468    0.0056418624
      3324.95      0.32770022    0.0056393173
      3328.28      0.33057119    0.0056373908
      3331.61      0.33696792    0.0056794973
      3334.94      0.34090767    0.0056299258
      3338.27      0.34388691    0.0056745491
      3341.61      0.34467320    0.0056706070
      3344.95      0.34830573    0.0056673080
      3348.30      0.34803054    0.0057110042
      3351.65      0.35132594    0.0056619547
      3355.00      0.35144978    0.0056583127
      3358.35      0.35391074    0.0057014349
      3361.71      0.35680660    0.0056989386
      3365.07      0.36148487    0.0056969680
      3368.44      0.36408298    0.0056922238
      3371.81      0.36671138    0.0056891515
      3375.18      0.37147447    0.0056866801
      3378.56      0.37794244    0.0057319845
      3381.94      0.38035526    0.0057284964
      3385.32      0.38331550    0.0057254999
      3388.70      0.38513466    0.0057236452
      3392.09      0.39170114    0.0057195432
      3395.48      0.39490538    0.0057160861
      3398.88      0.39754200    0.0057613740
      3402.28      0.39925058    0.0057589300
      3405.68      0.40170358    0.0057570390
      3409.09      0.40294392    0.0058028399
      3412.49      0.40114577    0.0057487048
      3415.91      0.40233458    0.0057462263
      3419.32      0.40123999    0.0057939836
      3422.74      0.39984260    0.0057902424
      3426.17      0.40095833    0.0057870409
      3429.59      0.40258119    0.0058349314
      3433.02      0.40119651    0.0057814385
      3436.45      0.39918998    0.0057775535
      3439.89      0.39681712    0.0058246734
      3443.33      0.39543690    0.0058217413
      3446.78      0.39079678    0.0058193954
      3450.22      0.38869109    0.0058691506
      3453.67      0.38740187    0.0058654566
      3457.13      0.38510877    0.0058622683
      3460.58      0.38355855    0.0058610324
      3464.04      0.37835521    0.0058565624
      3467.51      0.37906404    0.0058525879
      3470.98      0.37947788    0.0058490962
      3474.45      0.37810955    0.0058989299
      3477.92      0.37321589    0.0058963444
      3481.40      0.36808053    0.0058942034
      3484.88      0.36599020    0.0059455001
      3488.37      0.36567674    0.0059419962
      3491.86      0.36544200    0.0058825292
      3495.35      0.36832764    0.0058799029
      3498.84      0.36909648    0.0059330367
      3502.34      0.36917584    0.0059290715
      3505.84      0.37190499    0.0059254299
      3509.35      0.37201531    0.0059778205
      3512.86      0.37424515    0.0059749565
      3516.37      0.37736586    0.0059726563
      3519.89      0.37840198    0.0059706737
      3523.41      0.37933730    0.0060236597
      3526.93      0.37865715    0.0060202920
      3530.46      0.37704836    0.0059578588
      3533.99      0.37835818    0.0060152254
      3537.53      0.38187115    0.0060108140
      3541.06      0.38850001    0.0060067633
      3544.60      0.39026535    0.0060032540
      3548.15      0.39217404    0.0060583039
      3551.70      0.39539375    0.0060554156
      3555.25      0.39424539    0.0060529310
      3558.80      0.39600082    0.0060507991
      3562.36      0.39977239    0.0061076664
      3565.92      0.40074265    0.0061040374
      3569.49      0.40330440    0.0061005936
      3573.06      0.40348300    0.0061592588
      3576.64      0.40659532    0.0061565105
      3580.21      0.41247368    0.0061542526
      3583.79      0.41595089    0.0061522133
      3587.38      0.41676070    0.0061444935
      3590.96      0.42195672    0.0061409780
      3594.55      0.42752655    0.0061377534
      3598.15      0.42919866    0.0061347498
      3601.75      0.42751487    0.0061990385
      3605.35      0.42731673    0.0061945438
      3608.96      0.42617643    0.0061903869
      3612.56      0.42604672    0.0061865566
      3616.18      0.42663655    0.0062478942
      3619.79      0.42514566    0.0062445625
      3623.41      0.42974747    0.0062414926
      3627.04      0.43769660    0.0062386894
      3630.66      0.44180336    0.0062361766
      3634.29      0.44427833    0.0063016021
      3637.93      0.45021868    0.0062975707
      3641.57      0.45310051    0.0062936777
      3645.21      0.45622410    0.0062898868
      3648.86      0.46215725    0.0063553883
      3652.50      0.46589005    0.0063524095
      3656.16      0.47156846    0.0063494760
      3659.81      0.47835165    0.0063467702
      3663.47      0.48094034    0.0064175662
      3667.14      0.48601064    0.0064132787
      3670.80      0.49025712    0.0064090567
      3674.48      0.49802154    0.0064050490
      3678.15      0.50153233    0.0064014779
      3681.83      0.50051168    0.0064712956
      3685.51      0.50407680    0.0064678999
      3689.20      0.50377647    0.0064648809
      3692.88      0.50472249    0.0064618665
      3696.58      0.50298305    0.0064588110
      3700.27      0.50076545    0.0065343613
      3703.98      0.50073653    0.0065299642
      3707.68      0.49947675    0.0065258362
      3711.39      0.49436317    0.0065218882
      3715.10      0.49376080    0.0065960397
      3718.81      0.49108715    0.0065923647
      3722.53      0.48835209    0.0065886704
      3726.26      0.49106045    0.0065851214
      3729.98      0.49221760    0.0065816454
      3733.71      0.49921266    0.0066656803
      3737.45      0.50231612    0.0067463902
      3741.18      0.50676783    0.0067434064
      3744.93      0.51351898    0.0066542421
      3748.67      0.52289301    0.0066496260
      3752.42      0.52853878    0.0066453512
      3756.17      0.53834684    0.0066409977
      3759.93      0.54523387    0.0066367705
      3763.69      0.55058194    0.0066327328
      3767.45      0.55838959    0.0066290103
      3771.22      0.55803617    0.0066251512
      3774.99      0.55781381    0.0066211538
      3778.77      0.55348854    0.0066174840
      3782.54      0.55461094    0.0066136405
      3786.33      0.55731303    0.0066098658
      3790.11      0.56162688    0.0066062742
      3793.90      0.56424633    0.0066029133
      3797.70      0.56895693    0.0065129092
      3801.50      0.57407834    0.0065094003
      3805.30      0.57675801    0.0065059002
      3809.10      0.57879412    0.0065022587
      3812.91      0.58383794    0.0064986312
      3816.73      0.58859046    0.0064952876
      3820.54      0.59596952    0.0064919454
      3824.36      0.60319374    0.0064884442
      3828.19      0.61042155    0.0064849485
      3832.02      0.61126595    0.0064814429
      3835.85      0.61797144    0.0064777789
      3839.68      0.62335612    0.0064740862
      3843.52      0.61914052    0.0064706711
      3847.37      0.61701819    0.0064672342
      3851.22      0.61601984    0.0064635754
      3855.07      0.61993668    0.0064599640
      3858.92      0.62478065    0.0064563030
      3862.78      0.62874058    0.0064524503
      3866.64      0.62534927    0.0064485913
      3870.51      0.62493899    0.0064449941
      3874.38      0.62645386    0.0064413382
      3878.26      0.62595458    0.0064375093
      3882.13      0.63018656    0.0064336589
      3886.02      0.63458454    0.0064297988
      3889.90      0.63524715    0.0064257305
      3893.79      0.64613453    0.0064216458
      3897.69      0.65100681    0.0064178534
      3901.59      0.65300733    0.0064138813
      3905.49      0.65119104    0.0064099249
      3909.39      0.65348883    0.0064059671
      3913.30      0.65214904    0.0064019615
      3917.22      0.64513105    0.0063977520
      3921.13      0.64918861    0.0063935236
      3925.06      0.65587459    0.0063895563
      3928.98      0.66104314    0.0063854706
      3932.91      0.66553797    0.0063813954
      3936.84      0.66702326    0.0063773011
      3940.78      0.66531148    0.0063732326
      3944.72      0.66218477    0.0063689748
      3948.67      0.66904992    0.0063647331
      3952.61      0.66855694    0.0063607755
      3956.57      0.67001692    0.0062814969
      3960.52      0.67484260    0.0062776144
      3964.48      0.67852746    0.0062738290
      3968.45      0.68384406    0.0062698656
      3972.42      0.68245375    0.0062659994
      3976.39      0.68220025    0.0062622157
      3980.37      0.67628092    0.0062583069
      3984.35      0.67430567    0.0062546882
      3988.33      0.67717450    0.0062511614
      3992.32      0.68171033    0.0062477354
      3996.31      0.69115422    0.0062442207
      4000.31      0.69534659    0.0062408425
      4004.31      0.69406121    0.0062375968
      4008.31      0.69354884    0.0061583048
      4012.32      0.69403971    0.0061540427
      4016.33      0.69239824    0.0061497250
      4020.35      0.68733788    0.0061456964
      4024.37      0.68710037    0.0061416244
      4028.40      0.68278296    0.0061374825
      4032.42      0.68092088    0.0061336929
      4036.46      0.68328699    0.0062068983
      4040.50      0.68278191    0.0062034197
      4044.54      0.68367708    0.0061998942
      4048.58      0.68276130    0.0061248828
      4052.63      0.68218621    0.0061201160
      4056.68      0.67912866    0.0061153519
      4060.74      0.68260231    0.0061105895
      4064.80      0.68483226    0.0061061714
      4068.86      0.69248048    0.0061020186
      4072.93      0.69379310    0.0060980357
      4077.01      0.69607355    0.0060941149
      4081.08      0.69986158    0.0060906032
      4085.17      0.70559714    0.0060183481
      4089.25      0.71009957    0.0060890410
      4093.34      0.71308610    0.0060840579
      4097.43      0.71436400    0.0060791076
      4101.53      0.71324025    0.0060745999
      4105.63      0.71429151    0.0060701666
      4109.74      0.71679512    0.0060658751
      4113.85      0.72304147    0.0059935353
      4117.96      0.72767099    0.0059899573
      4122.08      0.73228301    0.0059868165
      4126.20      0.73772098    0.0059838509
      4130.33      0.74035824    0.0060508661
      4134.46      0.74229793    0.0060462385
      4138.59      0.74121140    0.0060418262
      4142.73      0.73768307    0.0059694343
      4146.88      0.74465599    0.0059657140
      4151.02      0.74547203    0.0059623632
      4155.18      0.74960412    0.0059595105
      4159.33      0.75412212    0.0059569040
      4163.49      0.75992292    0.0059547076
      4167.65      0.76272113    0.0059492768
      4171.82      0.76599883    0.0059452385
      4175.99      0.76855687    0.0059416485
      4180.17      0.76835654    0.0059385064
      4184.35      0.76786896    0.0059358162
      4188.54      0.77337249    0.0058633858
      4192.72      0.77614889    0.0058588617
      4196.92      0.77594065    0.0059248138
      4201.11      0.77688902    0.0059209964
      4205.31      0.78075454    0.0059179115
      4209.52      0.77687485    0.0059153231
      4213.73      0.77498494    0.0058430945
      4217.94      0.77312048    0.0058386612
      4222.16      0.77168880    0.0058345982
      4226.38      0.77676695    0.0059009363
      4230.61      0.77763832    0.0058978490
      4234.84      0.78092933    0.0058272752
      4239.08      0.78829040    0.0058225388
      4243.32      0.79393229    0.0058182331
      4247.56      0.79626010    0.0058145672
      4251.81      0.80250524    0.0058168751
      4256.06      0.80245062    0.0058112466
      4260.32      0.80738136    0.0058060900
      4264.58      0.80942028    0.0058017742
      4268.84      0.81243978    0.0057980841
      4273.11      0.80849244    0.0058005323
      4277.38      0.81138867    0.0057948784
      4281.66      0.81477804    0.0057897679
      4285.94      0.82188913    0.0057854011
      4290.23      0.82684774    0.0057192644
      4294.52      0.83459269    0.0057165952
      4298.81      0.84224996    0.0057780247
      4303.11      0.84960438    0.0057731355
      4307.42      0.86034031    0.0057066388
      4311.72      0.86665120    0.0057034950
      4316.04      0.87755684    0.0057009930
      4320.35      0.89043130    0.0057608540
      4324.67      0.89700987    0.0056942668
      4329.00      0.90734857    0.0056907332
      4333.33      0.91617709    0.0056881962
      4337.66      0.92284469    0.0057486618
      4342.00      0.93351026    0.0056818713
      4346.34      0.94063092    0.0056782240
      4350.69      0.94817554    0.0056754364
      4355.04      0.95388464    0.0056737370
      4359.39      0.96723308    0.0056695489
      4363.75      0.97256331    0.0056658688
      4368.12      0.98080852    0.0056630465
      4372.48      0.98746170    0.0056613597
      4376.86      0.99524261    0.0056570186
      4381.23       1.0002043    0.0056535606
      4385.61       1.0008968    0.0056510245
      4390.00      0.99945513    0.0055851617
      4394.39      0.99570940    0.0056445888
      4398.79      0.99006144    0.0056413344
      4403.18      0.98316305    0.0056390402
      4407.59      0.97408505    0.0055726837
      4412.00      0.96695959    0.0056324311
      4416.41      0.95912295    0.0056294552
      4420.82      0.95478867    0.0055648955
      4425.25      0.95192918    0.0055602845
      4429.67      0.94947057    0.0056203455
      4434.10      0.94804363    0.0055573302
      4438.54      0.94830141    0.0055520897
      4442.97      0.95213393    0.0055480436
      4447.42      0.95902393    0.0055497835
      4451.86      0.96415333    0.0055440430
      4456.32      0.96939953    0.0055394533
      4460.77      0.97382250    0.0054789562
      4465.24      0.97519188    0.0055361388
      4469.70      0.97485174    0.0055312909
      4474.17      0.97547994    0.0054704742
      4478.65      0.96907028    0.0055283517
      4483.12      0.96447524    0.0055230585
      4487.61      0.96093582    0.0054621493
      4492.09      0.95979345    0.0054596930
      4496.59      0.95975646    0.0055148480
      4501.08      0.96005223    0.0054537221
      4505.58      0.96066205    0.0054511442
      4510.09      0.96156013    0.0055064661
      4514.60      0.96600803    0.0054453716
      4519.12      0.96839535    0.0054428609
      4523.63      0.97050005    0.0054982475
      4528.16      0.97230000    0.0054371951
      4532.69      0.97623298    0.0054346521
      4537.22      0.97283111    0.0054898741
      4541.76      0.97412373    0.0054290868
      4546.30      0.97383939    0.0054266547
      4550.85      0.97488287    0.0053659959
      4555.40      0.97184274    0.0054209175
      4559.95      0.97077241    0.0054187664
      4564.51      0.96539280    0.0053578071
      4569.08      0.96508461    0.0054129907
      4573.65      0.96353090    0.0054111541
      4578.22      0.96341256    0.0053496667
      4582.80      0.96060807    0.0054050890
      4587.38      0.95631580    0.0053458120
      4591.97      0.95290075    0.0054000230
      4596.56      0.95007262    0.0053974806
      4601.16      0.94936155    0.0053374931
      4605.76      0.94548337    0.0053921992
      4610.37      0.93748084    0.0053341935
      4614.98      0.93408683    0.0053292746
      4619.59      0.92693298    0.0053845474
      4624.21      0.92062413    0.0053255429
      4628.84      0.91480554    0.0053214134
      4633.47      0.90684669    0.0053223120
      4638.10      0.90400812    0.0053171062
      4642.74      0.89899033    0.0053137637
      4647.38      0.89135006    0.0053133766
      4652.03      0.88790788    0.0053091100
      4656.68      0.89173522    0.0053100493
      4661.34      0.88776030    0.0053048997
      4666.00      0.88512329    0.0052490336
      4670.67      0.88554424    0.0053011561
      4675.33      0.88514019    0.0052969745
      4680.01      0.88464646    0.0052978100
      4684.69      0.88575938    0.0052928363
      4689.38      0.88730171    0.0052374405
      4694.07      0.88601598    0.0052889302
      4698.76      0.88107610    0.0052328023
      4703.46      0.88199788    0.0052852671
      4708.16      0.87769176    0.0052284038
      4712.87      0.87774222    0.0052263074
      4717.58      0.87256338    0.0052766689
      4722.30      0.87224393    0.0052215388
      4727.03      0.87089628    0.0052727945
      4731.75      0.86411046    0.0052169846
      4736.48      0.85941651    0.0052159084
      4741.22      0.86251262    0.0052126907
      4745.96      0.86180671    0.0052110670
      4750.71      0.85856974    0.0052085166
      4755.46      0.86165615    0.0052064282
      4760.22      0.86241683    0.0052045805
      4764.97      0.86381607    0.0052020226
      4769.74      0.86758334    0.0051465600
      4774.51      0.87181791    0.0051976844
      4779.29      0.87566547    0.0051427441
      4784.07      0.87802364    0.0051934533
      4788.85      0.88353576    0.0051390764
      4793.64      0.89234492    0.0051894451
      4798.43      0.89984675    0.0051352766
      4803.23      0.91200232    0.0051853408
      4808.03      0.91883120    0.0051315304
      4812.84      0.92072867    0.0051275790
      4817.66      0.92154101    0.0051277928
      4822.48      0.92099852    0.0051237578
      4827.30      0.91974334    0.0051241027
      4832.12      0.91949508    0.0051199400
      4836.96      0.91576278    0.0051204246
      4841.79      0.91511030    0.0051162183
      4846.63      0.90935712    0.0051167226
      4851.48      0.90405587    0.0051123580
      4856.33      0.90020014    0.0051128259
      4861.19      0.89863708    0.0051085949
      4866.05      0.89830282    0.0051089920
      4870.92      0.89963032    0.0051049951
      4875.79      0.90027015    0.0051052449
      4880.66      0.90828353    0.0050526399
      4885.55      0.91661585    0.0051013965
      4890.43      0.92919943    0.0050491239
      4895.32      0.93971320    0.0050975986
      4900.22      0.94754697    0.0050457313
      4905.12      0.95697749    0.0050939061
      4910.02      0.97016948    0.0050424138
      4914.94      0.97992569    0.0050901893
      4919.85      0.98923146    0.0050391711
      4924.77       1.0011931    0.0050381115
      4929.70       1.0122001    0.0050361219
      4934.62       1.0218079    0.0050345663
      4939.56       1.0296191    0.0050330968
      4944.50       1.0356360    0.0050311809
      4949.44       1.0390507    0.0050302614
      4954.39       1.0463651    0.0050279645
      4959.35       1.0514042    0.0049774635
      4964.31       1.0544946    0.0050248912
      4969.27       1.0549460    0.0049739308
      4974.24       1.0593208    0.0050222177
      4979.22       1.0581506    0.0050208463
      4984.20       1.0597549    0.0049711976
      4989.18       1.0592240    0.0050178329
      4994.17       1.0635232    0.0049674887
      4999.16       1.0701268    0.0050149496
      5004.16       1.0762269    0.0049640309
      5009.17       1.0826409    0.0049650066
      5014.18       1.0898819    0.0049609766
      5019.19       1.1015301    0.0049611408
      5024.21       1.1102515    0.0050081193
      5029.23       1.1184023    0.0049576512
      5034.26       1.1258965    0.0049588806
      5039.30       1.1308167    0.0049546093
      5044.34       1.1371293    0.0049549732
      5049.39       1.1468124    0.0049064789
      5054.43       1.1519729    0.0049514892
      5059.49       1.1569584    0.0049526003
      5064.55       1.1621552    0.0049485822
      5069.61       1.1648111    0.0049488581
      5074.68       1.1675131    0.0049008698
      5079.76       1.1730127    0.0049455216
      5084.84       1.1789851    0.0048990765
      5089.92       1.1829815    0.0048976095
      5095.01       1.1904572    0.0049428614
      5100.11       1.1958109    0.0048957630
      5105.21       1.2015170    0.0048947180
      5110.31       1.2073006    0.0049402758
      5115.42       1.2129057    0.0048926360
      5120.54       1.2147428    0.0048920645
      5125.66       1.2188788    0.0048914290
      5130.79       1.2246741    0.0048898166
      5135.92       1.2283859    0.0048894328
      5141.05       1.2331043    0.0048885568
      5146.20       1.2419900    0.0048871991
      5151.34       1.2466400    0.0048399999
      5156.49       1.2524849    0.0048860305
      5161.65       1.2559386    0.0048847584
      5166.81       1.2565757    0.0048376368
      5171.98       1.2589769    0.0048836534
      5177.15       1.2616685    0.0048825965
      5182.33       1.2663469    0.0048355018
      5187.51       1.2679976    0.0048363176
      5192.70       1.2699721    0.0048804514
      5197.89       1.2688549    0.0048333039
      5203.09       1.2691501    0.0048340483
      5208.29       1.2648008    0.0048786055
      5213.50       1.2598630    0.0048313509
      5218.72       1.2536872    0.0048319349
      5223.93       1.2494854    0.0048334060
      5229.16       1.2458344    0.0048294823
      5234.39       1.2405654    0.0048299632
      5239.62       1.2379419    0.0048311955
      5244.86       1.2360643    0.0048279772
      5250.11       1.2318746    0.0048280477
      5255.36       1.2303377    0.0048289626
      5260.61       1.2266520    0.0047841393
      5265.87       1.2237869    0.0048265359
      5271.14       1.2223241    0.0048270916
      5276.41       1.2232252    0.0047831621
      5281.69       1.2291990    0.0047826966
      5286.97       1.2288533    0.0048254747
      5292.26       1.2303305    0.0048264089
      5297.55       1.2308923    0.0047820317
      5302.85       1.2290828    0.0047818220
      5308.15       1.2256984    0.0048247538
      5313.46       1.2257748    0.0047817923
      5318.77       1.2223964    0.0047812431
      5324.09       1.2176081    0.0047812329
      5329.42       1.2121059    0.0047817545
      5334.75       1.2086293    0.0047812691
      5340.08       1.2028429    0.0047808111
      5345.42       1.1964234    0.0047808714
      5350.77       1.1885929    0.0047370195
      5356.12       1.1813657    0.0047380478
      5361.48       1.1745369    0.0047808497
      5366.83       1.1666096    0.0047809156
      5372.20       1.1561519    0.0047370011
      5377.58       1.1487722    0.0047379341
      5382.95       1.1448570    0.0047392848
      5388.34       1.1364119    0.0047812951
      5393.72       1.1298481    0.0047371721
      5399.12       1.1182202    0.0047380141
      5404.52       1.1055166    0.0047391923
      5409.92       1.0947582    0.0047407309
      5415.33       1.0849592    0.0047379326
      5420.75       1.0714278    0.0047384686
      5426.17       1.0624112    0.0047394239
      5431.60       1.0543299    0.0047407696
      5437.03       1.0494435    0.0047424114
      5442.47       1.0397247    0.0046994638
      5447.91       1.0326771    0.0047403852
      5453.36       1.0273916    0.0047413431
      5458.81       1.0262090    0.0047426283
      5464.27       1.0258529    0.0047013720
      5469.73       1.0234922    0.0047017226
      5475.20       1.0192172    0.0047425487
      5480.68       1.0217506    0.0048900587
      5486.16       1.0236514    0.0050546461
      5491.65       1.0261608    0.0047952400
      5497.14       1.0251585    0.0047324619
      5502.64       1.0213708    0.0048011272
      5508.14       1.0201095    0.0049239390
      5513.65       1.0194006    0.0050714601
      5519.16       1.0197403    0.0052216552
      5524.68       1.0207504    0.0053379355
      5530.20       1.0264195    0.0054402304
      5535.73       1.0274946    0.0054685246
      5541.27       1.0284022    0.0054192003
      5546.81       1.0274079    0.0053188737
      5552.36       1.0277407    0.0051861765
      5557.91       1.0306371    0.0050105221
      5563.47       1.0309766    0.0048750793
      5569.04       1.0335851    0.0047650839
      5574.60       1.0342499    0.0047353787
      5580.18       1.0330551    0.0048153677
      5585.76       1.0361878    0.0050402428
      5591.35       1.0430171    0.0048698207
      5596.94       1.0467831    0.0047214227
      5602.53       1.0502985    0.0046803552
      5608.14       1.0549496    0.0046819357
      5613.75       1.0589546    0.0046835779
      5619.36       1.0618390    0.0046854118
      5624.98       1.0606429    0.0046873028
      5630.60       1.0622264    0.0046892555
      5636.23       1.0629682    0.0046487799
      5641.87       1.0636895    0.0046501552
      5647.51       1.0641107    0.0046900178
      5653.16       1.0627242    0.0046916470
      5658.82       1.0644594    0.0046933316
      5664.47       1.0649596    0.0046950619
      5670.14       1.0656458    0.0046968839
      5675.81       1.0694567    0.0046987716
      5681.48       1.0709295    0.0047006945
      5687.17       1.0757689    0.0046622615
      5692.85       1.0856943    0.0046637557
      5698.55       1.0915597    0.0046652749
      5704.25       1.0980781    0.0046669677
      5709.95       1.1065820    0.0046686884
      5715.66       1.1101477    0.0046704381
      5721.38       1.1130994    0.0046722131
      5727.10       1.1164123    0.0046740083
      5732.83       1.1156366    0.0046759542
      5738.56       1.1185719    0.0046779144
      5744.30       1.1162584    0.0046798918
      5750.04       1.1151430    0.0046819447
      5755.79       1.1142087    0.0046839677
      5761.55       1.1152228    0.0046451173
      5767.31       1.1184772    0.0046471790
      5773.08       1.1203868    0.0046493118
      5778.85       1.1235784    0.0046516255
      5784.63       1.1231888    0.0046543638
      5790.41       1.1214976    0.0046571807
      5796.21       1.1196770    0.0046597762
      5802.00       1.1154955    0.0046624615
      5807.81       1.1072072    0.0046655960
      5813.61       1.1009545    0.0046698545
      5819.43       1.0937762    0.0046756201
      5825.25       1.0808996    0.0046821454
      5831.07       1.0750569    0.0046886911
      5836.90       1.0646193    0.0046956949
      5842.74       1.0551723    0.0047032364
      5848.58       1.0484713    0.0047102703
      5854.43       1.0343343    0.0047155780
      5860.29       1.0286851    0.0047196930
      5866.15       1.0262390    0.0046860317
      5872.01       1.0255421    0.0046888929
      5877.89       1.0256187    0.0046909177
      5883.76       1.0263801    0.0046924509
      5889.65       1.0286475    0.0046941085
      5895.54       1.0276787    0.0046961502
      5901.43       1.0270618    0.0046981897
      5907.34       1.0284550    0.0046996661
      5913.24       1.0302011    0.0047005885
      5919.16       1.0315129    0.0047010382
      5925.08       1.0325329    0.0047014355
      5931.00       1.0379244    0.0047020384
      5936.93       1.0419133    0.0047022036
      5942.87       1.0438072    0.0046632814
      5948.81       1.0435208    0.0046630829
      5954.76       1.0454170    0.0046640410
      5960.72       1.0428558    0.0046651350
      5966.68       1.0380756    0.0046656089
      5972.64       1.0361131    0.0046664135
      5978.62       1.0375739    0.0046680581
      5984.60       1.0361907    0.0047099279
      5990.58       1.0315973    0.0047124365
      5996.57       1.0269414    0.0046790134
      6002.57       1.0251567    0.0046815475
      6008.57       1.0232496    0.0046842090
      6014.58       1.0189968    0.0046869485
      6020.60       1.0209470    0.0046897877
      6026.62       1.0238476    0.0046927702
      6032.65       1.0242665    0.0046959079
      6038.68       1.0281696    0.0046635146
      6044.72       1.0350684    0.0046669473
      6050.76       1.0368713    0.0046704840
      6056.81       1.0359629    0.0046741366
      6062.87       1.0325216    0.0047160643
      6068.93       1.0306569    0.0047192232
      6075.00       1.0331126    0.0047225013
      6081.08       1.0394790    0.0046900456
      6087.16       1.0425873    0.0046935725
      6093.25       1.0483043    0.0046972682
      6099.34       1.0482659    0.0047011570
      6105.44       1.0490085    0.0047052088
      6111.54       1.0524892    0.0046721923
      6117.66       1.0574706    0.0047144005
      6123.78       1.0625257    0.0047180614
      6129.90       1.0650004    0.0047219052
      6136.03       1.0708055    0.0047259437
      6142.17       1.0737769    0.0047301863
      6148.31       1.0725690    0.0046973724
      6154.46       1.0727985    0.0047009631
      6160.61       1.0722254    0.0047049552
      6166.77       1.0706705    0.0047490772
      6172.94       1.0682922    0.0047206240
      6179.11       1.0635146    0.0047246830
      6185.29       1.0667719    0.0047278442
      6191.48       1.0740951    0.0047332616
      6197.67       1.0774576    0.0047415288
      6203.87       1.0783465    0.0047587464
      6210.07       1.0795434    0.0047713573
      6216.28       1.0808064    0.0047856650
      6222.50       1.0858948    0.0048006434
      6228.72       1.0886626    0.0047807250
      6234.95       1.0886434    0.0047936600
      6241.19       1.0862104    0.0048437056
      6247.42       1.0853308    0.0048497742
      6253.67       1.0850320    0.0048162641
      6259.93       1.0867128    0.0048162333
      6266.19       1.0891363    0.0048140166
      6272.46       1.0846270    0.0048451832
      6278.73       1.0886453    0.0048048301
      6285.01       1.0955837    0.0048031918
      6291.29       1.1004714    0.0048045115
      6297.58       1.1027779    0.0048056412
      6303.88       1.1067694    0.0048046971
      6310.19       1.1136423    0.0048058596
      6316.50       1.1169364    0.0048081263
      6322.81       1.1208783    0.0047735232
      6329.14       1.1238713    0.0048137343
      6335.47       1.1281981    0.0048168138
      6341.80       1.1333934    0.0047843584
      6348.14       1.1347547    0.0047874060
      6354.49       1.1313906    0.0048298820
      6360.85       1.1326862    0.0047995620
      6367.21       1.1365731    0.0048036650
      6373.57       1.1405815    0.0048083017
      6379.95       1.1470044    0.0048180678
      6386.33       1.1529510    0.0048229075
      6392.72       1.1549109    0.0048290364
      6399.11       1.1613506    0.0048031747
      6405.51       1.1640266    0.0048511305
      6411.92       1.1657511    0.0048596549
      6418.32       1.1655542    0.0048336715
      6424.74       1.1663130    0.0048810594
      6431.17       1.1671231    0.0048880424
      6437.60       1.1621382    0.0048605949
      6444.04       1.1624683    0.0048672822
      6450.48       1.1621678    0.0049101501
      6456.94       1.1618575    0.0048791518
      6463.39       1.1645780    0.0048832083
      6469.85       1.1654400    0.0049243020
      6476.33       1.1687771    0.0048931797
      6482.80       1.1697901    0.0048982689
      6489.28       1.1719488    0.0049061919
      6495.77       1.1764243    0.0049109783
      6502.27       1.1775837    0.0049159612
      6508.77       1.1835017    0.0048839678
      6515.28       1.1841792    0.0049255672
      6521.80       1.1838440    0.0048942888
      6528.32       1.1844145    0.0048981874
      6534.85       1.1858493    0.0049409341
      6541.38       1.1879732    0.0049087211
      6547.92       1.1881230    0.0049504285
      6554.47       1.1865485    0.0049204511
      6561.03       1.1852371    0.0049248042
      6567.59       1.1866473    0.0049689465
      6574.16       1.1823445    0.0049396086
      6580.73       1.1816776    0.0049449828
      6587.31       1.1811076    0.0049555354
      6593.90       1.1808980    0.0049605498
      6600.50       1.1814076    0.0049324911
      6607.10       1.1793563    0.0049763322
      6613.70       1.1777081    0.0049820466
      6620.32       1.1800908    0.0049928257
      6626.94       1.1722133    0.0049982024
      6633.57       1.1721786    0.0049704834
      6640.20       1.1675439    0.0050147781
      6646.84       1.1676942    0.0049866324
      6653.49       1.1648060    0.0049938413
      6660.14       1.1628673    0.0050029746
      6666.80       1.1634590    0.0050099825
      6673.47       1.1589357    0.0050197015
      6680.14       1.1619924    0.0050265027
      6686.82       1.1616902    0.0050365916
      6693.51       1.1610061    0.0050432339
      6700.20       1.1599615    0.0050152840
      6706.90       1.1627548    0.0050602867
      6713.61       1.1653666    0.0050324919
      6720.32       1.1659757    0.0050774921
      6727.05       1.1662206    0.0050498964
      6733.77       1.1621027    0.0050949952
      6740.51       1.1591048    0.0050681853
      6747.25       1.1564104    0.0050791538
      6754.00       1.1508876    0.0051094923
      6760.75       1.1487192    0.0051257574
      6767.51       1.1439113    0.0051320177
      6774.28       1.1407038    0.0051413979
      6781.05       1.1350663    0.0051828129
      6787.84       1.1367031    0.0052267081
      6794.62       1.1381266    0.0053087590
      6801.42       1.1376777    0.0053796930
      6808.22       1.1454040    0.0054877712
      6815.03       1.1456494    0.0055668527
      6821.85       1.1488022    0.0056650946
      6828.67       1.1524638    0.0056821133
      6835.50       1.1506301    0.0057666152
      6842.33       1.1534011    0.0057292967
      6849.17       1.1519410    0.0057510201
      6856.02       1.1520688    0.0056671243
      6862.88       1.1519588    0.0057454648
      6869.74       1.1520342    0.0058825931
      6876.61       1.1513092    0.0055409853
      6883.49       1.1481290    0.0055009418
      6890.37       1.1407741    0.0055177346
      6897.27       1.1389723    0.0055814521
      6904.16       1.1343657    0.0056700437
      6911.07       1.1328423    0.0057407361
      6917.98       1.1321960    0.0058621960
      6924.89       1.1256365    0.0058906528
      6931.82       1.1231836    0.0059687276
      6938.75       1.1180691    0.0058949477
      6945.69       1.1142815    0.0058405402
      6952.64       1.1104381    0.0057585315
      6959.59       1.1063878    0.0056597464
      6966.55       1.1046254    0.0056000321
      6973.52       1.1084094    0.0054702538
      6980.49       1.1082837    0.0054174668
      6987.47       1.1075867    0.0054047789
      6994.46       1.1102663    0.0055888038
      7001.46       1.1102936    0.0055474327
      7008.46       1.1122005    0.0054203086
      7015.46       1.1160288    0.0054281091
      7022.48       1.1178557    0.0053967668
      7029.51       1.1231739    0.0054408330
      7036.53       1.1215139    0.0054122614
      7043.57       1.1222050    0.0054243448
      7050.62       1.1217224    0.0054365918
      7057.66       1.1152518    0.0054542262
      7064.72       1.1147987    0.0054734812
      7071.79       1.1094891    0.0054889972
      7078.86       1.1006123    0.0055132629
      7085.94       1.0910651    0.0055482166
      7093.03       1.0861768    0.0055824672
      7100.12       1.0778962    0.0056439702
      7107.22       1.0700514    0.0056769323
      7114.33       1.0551223    0.0057612443
      7121.44       1.0482414    0.0058681471
      7128.56       1.0466707    0.0058824892
      7135.69       1.0477341    0.0059312372
      7142.83       1.0436021    0.0060045523
      7149.97       1.0398650    0.0059789308
      7157.12       1.0372060    0.0059897039
      7164.28       1.0333850    0.0059902459
      7171.44       1.0268866    0.0059866186
      7178.62       1.0188579    0.0059900125
      7185.80       1.0112017    0.0060055792
      7192.98       1.0045674    0.0059816826
      7200.17       1.0015961    0.0060425924
      7207.38      0.99732341    0.0060620257
      7214.58      0.99120150    0.0060281922
      7221.80      0.98416756    0.0060282941
      7229.02      0.98138377    0.0060571673
      7236.25      0.97723345    0.0060055273
      7243.49      0.97539306    0.0059933750
      7250.73      0.97278241    0.0059824855
      7257.98      0.98032521    0.0060080060
      7265.24      0.97902498    0.0059502968
      7272.51      0.97439889    0.0059292052
      7279.78      0.97126562    0.0059112126
      7287.06      0.97009471    0.0058603493
      7294.35      0.97130568    0.0058912847
      7301.64      0.96989354    0.0058839507
      7308.94      0.96752416    0.0058828203
      7316.25      0.96299106    0.0058460551
      7323.57      0.96104351    0.0058512705
      7330.89      0.96279663    0.0058569539
      7338.22      0.96602229    0.0058976464
      7345.56      0.96879420    0.0058619683
      7352.91      0.96695103    0.0058683202
      7360.26      0.96660534    0.0058764887
      7367.62      0.96802738    0.0058867663
      7374.99      0.96600644    0.0058566923
      7382.37      0.96417885    0.0059043116
      7389.75      0.96465919    0.0059164759
      7397.14      0.96547988    0.0059297836
      7404.53      0.96038537    0.0059031752
      7411.94      0.96011267    0.0059172806
      7419.35      0.96185075    0.0059317849
      7426.77      0.95915997    0.0059469580
      7434.20      0.95783670    0.0059989461
      7441.63      0.95628863    0.0059742445
      7449.07      0.95247367    0.0059899481
      7456.52      0.94768496    0.0060086119
      7463.98      0.94693205    0.0060468687
      7471.45      0.94733456    0.0061251139
      7478.92      0.94580907    0.0061559566
      7486.40      0.94850540    0.0061819331
      7493.88      0.94461357    0.0061836757
      7501.38      0.94471464    0.0062927976
      7508.88      0.94105943    0.0064578881
      7516.39      0.93737264    0.0067194801
      7523.91      0.93501178    0.0070094213
      7531.43      0.93284975    0.0074453187
      7538.96      0.93133292    0.0079456754
      7546.50      0.92649925    0.0084769605
      7554.05      0.92715893    0.0089797050
      7561.60      0.92239954    0.0093678578
      7569.16      0.91366922    0.0095527870
      7576.73      0.91159230    0.0094164679
      7584.31      0.90077313    0.0091698711
      7591.89      0.90402717    0.0087692212
      7599.49      0.90239852    0.0083018312
      7607.09      0.89540693    0.0078433835
      7614.70      0.89210355    0.0074597663
      7622.31      0.89129653    0.0071769290
      7629.93      0.89282679    0.0070002159
      7637.56      0.89091922    0.0068094764
      7645.20      0.89352793    0.0066721110
      7652.85      0.89380916    0.0066095610
      7660.50      0.89293409    0.0065577261
      7668.16      0.89255193    0.0065159624
      7675.83      0.89408007    0.0064883871
      7683.50      0.90076101    0.0064748248
      7691.19      0.90204611    0.0064724867
      7698.88      0.90435104    0.0064783161
      7706.58      0.90143757    0.0064895736
      7714.29      0.89794040    0.0065038368
      7722.00      0.89252697    0.0064824103
      7729.73      0.88814062    0.0064998183
      7737.45      0.88902926    0.0065184000
      7745.19      0.88344918    0.0065372382
      7752.94      0.87721555    0.0065561706
      7760.69      0.87356113    0.0065756365
      7768.45      0.87271968    0.0065509833
      7776.22      0.87034399    0.0065705137
      7784.00      0.86766347    0.0065910376
      7791.78      0.87239479    0.0066129344
      7799.57      0.86596435    0.0066358995
      7807.37      0.86709429    0.0066597863
      7815.18      0.86490054    0.0066850424
      7822.99      0.87094262    0.0067116257
      7830.82      0.87234127    0.0067378538
      7838.65      0.87668614    0.0067615503
      7846.49      0.88009985    0.0067829870
      7854.34      0.87944539    0.0067636107
      7862.19      0.87739359    0.0067836466
      7870.05      0.87788273    0.0068033165
      7877.93      0.87672176    0.0067849825
      7885.80      0.87675063    0.0067599819
      7893.69      0.88281888    0.0067003961
      7901.58      0.88408169    0.0066852336
      7909.49      0.88613796    0.0066302284
      7917.40      0.88877807    0.0066519759
      7925.31      0.89361197    0.0066002251
      7933.24      0.89297570    0.0065499885
      7941.17      0.89801708    0.0065383327
      7949.11      0.90503828    0.0064890729
      7957.06      0.91112955    0.0065075827
      7965.02      0.91182721    0.0064586530
      7972.98      0.92068798    0.0064475061
      7980.96      0.92537387    0.0064050858
      7988.94      0.93136219    0.0063659880
      7996.93      0.93955347    0.0063903013
      8004.93      0.94746483    0.0063559680
      8012.93      0.95611226    0.0063539529
      8020.95      0.96338918    0.0063240396
      8028.97      0.96951078    0.0063357556
      8036.99      0.97531589    0.0063222098
      8045.03      0.97895034    0.0063376365
      8053.08      0.98534809    0.0063755748
      8061.13      0.99274639    0.0063919326
      8069.20       1.0019193    0.0064364415
      8077.26       1.0095263    0.0064319721
      8085.34       1.0167835    0.0064634386
      8093.43       1.0252194    0.0064611598
      8101.52       1.0300978    0.0064933075
      8109.62       1.0363540    0.0065053081
      8117.73       1.0437985    0.0065200523
      8125.85       1.0519922    0.0064937742
      8133.98       1.0614497    0.0064932802
      8142.11       1.0651931    0.0064586661
      8150.25       1.0730740    0.0064459247
      8158.41       1.0789829    0.0064031418
      8166.56       1.0840559    0.0063597751
      8174.73       1.0888673    0.0063424901
      8182.91       1.0921848    0.0063000308
      8191.09       1.0971122    0.0062814901
      8199.28       1.1011079    0.0062414262
      8207.48       1.1062541    0.0062275160
      8215.69       1.1133383    0.0061902573
      8223.91       1.1183102    0.0061761177
      8232.13       1.1212990    0.0061386049
      8240.36       1.1279971    0.0061225514
      8248.60       1.1306670    0.0061902201
      8256.85       1.1345855    0.0062895829
      8265.11       1.1379270    0.0063945770
      8273.37       1.1386678    0.0065333461
      8281.65       1.1403188    0.0066712036
      8289.93       1.1422483    0.0068709510
      8298.22       1.1439525    0.0071473622
      8306.52       1.1461702    0.0074939090
      8314.83       1.1465675    0.0078881962
      8323.14       1.1486624    0.0084537724
      8331.46       1.1480842    0.0091500695
      8339.80       1.1475907     0.010188735
      8348.13       1.1482558     0.011415151
      8356.48       1.1480806     0.012821490
      8364.84       1.1449045     0.014849003
      8373.21       1.1405265     0.017692876
      8381.58       1.1348261     0.021055909
