# starting wavelength =        3249.2400
# ending wavelength =        8408.9000
# O2 telluric scale =        0
# O2 telluric shift =        0
# H2O telluric scale =        0
# H2O telluric shift =        0
      3249.39     0.010324133     0.028186895
      3252.64     0.019257130     0.023645811
      3255.89     0.032469648     0.019397482
      3259.14     0.043377851     0.016774546
      3262.40     0.052035014     0.014744484
      3265.67     0.055622940     0.013600661
      3268.93     0.058005215     0.012281931
      3272.20     0.063084342     0.010982953
      3275.47     0.066183092     0.010248493
      3278.75     0.071008852    0.0096682159
      3282.03     0.072168579    0.0093332722
      3285.31     0.067814746    0.0089340117
      3288.60     0.072029095    0.0086037369
      3291.88     0.071134440    0.0083221088
      3295.18     0.069541484    0.0081013279
      3298.47     0.069110136    0.0079808225
      3301.77     0.067437016    0.0078039809
      3305.07     0.068589797    0.0076458199
      3308.38     0.071075023    0.0075585959
      3311.69     0.068775410    0.0074865884
      3315.00     0.069110386    0.0074154724
      3318.31     0.066475474    0.0074594500
      3321.63     0.063088138    0.0074443219
      3324.95     0.057022213    0.0074908310
      3328.28     0.051512249    0.0074744904
      3331.61     0.052581165    0.0074027115
      3334.94     0.053160694    0.0074501567
      3338.27     0.056779716    0.0074336246
      3341.61     0.063351657    0.0074179363
      3344.95     0.061398240    0.0074647224
      3348.30     0.060102860    0.0073935827
      3351.65     0.056722926    0.0073776188
      3355.00     0.062505874    0.0074236973
      3358.35     0.064196244    0.0074091816
      3361.71     0.062991496    0.0073955467
      3365.07     0.064011086    0.0073835594
      3368.44     0.068663125    0.0073686586
      3371.81     0.069147494    0.0073545504
      3375.18     0.072261500    0.0074023205
      3378.56     0.075187486    0.0073870043
      3381.94     0.072168247    0.0074355348
      3385.32     0.075363415    0.0073639912
      3388.70     0.079569803    0.0073482905
      3392.09     0.083304465    0.0073960158
      3395.48     0.083912206    0.0073816610
      3398.88     0.086863248    0.0073680256
      3402.28     0.087373750    0.0074180451
      3405.68     0.093357065    0.0073428102
      3409.09     0.099470564    0.0073286427
      3412.49     0.099919108    0.0073807945
      3415.91      0.10007398    0.0073653178
      3419.32      0.10276596    0.0073505271
      3422.74      0.10894743    0.0073364414
      3426.17      0.10882433    0.0073874687
      3429.59      0.10911596    0.0073136237
      3433.02      0.10857656    0.0072989991
      3436.45      0.10973803    0.0073490361
      3439.89      0.11045736    0.0073356043
      3443.33      0.10970323    0.0073228041
      3446.78      0.11662910    0.0073748492
      3450.22      0.11808790    0.0073605731
      3453.67      0.11999519    0.0072847543
      3457.13      0.11645809    0.0073397873
      3460.58      0.11624171    0.0073248384
      3464.04      0.11743981    0.0073106087
      3467.51      0.11786394    0.0073631394
      3470.98      0.12096938    0.0073499965
      3474.45      0.11993052    0.0073374602
      3477.92      0.12551959    0.0073255569
      3481.40      0.12668308    0.0073790232
      3484.88      0.12640335    0.0073004942
      3488.37      0.12260324    0.0072877866
      3491.86      0.11751847    0.0073450818
      3495.35      0.11675697    0.0073308057
      3498.84      0.11509053    0.0073172130
      3502.34      0.11684015    0.0073041851
      3505.84      0.11746219    0.0073597916
      3509.35      0.12045012    0.0073478345
      3512.86      0.11886061    0.0073363768
      3516.37      0.11212378    0.0073930240
      3519.89      0.10465640    0.0073120623
      3523.41     0.099990809    0.0072996031
      3526.93      0.10325402    0.0072877751
      3530.46      0.10415808    0.0073472308
      3533.99      0.10316159    0.0073338486
      3537.53      0.10723592    0.0073209614
      3541.06      0.10958979    0.0073791105
      3544.60      0.11003628    0.0073670569
      3548.15      0.11106365    0.0073555895
      3551.70      0.11376157    0.0073445746
      3555.25      0.12083982    0.0074050615
      3558.80      0.13262641    0.0073925157
      3562.36      0.13897804    0.0073802800
      3565.92      0.13846686    0.0073686776
      3569.49      0.14109018    0.0073623473
      3573.06      0.14554215    0.0073491649
      3576.64      0.14715978    0.0073365959
      3580.21      0.14931305    0.0073243026
      3583.79      0.14506303    0.0073854480
      3587.38      0.14345886    0.0073739648
      3590.96      0.14740887    0.0073628479
      3594.55      0.14797048    0.0073523137
      3598.15      0.14722912    0.0074180732
      3601.75      0.14749333    0.0074058121
      3605.35      0.14812809    0.0073939731
      3608.96      0.14018327    0.0073824755
      3612.56      0.13451263    0.0074478155
      3616.18      0.13576888    0.0074370971
      3619.79      0.13822371    0.0074265835
      3623.41      0.14146169    0.0074165711
      3627.04      0.14190989    0.0074851235
      3630.66      0.14285726    0.0074734133
      3634.29      0.13983354    0.0074622126
      3637.93      0.13549446    0.0074512044
      3641.57      0.13284223    0.0075204854
      3645.21      0.13843890    0.0075103145
      3648.86      0.13832372    0.0075003163
      3652.50      0.13195907    0.0074908165
      3656.16      0.12754136    0.0074814205
      3659.81      0.12658990    0.0075531545
      3663.47      0.12487926    0.0075422057
      3667.14      0.11972860    0.0075315053
      3670.80      0.11512617    0.0075211324
      3674.48      0.11373829    0.0075947808
      3678.15      0.11576234    0.0075850298
      3681.83      0.11341754    0.0075755063
      3685.51      0.11607715    0.0075662329
      3689.20      0.11597618    0.0075571998
      3692.88      0.11650887    0.0076348810
      3696.58      0.11854079    0.0076243515
      3700.27      0.12007078    0.0076140614
      3703.98      0.12198210    0.0076039907
      3707.68      0.12109830    0.0075942017
      3711.39      0.11977519    0.0076729942
      3715.10      0.11485695    0.0076633793
      3718.81      0.11355347    0.0076542364
      3722.53      0.11319261    0.0076452562
      3726.26      0.10947335    0.0076364182
      3729.98      0.10322546    0.0077228373
      3733.71     0.094442754    0.0077124444
      3737.45     0.087832130    0.0077025150
      3741.18     0.080872948    0.0076925595
      3744.93     0.072326721    0.0076830361
      3748.67     0.066139534    0.0077669441
      3752.42     0.058416275    0.0078592276
      3756.17     0.053269632    0.0078500269
      3759.93     0.048376922    0.0078411730
      3763.69     0.045137891    0.0078322598
      3767.45     0.043502825    0.0078236324
      3771.22     0.042597902    0.0078150927
      3774.99     0.043474628    0.0078066620
      3778.77     0.041010308    0.0076972215
      3782.54     0.039554283    0.0077934473
      3786.33     0.035148250    0.0077842090
      3790.11     0.033787269    0.0077750816
      3793.90     0.033607423    0.0077661645
      3797.70     0.032493952    0.0077573261
      3801.50     0.029154612    0.0077489440
      3805.30     0.029718923    0.0077406384
      3809.10     0.034243787    0.0077321754
      3812.91     0.037224924    0.0077240304
      3816.73     0.038888091    0.0077159441
      3820.54     0.039610546    0.0077079297
      3824.36     0.041019464    0.0077000278
      3828.19     0.044288744    0.0076922589
      3832.02     0.050434244    0.0076845104
      3835.85     0.052484142    0.0076771606
      3839.68     0.056326023    0.0076698350
      3843.52     0.058806539    0.0076626093
      3847.37     0.057472420    0.0076554865
      3851.22     0.053786284    0.0076483932
      3855.07     0.056921445    0.0076413414
      3858.92     0.062658176    0.0075351559
      3862.78     0.068540294    0.0075284568
      3866.64     0.081579983    0.0075215552
      3870.51     0.095661741    0.0075149839
      3874.38      0.10764308    0.0075084562
      3878.26      0.12562654    0.0075019079
      3882.13      0.14562814    0.0074957604
      3886.02      0.16557526    0.0074893897
      3889.90      0.18738481    0.0073945517
      3893.79      0.20385475    0.0073884576
      3897.69      0.22389164    0.0073826815
      3901.59      0.24100307    0.0073768810
      3905.49      0.25443002    0.0073711283
      3909.39      0.26280827    0.0073652367
      3913.30      0.26940606    0.0073596476
      3917.22      0.26866534    0.0073543511
      3921.13      0.26438123    0.0073489050
      3925.06      0.26084046    0.0073437539
      3928.98      0.25936067    0.0073384556
      3932.91      0.25869020    0.0073334559
      3936.84      0.25487991    0.0073287849
      3940.78      0.25529619    0.0073239966
      3944.72      0.25301404    0.0073193015
      3948.67      0.24762473    0.0073145984
      3952.61      0.25080978    0.0073102672
      3956.57      0.25698509    0.0073059860
      3960.52      0.26662585    0.0073018159
      3964.48      0.27269488    0.0072975787
      3968.45      0.28085661    0.0072936596
      3972.42      0.29433657    0.0072872787
      3976.39      0.30154633    0.0072826926
      3980.37      0.30847114    0.0072784044
      3984.35      0.32141157    0.0072740411
      3988.33      0.33053696    0.0072697887
      3992.32      0.33479076    0.0072655916
      3996.31      0.33971725    0.0072617927
      4000.31      0.34539311    0.0072580442
      4004.31      0.35610729    0.0072544377
      4008.31      0.36024706    0.0072507930
      4012.32      0.36150570    0.0072475374
      4016.33      0.36223333    0.0072446919
      4020.35      0.35666821    0.0071547691
      4024.37      0.35130992    0.0071506741
      4028.40      0.34874108    0.0071465862
      4032.42      0.34351377    0.0071428424
      4036.46      0.33392628    0.0071393105
      4040.50      0.32499358    0.0071359390
      4044.54      0.31927625    0.0071327725
      4048.58      0.31145103    0.0071298070
      4052.63      0.30364594    0.0072171703
      4056.68      0.29611129    0.0071333095
      4060.74      0.29390632    0.0071290665
      4064.80      0.29126147    0.0071250468
      4068.86      0.28983858    0.0071214508
      4072.93      0.29409948    0.0071179548
      4077.01      0.30379982    0.0071149216
      4081.08      0.31108909    0.0071122120
      4085.17      0.31530991    0.0071097539
      4089.25      0.32064128    0.0071076051
      4093.34      0.32702021    0.0070260766
      4097.43      0.32780791    0.0070247918
      4101.53      0.33130036    0.0071086480
      4105.63      0.33037222    0.0071053309
      4109.74      0.32659965    0.0071023424
      4113.85      0.32320371    0.0070999172
      4117.96      0.32059119    0.0070976802
      4122.08      0.31668842    0.0070165957
      4126.20      0.31485742    0.0070154279
      4130.33      0.31196730    0.0070146315
      4134.46      0.30737778    0.0070142356
      4138.59      0.30509498    0.0070143155
      4142.73      0.30228114    0.0070941279
      4146.88      0.30459645    0.0070128453
      4151.02      0.30494003    0.0070115433
      4155.18      0.30514650    0.0070107011
      4159.33      0.30236925    0.0070102979
      4163.49      0.30311537    0.0070104286
      4167.65      0.30370289    0.0070112267
      4171.82      0.30011730    0.0069282304
      4175.99      0.29875729    0.0070108958
      4180.17      0.29826214    0.0070103237
      4184.35      0.29792326    0.0070103038
      4188.54      0.29345926    0.0070106295
      4192.72      0.29323079    0.0070117174
      4196.92      0.29075205    0.0069299525
      4201.11      0.29104881    0.0069290291
      4205.31      0.29114706    0.0070127062
      4209.52      0.28762072    0.0070130384
      4213.73      0.28563717    0.0070139969
      4217.94      0.28331252    0.0069350978
      4222.16      0.28440618    0.0069339535
      4226.38      0.28282019    0.0069337046
      4230.61      0.28145479    0.0070182915
      4234.84      0.28189978    0.0070192549
      4239.08      0.28594946    0.0069421531
      4243.32      0.29082217    0.0069409134
      4247.56      0.29541865    0.0069404084
      4251.81      0.29675359    0.0069409086
      4256.06      0.30201039    0.0069519460
      4260.32      0.30731750    0.0069502722
      4264.58      0.31066232    0.0069493735
      4268.84      0.31358714    0.0069493371
      4273.11      0.31766034    0.0069501184
      4277.38      0.32237334    0.0068780932
      4281.66      0.32092661    0.0069601646
      4285.94      0.31782783    0.0069595958
      4290.23      0.31596551    0.0069599005
      4294.52      0.31259586    0.0068873378
      4298.81      0.31210377    0.0068895876
      4303.11      0.31024002    0.0069711301
      4307.42      0.30711896    0.0069711106
      4311.72      0.30944376    0.0068983135
      4316.04      0.31275610    0.0069005711
      4320.35      0.31827545    0.0069036238
      4324.67      0.32019277    0.0069838962
      4329.00      0.32206691    0.0069109185
      4333.33      0.32381341    0.0069129707
      4337.66      0.32467265    0.0069160726
      4342.00      0.32371714    0.0069204793
      4346.34      0.32290827    0.0069244464
      4350.69      0.32010181    0.0069267551
      4355.04      0.31601465    0.0069300095
      4359.39      0.31224188    0.0069346412
      4363.75      0.30256511    0.0069393048
      4368.12      0.29570047    0.0069418408
      4372.48      0.29210956    0.0069455993
      4376.86      0.28431291    0.0068734933
      4381.23      0.28082324    0.0069553928
      4385.61      0.27844833    0.0069582810
      4390.00      0.28000483    0.0069623141
      4394.39      0.28462834    0.0068897213
      4398.79      0.29029083    0.0069722631
      4403.18      0.29384246    0.0069757976
      4407.59      0.29824553    0.0069056364
      4412.00      0.30320058    0.0069070775
      4416.41      0.31055769    0.0069908856
      4420.82      0.31319470    0.0069952535
      4425.25      0.31609015    0.0069237431
      4429.67      0.31825989    0.0069259531
      4434.10      0.31970869    0.0070108144
      4438.54      0.32502677    0.0069411007
      4442.97      0.32996094    0.0069425918
      4447.42      0.33613803    0.0069458304
      4451.86      0.34099334    0.0069590303
      4456.32      0.34838226    0.0069602582
      4460.77      0.35377795    0.0069632598
      4465.24      0.36143357    0.0069779287
      4469.70      0.36864803    0.0069789871
      4474.17      0.37681395    0.0069815855
      4478.65      0.38567771    0.0069156604
      4483.12      0.39174183    0.0069981211
      4487.61      0.40344146    0.0070003267
      4492.09      0.41300675    0.0069341777
      4496.59      0.42511192    0.0070175578
      4501.08      0.43916985    0.0070198276
      4505.58      0.45254898    0.0069535397
      4510.09      0.46595887    0.0069595722
      4514.60      0.47432940    0.0070400994
      4519.12      0.48594417    0.0069736236
      4523.63      0.50022070    0.0069799875
      4528.16      0.51579541    0.0070609188
      4532.69      0.52921509    0.0069943959
      4537.22      0.54634913    0.0070009462
      4541.76      0.55965547    0.0070109637
      4546.30      0.57227985    0.0070158469
      4550.85      0.58628729    0.0070227987
      4555.40      0.59820674    0.0070327013
      4559.95      0.61180362    0.0070380521
      4564.51      0.62672555    0.0070455482
      4569.08      0.63825681    0.0070551664
      4573.65      0.64959674    0.0070611159
      4578.22      0.65643613    0.0069948027
      4582.80      0.66785939    0.0070781846
      4587.38      0.67725778    0.0070847645
      4591.97      0.67582067    0.0070175659
      4596.56      0.67310092    0.0071019131
      4601.16      0.66311979    0.0070373463
      4605.76      0.65623845    0.0070410950
      4610.37      0.64896190    0.0071267192
      4614.98      0.63981196    0.0070607817
      4619.59      0.63102826    0.0070653757
      4624.21      0.62483627    0.0070815128
      4628.84      0.61861907    0.0070847698
      4633.47      0.61378020    0.0071707460
      4638.10      0.61346644    0.0071052746
      4642.74      0.60953694    0.0071098083
      4647.38      0.60842485    0.0071268084
      4652.03      0.60981843    0.0071300618
      4656.68      0.60737082    0.0070678276
      4661.34      0.60785876    0.0071513112
      4666.00      0.60852974    0.0071562909
      4670.67      0.61171179    0.0071732465
      4675.33      0.60950706    0.0071769602
      4680.01      0.60566901    0.0071148362
      4684.69      0.60200669    0.0071984893
      4689.38      0.59422960    0.0071351628
      4694.07      0.58489115    0.0072207841
      4698.76      0.57839471    0.0072253568
      4703.46      0.56963204    0.0071639142
      4708.16      0.56458710    0.0072474134
      4712.87      0.56261667    0.0071847639
      4717.58      0.56147565    0.0072697533
      4722.30      0.55590365    0.0072061216
      4727.03      0.55341719    0.0072150928
      4731.75      0.55109734    0.0072280640
      4736.48      0.54891009    0.0072363412
      4741.22      0.55047275    0.0072505092
      4745.96      0.54610909    0.0072581351
      4750.71      0.54766176    0.0071951175
      4755.46      0.55050117    0.0072804435
      4760.22      0.55275281    0.0072180140
      4764.97      0.55342311    0.0073032082
      4769.74      0.55503461    0.0073132446
      4774.51      0.54995472    0.0073262837
      4779.29      0.54545964    0.0073359173
      4784.07      0.53617715    0.0073497292
      4788.85      0.53439148    0.0073590141
      4793.64      0.53168361    0.0072940421
      4798.43      0.52733879    0.0073825251
      4803.23      0.52465958    0.0073178721
      4808.03      0.52229540    0.0074064605
      4812.84      0.51927140    0.0073418892
      4817.66      0.51614688    0.0074304952
      4822.48      0.51290003    0.0073661000
      4827.30      0.50692197    0.0073861408
      4832.12      0.49888295    0.0073906146
      4836.96      0.48529959    0.0074109169
      4841.79      0.47581918    0.0074154090
      4846.63      0.46216237    0.0074359226
      4851.48      0.44760421    0.0074404962
      4856.33      0.42989922    0.0073811112
      4861.19      0.41166291    0.0074655678
      4866.05      0.39557099    0.0074062749
      4870.92      0.37929211    0.0074909421
      4875.79      0.37000287    0.0074317742
      4880.66      0.36700515    0.0075165721
      4885.55      0.37103282    0.0074575897
      4890.43      0.37848858    0.0075424464
      4895.32      0.39684678    0.0074837461
      4900.22      0.42088469    0.0074995570
      4905.12      0.45114365    0.0075102112
      4910.02      0.48496626    0.0075258651
      4914.94      0.51901985    0.0075370758
      4919.85      0.55728805    0.0075523862
      4924.77      0.59379836    0.0075643648
      4929.70      0.63450679    0.0075792516
      4934.62      0.67284065    0.0076672704
      4939.56      0.71023113    0.0076065222
      4944.50      0.74668539    0.0076240452
      4949.44      0.78202936    0.0076341748
      4954.39      0.81105426    0.0076512221
      4959.35      0.83877813    0.0076623101
      4964.31      0.86218034    0.0076787089
      4969.27      0.88052313    0.0076179045
      4974.24      0.89610421    0.0077067035
      4979.22      0.90547947    0.0076448440
      4984.20      0.90884885    0.0077352436
      4989.18      0.90467984    0.0076722818
      4994.17      0.89720976    0.0076927540
      4999.16      0.88586210    0.0077813280
      5004.16      0.86336729    0.0077197841
      5009.17      0.83663184    0.0078102209
      5014.18      0.80569806    0.0077474058
      5019.19      0.77363055    0.0077687256
      5024.21      0.74279852    0.0077756641
      5029.23      0.70193644    0.0077959549
      5034.26      0.66859401    0.0078047156
      5039.30      0.63446473    0.0078238588
      5044.34      0.60600144    0.0078455740
      5049.39      0.58183001    0.0078525692
      5054.43      0.56580500    0.0078731132
      5059.49      0.55229998    0.0078133578
      5064.55      0.54745389    0.0079015410
      5069.61      0.55007672    0.0079232098
      5074.68      0.55731573    0.0078616137
      5079.76      0.56944388    0.0079513173
      5084.84      0.58873574    0.0078919350
      5089.92      0.60849022    0.0079107758
      5095.01      0.62908742    0.0080017308
      5100.11      0.65263635    0.0079407809
      5105.21      0.67513069    0.0080305546
      5110.31      0.69787459    0.0079721549
      5115.42      0.71939595    0.0079903462
      5120.54      0.73509650    0.0080813253
      5125.66      0.74575630    0.0080218925
      5130.79      0.76175484    0.0080407748
      5135.92      0.77577201    0.0079806275
      5141.05      0.78830364    0.0080723603
      5146.20      0.80114673    0.0080915603
      5151.34      0.80906002    0.0080311580
      5156.49      0.81793648    0.0081232871
      5161.65      0.82315937    0.0081429266
      5166.81      0.82461358    0.0080822436
      5171.98      0.83027477    0.0081749185
      5177.15      0.83442650    0.0081946033
      5182.33      0.83355594    0.0081335796
      5187.51      0.83360077    0.0082269874
      5192.70      0.83349815    0.0081639901
      5197.89      0.83553429    0.0081853574
      5203.09      0.83379216    0.0082081558
      5208.29      0.83483022    0.0082163026
      5213.50      0.83421139    0.0082373789
      5218.72      0.83361193    0.0082599643
      5223.93      0.83829720    0.0082689322
      5229.16      0.84982311    0.0082897742
      5234.39      0.85522436    0.0083120220
      5239.62      0.86531933    0.0082521570
      5244.86      0.87743415    0.0083426656
      5250.11      0.88657397    0.0083644969
      5255.36      0.89961584    0.0083878621
      5260.61      0.91246259    0.0083255984
      5265.87      0.92516186    0.0084176943
      5271.14      0.93768877    0.0084404750
      5276.41      0.95069453    0.0083797020
      5281.69      0.96215324    0.0084003995
      5286.97      0.97792545    0.0084937985
      5292.26      0.99129058    0.0084344868
      5297.55       1.0010673    0.0084546440
      5302.85       1.0156634    0.0084758610
      5308.15       1.0258787    0.0085703767
      5313.46       1.0364673    0.0085099464
      5318.77       1.0392789    0.0085305746
      5324.09       1.0479859    0.0085520581
      5329.42       1.0547215    0.0085665423
      5334.75       1.0632595    0.0085863185
      5340.08       1.0744539    0.0086071484
      5345.42       1.0836066    0.0086289271
      5350.77       1.0967044    0.0085675713
      5356.12       1.0988744    0.0086637750
      5361.48       1.1031999    0.0086846259
      5366.83       1.1064569    0.0087063187
      5372.20       1.1110543    0.0086441657
      5377.58       1.1177228    0.0086673329
      5382.95       1.1216305    0.0087629063
      5388.34       1.1268924    0.0087845998
      5393.72       1.1263537    0.0087214589
      5399.12       1.1238141    0.0087443954
      5404.52       1.1212156    0.0087678816
      5409.92       1.1157198    0.0088636302
      5415.33       1.1080170    0.0087994286
      5420.75       1.0995049    0.0088218438
      5426.17       1.1032184    0.0088450819
      5431.60       1.1139573    0.0088690038
      5437.03       1.1323914    0.0088066285
      5442.47       1.1498242    0.0089006734
      5447.91       1.1753580    0.0089232374
      5453.36       1.2037105    0.0089465118
      5458.81       1.2288211    0.0089701590
      5464.27       1.2677736    0.0089078488
      5469.73       1.3118196    0.0089296686
      5475.20       1.3568968    0.0089521548
      5480.68       1.3986968    0.0090483357
      5486.16       1.4445476    0.0090720075
      5491.65       1.4820350    0.0090105421
      5497.14       1.5141557    0.0090323489
      5502.64       1.5386590    0.0090544418
      5508.14       1.5525146    0.0090770684
      5513.65       1.5517130    0.0090999686
      5519.16       1.5447547    0.0091149370
      5524.68       1.5262728    0.0091364249
      5530.20       1.5046054    0.0091582905
      5535.73       1.4734006    0.0091804983
      5541.27       1.4372340    0.0092031648
      5546.81       1.3966553    0.0092260184
      5552.36       1.3554105    0.0091626116
      5557.91       1.3080488    0.0091859813
      5563.47       1.2661280    0.0092095947
      5569.04       1.2280624    0.0093084871
      5574.60       1.1956212    0.0093308707
      5580.18       1.1694985    0.0093535170
      5585.76       1.1508136    0.0092886675
      5591.35       1.1375292    0.0093115796
      5596.94       1.1244830    0.0093348038
      5602.53       1.1246860    0.0093581475
      5608.14       1.1222489    0.0093818210
      5613.75       1.1205401    0.0094055317
      5619.36       1.1144890    0.0094296132
      5624.98       1.1124017    0.0094536962
      5630.60       1.1054843    0.0093885125
      5636.23       1.0989427    0.0094113374
      5641.87       1.0832317    0.0095086743
      5647.51       1.0690815    0.0095319673
      5653.16       1.0454917    0.0095553173
      5658.82       1.0108591    0.0095786505
      5664.47      0.97220844    0.0096022863
      5670.14      0.92202874    0.0096260344
      5675.81      0.86463541    0.0096498848
      5681.48      0.80441687    0.0095868387
      5687.17      0.73758773    0.0096096232
      5692.85      0.67449228    0.0096324986
      5698.55      0.61010992    0.0096554373
      5704.25      0.55390902    0.0096784259
      5709.95      0.50674772    0.0097015513
      5715.66      0.46817451    0.0097247742
      5721.38      0.44274925    0.0097480337
      5727.10      0.42680935    0.0097713335
      5732.83      0.42339864    0.0097946836
      5738.56      0.43262720    0.0098180185
      5744.30      0.45549934    0.0098415388
      5750.04      0.48669095    0.0097757226
      5755.79      0.53697834    0.0097989979
      5761.55      0.59764247    0.0098224100
      5767.31      0.66368182    0.0098457674
      5773.08      0.73589400    0.0098692290
      5778.85      0.81216614    0.0098931845
      5784.63      0.88703366    0.0099175548
      5790.41      0.96125648    0.0099422241
      5796.21       1.0331256    0.0099663898
      5802.00       1.1051266    0.0099906535
      5807.81       1.1679472     0.010016035
      5813.61       1.2228370     0.010043776
      5819.43       1.2705093     0.010074643
      5825.25       1.3096059     0.010107108
      5831.07       1.3425750     0.010139663
      5836.90       1.3628036     0.010173124
      5842.74       1.3769006     0.010207837
      5848.58       1.3940259     0.010241288
      5854.43       1.4116179     0.010271123
      5860.29       1.4286863     0.010298612
      5866.15       1.4558981     0.010324440
      5872.01       1.4768710     0.010270171
      5877.89       1.4963109     0.010292415
      5883.76       1.5129006     0.010313412
      5889.65       1.5276649     0.010334725
      5895.54       1.5350083     0.010356916
      5901.43       1.5419513     0.010379004
      5907.34       1.5496077     0.010399801
      5913.24       1.5553194     0.010419335
      5919.16       1.5532491     0.010437602
      5925.08       1.5440877     0.010455792
      5931.00       1.5424124     0.010474398
      5936.93       1.5309203     0.010491754
      5942.87       1.5222106     0.010507754
      5948.81       1.5084070     0.010441957
      5954.76       1.4900146     0.010460916
      5960.72       1.4744353     0.010479892
      5966.68       1.4542123     0.010497472
      5972.64       1.4373152     0.010515638
      5978.62       1.4125895     0.010535718
      5984.60       1.3852385     0.010556943
      5990.58       1.3577980     0.010578707
      5996.57       1.3221164     0.010694022
      6002.57       1.2900306     0.010637385
      6008.57       1.2582804     0.010659358
      6014.58       1.2276553     0.010681375
      6020.60       1.2061734     0.010703674
      6026.62       1.1865398     0.010726104
      6032.65       1.1699317     0.010748907
      6038.68       1.1546735     0.010771908
      6044.72       1.1550636     0.010715852
      6050.76       1.1544395     0.010739263
      6056.81       1.1516405     0.010762897
      6062.87       1.1480520     0.010786737
      6068.93       1.1501672     0.010900502
      6075.00       1.1470546     0.010923087
      6081.08       1.1416593     0.010865074
      6087.16       1.1389445     0.010888025
      6093.25       1.1317657     0.010911106
      6099.34       1.1307919     0.010934657
      6105.44       1.1241137     0.010958552
      6111.54       1.1173949     0.010982798
      6117.66       1.1135306     0.010921317
      6123.78       1.1102366     0.011036924
      6129.90       1.1109665     0.011059977
      6136.03       1.1193433     0.011083293
      6142.17       1.1270867     0.011107213
      6148.31       1.1419882     0.011046807
      6154.46       1.1548082     0.011068768
      6160.61       1.1803633     0.011091634
      6166.77       1.2093741     0.011211507
      6172.94       1.2436671     0.011240826
      6179.11       1.2890041     0.011182899
      6185.29       1.3459347     0.011203542
      6191.48       1.4055130     0.011229325
      6197.67       1.4695170     0.011261782
      6203.87       1.5474688     0.011320500
      6210.07       1.6120365     0.011363235
      6216.28       1.6792666     0.011409818
      6222.50       1.7367764     0.011458030
      6228.72       1.7893220     0.011424743
      6234.95       1.8204915     0.011467974
      6241.19       1.8470428     0.011603003
      6247.42       1.8695775     0.011629692
      6253.67       1.8822200     0.011563509
      6259.93       1.8890339     0.011575287
      6266.19       1.8832142     0.011581735
      6272.46       1.8600132     0.011670754
      6278.73       1.8359566     0.011586779
      6285.01       1.8113263     0.011594184
      6291.29       1.7869126     0.011608595
      6297.58       1.7652206     0.011535045
      6303.88       1.7445314     0.011635489
      6310.19       1.7237314     0.011648957
      6316.50       1.7021563     0.011664965
      6322.81       1.6820766     0.011593750
      6329.14       1.6565814     0.011703588
      6335.47       1.6321304     0.011721242
      6341.80       1.6020263     0.011654573
      6348.14       1.5725638     0.011671987
      6354.49       1.5372163     0.011787115
      6360.85       1.5162176     0.011724927
      6367.21       1.5050654     0.011744322
      6373.57       1.4938941     0.011764980
      6379.95       1.4829706     0.011884402
      6386.33       1.4707118     0.011823111
      6392.72       1.4652484     0.011847240
      6399.11       1.4666429     0.011875231
      6405.51       1.4754380     0.011922603
      6411.92       1.4791591     0.011952192
      6418.32       1.4915820     0.011897863
      6424.74       1.5008413     0.011927162
      6431.17       1.5109176     0.012050716
      6437.60       1.5203357     0.011992580
      6444.04       1.5277029     0.012017086
      6450.48       1.5305944     0.012132608
      6456.94       1.5232907     0.012064931
      6463.39       1.5130821     0.012082587
      6469.85       1.4987417     0.012193553
      6476.33       1.4710008     0.012124967
      6482.80       1.4315437     0.012144722
      6489.28       1.3901043     0.012078371
      6495.77       1.3495305     0.012193181
      6502.27       1.3080816     0.012212139
      6508.77       1.2732638     0.012140522
      6515.28       1.2427670     0.012251573
      6521.80       1.2254814     0.012269408
      6528.32       1.2109388     0.012197440
      6534.85       1.2056226     0.012311079
      6541.38       1.2147563     0.012238000
      6547.92       1.2298624     0.012251971
      6554.47       1.2521324     0.012280509
      6561.03       1.2777606     0.012296605
      6567.59       1.3067652     0.012413160
      6574.16       1.3316973     0.012346158
      6580.73       1.3560962     0.012364599
      6587.31       1.3676818     0.012397640
      6593.90       1.3712360     0.012414788
      6600.50       1.3669827     0.012349852
      6607.10       1.3572145     0.012465045
      6613.70       1.3439369     0.012483599
      6620.32       1.3226854     0.012419995
      6626.94       1.2949052     0.012534106
      6633.57       1.2743445     0.012468827
      6640.20       1.2540881     0.012584282
      6646.84       1.2368284     0.012517709
      6653.49       1.2187956     0.012539063
      6660.14       1.2135273     0.012566588
      6666.80       1.1977427     0.012587271
      6673.47       1.1920719     0.012615628
      6680.14       1.1847732     0.012635449
      6686.82       1.1761873     0.012567419
      6693.51       1.1639176     0.012683315
      6700.20       1.1556746     0.012615747
      6706.90       1.1472411     0.012731283
      6713.61       1.1325672     0.012663767
      6720.32       1.1273297     0.012779315
      6727.05       1.1229721     0.012711644
      6733.77       1.1196413     0.012826940
      6740.51       1.1081551     0.012760895
      6747.25       1.0991621     0.012789633
      6754.00       1.1006419     0.012867376
      6760.75       1.0948367     0.012909204
      6767.51       1.0827774     0.012925987
      6774.28       1.0730567     0.012950154
      6781.05       1.0671810     0.013054847
      6787.84       1.0558255     0.013165522
      6794.62       1.0433758     0.013372172
      6801.42       1.0330219     0.013550874
      6808.22       1.0140392     0.013822669
      6815.03      0.99577532     0.014021429
      6821.85      0.97671316     0.014267846
      6828.67      0.95400942     0.014309677
      6835.50      0.93306733     0.014521316
      6842.33      0.91164624     0.014425453
      6849.17      0.88966034     0.014478242
      6856.02      0.86833489     0.014265269
      6862.88      0.84777294     0.014211731
      6869.74      0.83427167     0.013977855
      6876.61      0.82264534     0.013849300
      6883.49      0.83061069     0.013798345
      6890.37      0.83423667     0.013736427
      6897.27      0.86353136     0.013663009
      6904.16      0.92881109     0.013599424
      6911.07       1.0050462     0.013483364
      6917.98       1.0851758     0.013551596
      6924.89       1.1807320     0.013445059
      6931.82       1.2688076     0.013530345
      6938.75       1.3575364     0.013441448
      6945.69       1.4409424     0.013459075
      6952.64       1.5088248     0.013470575
      6959.59       1.5643900     0.013494506
      6966.55       1.6034147     0.013515813
      6973.52       1.6202164     0.013519242
      6980.49       1.6156912     0.013528275
      6987.47       1.6097035     0.013526166
      6994.46       1.5724385     0.013533936
      7001.46       1.5379600     0.013449830
      7008.46       1.4963036     0.013550313
      7015.46       1.4657233     0.013562173
      7022.48       1.4490691     0.013477450
      7029.51       1.4463400     0.013580492
      7036.53       1.4630786     0.013502287
      7043.57       1.4805698     0.013524028
      7050.62       1.4989391     0.013640933
      7057.66       1.5109823     0.013583996
      7064.72       1.5294102     0.013622804
      7071.79       1.5470886     0.013654910
      7078.86       1.5579648     0.013705651
      7085.94       1.5680421     0.013782319
      7093.03       1.5748829     0.013859994
      7100.12       1.5830069     0.014002236
      7107.22       1.5960643     0.014074464
      7114.33       1.6134402     0.014272633
      7121.44       1.6367007     0.014527545
      7128.56       1.6609586     0.014552189
      7135.69       1.6926405     0.014659902
      7142.83       1.7310418     0.014829854
      7149.97       1.7754190     0.014754799
      7157.12       1.8223105     0.014768001
      7164.28       1.8641626     0.014755980
      7171.44       1.8978838     0.014737338
      7178.62       1.9268327     0.014731788
      7185.80       1.9581729     0.014755546
      7192.98       1.9746871     0.014684618
      7200.17       2.0021935     0.014820865
      7207.38       2.0077436     0.014852842
      7214.58       2.0159341     0.014756951
      7221.80       2.0289054     0.014741901
      7229.02       2.0533287     0.014798960
      7236.25       2.0795099     0.014659249
      7243.49       2.1077787     0.014613289
      7250.73       2.1542777     0.014569843
      7257.98       2.1949760     0.014514377
      7265.24       2.2217191     0.014462848
      7272.51       2.2370965     0.014394899
      7279.78       2.2470018     0.014334299
      7287.06       2.2418671     0.014195963
      7294.35       2.2353157     0.014159387
      7301.64       2.2156168     0.014221396
      7308.94       2.1890515     0.014200786
      7316.25       2.1707766     0.014096146
      7323.57       2.1447186     0.014090452
      7330.89       2.1138783     0.014085795
      7338.22       2.0743501     0.014168120
      7345.56       2.0322792     0.014066027
      7352.91       2.0022821     0.014062226
      7360.26       1.9750677     0.014062442
      7367.62       1.9488083     0.014067538
      7374.99       1.9202730     0.013979174
      7382.37       1.8950139     0.014075268
      7389.75       1.8816458     0.014084206
      7397.14       1.8521504     0.014095235
      7404.53       1.8258951     0.014014619
      7411.94       1.7852788     0.014027190
      7419.35       1.7479285     0.014040422
      7426.77       1.6981325     0.014054797
      7434.20       1.6593279     0.014158541
      7441.63       1.6118164     0.014081673
      7449.07       1.5668824     0.014096497
      7456.52       1.5251937     0.014117814
      7463.98       1.4833324     0.014185087
      7471.45       1.4457741     0.014348902
      7478.92       1.4021975     0.014537426
      7486.40       1.3753599     0.014449201
      7493.88       1.3421103     0.014423274
      7501.38       1.3053691     0.014609694
      7508.88       1.2763804     0.015014330
      7516.39       1.2498205     0.015596760
      7523.91       1.2275764     0.016410576
      7531.43       1.2085590     0.017232248
      7538.96       1.1857952     0.018363306
      7546.50       1.1637709     0.019557456
      7554.05       1.1288586     0.020675114
      7561.60       1.1046211     0.021518120
      7569.16       1.0792447     0.021885501
      7576.73       1.0866447     0.021677922
      7584.31       1.0829004     0.020910197
      7591.89       1.0814407     0.019956163
      7599.49       1.0722296     0.018859695
      7607.09       1.0983058     0.017787548
      7614.70       1.1221115     0.016883359
      7622.31       1.1675493     0.016207296
      7629.93       1.2111633     0.015642248
      7637.56       1.2560601     0.015200984
      7645.20       1.3197890     0.014942913
      7652.85       1.3952132     0.014731033
      7660.50       1.4749859     0.014593193
      7668.16       1.5663585     0.014473574
      7675.83       1.6388037     0.014384020
      7683.50       1.7094118     0.014324533
      7691.19       1.7754201     0.014289509
      7698.88       1.8349365     0.014272057
      7706.58       1.8847950     0.014266271
      7714.29       1.9339976     0.014266944
      7722.00       1.9776619     0.014271118
      7729.73       2.0059794     0.014278096
      7737.45       2.0201860     0.014287216
      7745.19       2.0184089     0.014296506
      7752.94       2.0260320     0.014305760
      7760.69       2.0228210     0.014315816
      7768.45       2.0231177     0.014325796
      7776.22       1.9965241     0.014335618
      7784.00       1.9570729     0.014347222
      7791.78       1.9274901     0.014361714
      7799.57       1.9004390     0.014286255
      7807.37       1.8806682     0.014303628
      7815.18       1.8614840     0.014323877
      7822.99       1.8258137     0.014346283
      7830.82       1.7821975     0.014367732
      7838.65       1.7487313     0.014383155
      7846.49       1.7042535     0.014303098
      7854.34       1.6643448     0.014310923
      7862.19       1.6393794     0.014408862
      7870.05       1.6169816     0.014414521
      7877.93       1.5882062     0.014419219
      7885.80       1.5572348     0.014423094
      7893.69       1.5193401     0.014427983
      7901.58       1.4956382     0.014259754
      7909.49       1.4697690     0.014099052
      7917.40       1.4435967     0.014108289
      7925.31       1.4003768     0.013953951
      7933.24       1.3510315     0.013884031
      7941.17       1.3112981     0.013734614
      7949.11       1.2873871     0.013588418
      7957.06       1.2649805     0.013589815
      7965.02       1.2409293     0.013444226
      7972.98       1.2260648     0.013376460
      7980.96       1.1996784     0.013245345
      7988.94       1.1769502     0.013191554
      7996.93       1.1511178     0.013136197
      8004.93       1.1320916     0.013085692
      8012.93       1.1120319     0.012976828
      8020.95       1.0894698     0.012874921
      8028.97       1.0682998     0.012855068
      8036.99       1.0526311     0.012787848
      8045.03       1.0293901     0.012850942
      8053.08       1.0085369     0.012813880
      8061.13      0.98966525     0.012877116
      8069.20      0.97798139     0.012868887
      8077.26      0.96292015     0.012891437
      8085.34      0.95190519     0.012837038
      8093.43      0.93681019     0.012857005
      8101.52      0.92740565     0.012850232
      8109.62      0.92129791     0.012793414
      8117.73      0.91136108     0.012777906
      8125.85      0.90830521     0.012682244
      8133.98      0.91397513     0.012630833
      8142.11      0.92233924     0.012517679
      8150.25      0.93339259     0.012444216
      8158.41      0.93344628     0.012316917
      8166.56      0.93816870     0.012235358
      8174.73      0.93665532     0.012109485
      8182.91      0.93623820     0.012027762
      8191.09      0.93353212     0.011907614
      8199.28      0.93242356     0.011834280
      8207.48      0.91767134     0.011720282
      8215.69      0.90713819     0.011649080
      8223.91      0.88266677     0.011537256
      8232.13      0.85354958     0.011463111
      8240.36      0.82985074     0.011348007
      8248.60      0.80157863     0.011264850
      8256.85      0.77631902     0.011145818
      8265.11      0.74087135     0.011061809
      8273.37      0.73917773     0.011121123
      8281.65      0.73784626     0.011276202
      8289.93      0.74374234     0.011422390
      8298.22      0.74868444     0.011647975
      8306.52      0.76263238     0.011934870
      8314.83      0.77754139     0.012293746
      8323.14      0.79956452     0.012656557
      8331.46      0.82261419     0.013162201
      8339.80      0.86382564     0.013934493
      8348.13      0.90665211     0.014862498
      8356.48      0.96862853     0.015939597
      8364.84       1.0440463     0.017512320
      8373.21       1.1364662     0.019577661
      8381.58       1.2482762     0.022587759
      8389.96       1.3840058     0.026031602
      8398.35       1.5428816     0.029808443
      8406.75       1.7031189     0.035195285
