# starting wavelength =        3157.8800
# ending wavelength =        8316.5400
# O2 telluric scale =        0
# O2 telluric shift =        0
# H2O telluric scale =        0
# H2O telluric shift =        0
      3159.70       1.0379534      0.36070785
      3162.86      0.89015653      0.30456381
      3166.03      0.83631626      0.25146338
      3169.19      0.79622190      0.21918182
      3172.36      0.75681451      0.20128967
      3175.54      0.70605443      0.18033013
      3178.71      0.66283321      0.15970461
      3181.89      0.51079868      0.14806649
      3185.07      0.50224452      0.13888815
      3188.26      0.42548945      0.13362566
      3191.45      0.35383421      0.12733410
      3194.64      0.27235156      0.12162944
      3197.83      0.19192999      0.11762621
      3201.03      0.16501626      0.11539560
      3204.23      0.12348274      0.11228990
      3207.44      0.10997832      0.10954700
      3210.64      0.10618131      0.10776409
      3213.85      0.12716871      0.10562195
      3217.07      0.13618891      0.10456534
      3220.28     0.082094304      0.10346209
      3223.51     0.072300980      0.10308210
      3226.73      0.12167725      0.10361436
      3229.96      0.15696523      0.10326481
      3233.19      0.15711404      0.10303452
      3236.42      0.13140961      0.10267012
      3239.66      0.17579804      0.10232365
      3242.90      0.16288641      0.10286254
      3246.14      0.13549480      0.10173239
      3249.39      0.18555509      0.10230278
      3252.64      0.23290836      0.10192202
      3255.89      0.29036258      0.10155892
      3259.14      0.29324139      0.10136761
      3262.40      0.28808121      0.10098883
      3265.67      0.32213310      0.10152855
      3268.93      0.38551203      0.10117855
      3272.20      0.43174929      0.10006226
      3275.47      0.43178491      0.10059330
      3278.75      0.45218735      0.10024205
      3282.03      0.44136632      0.10081370
      3285.31      0.35501323      0.10044463
      3288.60      0.33340026     0.099312834
      3291.88      0.28250327     0.099888878
      3295.18      0.22251596     0.099516944
      3298.47      0.15077014     0.099158653
      3301.77      0.16763252     0.098970773
      3305.07     0.090495646     0.098595617
      3308.38     0.038242847     0.099144806
      3311.69    -0.019451857     0.098798293
      3315.00    -0.025700407     0.098464441
      3318.31    -0.043814762     0.098226144
      3321.63    -0.028930684     0.097873962
      3324.95    -0.045319445     0.097536114
      3328.28    -0.089315898     0.098104450
      3331.61     -0.13918768     0.097746300
      3334.94    -0.099633105     0.097572256
      3338.27    -0.046686035     0.097195274
      3341.61   0.00066908344     0.096833432
      3344.95     0.012768423     0.097403136
      3348.30     0.025358352     0.097064625
      3351.65     0.042398691     0.095931692
      3355.00     0.057949774     0.096487676
      3358.35     0.089889409     0.096141251
      3361.71     0.092716699     0.095807291
      3365.07      0.12463309     0.096391445
      3368.44      0.15817820     0.096037845
      3371.81      0.21832045     0.094891940
      3375.18      0.24749108     0.095496976
      3378.56      0.23815191     0.095134074
      3381.94      0.25168532     0.094783824
      3385.32      0.24630172     0.095375384
      3388.70      0.24258256     0.095047885
      3392.09      0.18751624     0.093888531
      3395.48      0.19848187     0.094464627
      3398.88      0.18127638     0.094128491
      3402.28      0.13536162     0.093802135
      3405.68      0.11922260     0.094396803
      3409.09     0.081001584     0.094047519
      3412.49     0.015431545     0.092889447
      3415.91    0.0091172781     0.093513568
      3419.32     0.079072335     0.093154508
      3422.74      0.11024819     0.092807155
      3426.17      0.11261280     0.093412337
      3429.59      0.10651016     0.093083831
      3433.02      0.13401837     0.092766258
      3436.45      0.14506220     0.092515617
      3439.89      0.12160501     0.092175763
      3443.33      0.15088009     0.091845836
      3446.78      0.14727843     0.092487409
      3450.22      0.17233961     0.092133543
      3453.67      0.18861656     0.091788440
      3457.13      0.23848097     0.092420065
      3460.58      0.30941033     0.092094245
      3464.04      0.36523740     0.090916402
      3467.51      0.38636414     0.091524985
      3470.98      0.38243602     0.091185024
      3474.45      0.37284493     0.090854749
      3477.92      0.41323810     0.090534539
      3481.40      0.42630854     0.091180292
      3484.88      0.38946506     0.090833211
      3488.37      0.30512102     0.090497447
      3491.86      0.29708007     0.091154499
      3495.35      0.28043632     0.089975651
      3498.84      0.26085499     0.089625464
      3502.34      0.23396334     0.090259399
      3505.84      0.21928136     0.089921982
      3509.35      0.19727489     0.089595558
      3512.86      0.22949124     0.089275857
      3516.37      0.19415185     0.089955528
      3519.89      0.16752519     0.089611472
      3523.41      0.14588486     0.089273674
      3526.93     0.097843732     0.089953223
      3530.46     0.072863730     0.089628677
      3533.99     0.084306620     0.089312327
      3537.53     0.074298202     0.088075659
      3541.06     0.077671724     0.088733667
      3544.60     0.064315687     0.088400815
      3548.15     0.093491267     0.088075865
      3551.70      0.10024978     0.087757740
      3555.25     0.076239064     0.088478107
      3558.80     0.067000411     0.088133434
      3562.36     0.072727740     0.087794325
      3565.92     0.078078088     0.088496490
      3569.49     0.078663352     0.088168564
      3573.06     0.067335399     0.087848078
      3576.64     0.096872360     0.087535971
      3580.21      0.12949228     0.088273627
      3583.79      0.20237370     0.087933714
      3587.38      0.16793679     0.087598968
      3590.96      0.11084512     0.087270888
      3594.55      0.14291041     0.088019104
      3598.15      0.13991522     0.087698289
      3601.75     0.097426172     0.087386704
      3605.35      0.12353901     0.086083634
      3608.96      0.14846674     0.086802015
      3612.56      0.15526725     0.086473441
      3616.18      0.17274981     0.086148528
      3619.79      0.16491304     0.085826675
      3623.41      0.15716870     0.086662832
      3627.04      0.15406782     0.086313456
      3630.66      0.17464335     0.085972960
      3634.29      0.16242031     0.085638402
      3637.93      0.13588776     0.086400673
      3641.57      0.15882212     0.086072878
      3645.21      0.17658738     0.085748057
      3648.86      0.17539835     0.085428263
      3652.50      0.17197515     0.085113258
      3656.16      0.15541862     0.085971498
      3659.81      0.16032885     0.085629335
      3663.47     0.099786175     0.085293655
      3667.14     0.056520945     0.084963272
      3670.80     0.051480850     0.085769516
      3674.48     0.023094065     0.085442642
      3678.15     0.059359186     0.085117544
      3681.83     0.089140208     0.084800056
      3685.51     0.061581303     0.084484277
      3689.20     0.056238684     0.084173496
      3692.88     0.052783059     0.083867323
      3696.58     0.066120085     0.083564243
      3700.27     0.089431729     0.082200775
      3703.98     0.097258237     0.081876801
      3707.68     0.093420632     0.081559033
      3711.39      0.14855652     0.081245472
      3715.10      0.17367192     0.082019107
      3718.81      0.21874600     0.081705885
      3722.53      0.26055745     0.081399937
      3726.26      0.28560257     0.081093329
      3729.98      0.33704790     0.080789635
      3733.71      0.32954781     0.080488733
      3737.45      0.32696651     0.079220313
      3741.18      0.31391422     0.078906618
      3744.93      0.32237848     0.078596937
      3748.67      0.29152813     0.078290295
      3752.42      0.32776063     0.077983357
      3756.17      0.30688656     0.077681671
      3759.93      0.28453104     0.077379771
      3763.69      0.25684314     0.077077538
      3767.45      0.25394616     0.076780270
      3771.22      0.25962798     0.076485572
      3774.99      0.23097654     0.076193158
      3778.77      0.23807641     0.075900343
      3782.54      0.25771230     0.075611570
      3786.33      0.26568433     0.074395632
      3790.11      0.31164465     0.074110555
      3793.90      0.30464794     0.073826865
      3797.70      0.31697684     0.073545208
      3801.50      0.32615926     0.073265346
      3805.30      0.29986228     0.073997987
      3809.10      0.29226522     0.073707586
      3812.91      0.24237920     0.073416517
      3816.73      0.23611036     0.073129424
      3820.54      0.19198487     0.072841931
      3824.36      0.25016400     0.072556034
      3828.19      0.16125047     0.072272699
      3832.02      0.15637443     0.071993389
      3835.85      0.17942229     0.071713083
      3839.68      0.18733519     0.071431893
      3843.52      0.18188766     0.071154554
      3847.37      0.21238713     0.070876370
      3851.22      0.26241493     0.070599598
      3855.07      0.30308328     0.070325232
      3858.92      0.36668313     0.070052962
      3862.78      0.39042598     0.069782249
      3866.64      0.41080666     0.069510175
      3870.51      0.40258445     0.069241553
      3874.38      0.40603726     0.068104725
      3878.26      0.41785368     0.067001370
      3882.13      0.39154442     0.066741207
      3886.02      0.34105304     0.066482974
      3889.90      0.31205731     0.066226032
      3893.79      0.29747650     0.065970136
      3897.69      0.25493135     0.065713312
      3901.59      0.20790876     0.065458045
      3905.49      0.20379362     0.065203971
      3909.39      0.17679305     0.064951468
      3913.30      0.17124327     0.064701162
      3917.22      0.21010887     0.064452382
      3921.13      0.26020187     0.064204806
      3925.06      0.26590813     0.063956775
      3928.98      0.28191930     0.063710580
      3932.91      0.32934209     0.063466000
      3936.84      0.34902496     0.063220607
      3940.78      0.36700266     0.062979206
      3944.72      0.32515933     0.062739595
      3948.67      0.34557264     0.062501231
      3952.61      0.37192652     0.062262744
      3956.57      0.38800716     0.062711072
      3960.52      0.37503837     0.062463612
      3964.48      0.37813670     0.061430579
      3968.45      0.38451983     0.061192499
      3972.42      0.38587860     0.060953508
      3976.39      0.41152491     0.060716383
      3980.37      0.45893402     0.060481013
      3984.35      0.49931185     0.060245748
      3988.33      0.51561378     0.060012324
      3992.32      0.55577751     0.059780716
      3996.31      0.55349690     0.059553107
      4000.31      0.55838165     0.059325353
      4004.31      0.60765891     0.059099936
      4008.31      0.64874186     0.058876725
      4012.32      0.63977332     0.058653619
      4016.33      0.62213479     0.057674667
      4020.35      0.60400080     0.057446675
      4024.37      0.59781581     0.057222343
      4028.40      0.58847778     0.056998358
      4032.42      0.57624713     0.056775121
      4036.46      0.52352859     0.056555974
      4040.50      0.52455872     0.056337686
      4044.54      0.48037271     0.056119715
      4048.58      0.46586568     0.056565064
      4052.63      0.47183312     0.056351159
      4056.68      0.42801688     0.055442414
      4060.74      0.38623366     0.055220918
      4064.80      0.38329262     0.055000182
      4068.86      0.43704618     0.054783721
      4072.93      0.45434985     0.054568411
      4077.01      0.51462380     0.054355651
      4081.08      0.59224223     0.054146669
      4085.17      0.63295380     0.053942057
      4089.25      0.68332819     0.053088709
      4093.34      0.71382690     0.052889984
      4097.43      0.71419125     0.053287912
      4101.53      0.73183367     0.053074942
      4105.63      0.73786735     0.052866748
      4109.74      0.74524872     0.052660256
      4113.85      0.69787712     0.052456115
      4117.96      0.63847558     0.051624957
      4122.08      0.59995146     0.051431350
      4126.20      0.56045676     0.051240250
      4130.33      0.51281995     0.051052773
      4134.46      0.42778160     0.050869281
      4138.59      0.39317516     0.051223938
      4142.73      0.38556601     0.051025886
      4146.88      0.35413235     0.050216830
      4151.02      0.32551342     0.050028500
      4155.18      0.32874739     0.049844430
      4159.33      0.31044885     0.049663192
      4163.49      0.28257577     0.049487336
      4167.65      0.27306861     0.049315602
      4171.82      0.27976455     0.049042219
      4175.99      0.31309089     0.048857385
      4180.17      0.37445523     0.048675955
      4184.35      0.39371822     0.048498819
      4188.54      0.39214020     0.048328212
      4192.72      0.41274213     0.047554397
      4196.92      0.44165798     0.047372261
      4201.11      0.49240608     0.047723858
      4205.31      0.48818073     0.047548477
      4209.52      0.48223383     0.047378392
      4213.73      0.49517394     0.046637120
      4217.94      0.52288020     0.046456580
      4222.16      0.50148266     0.046281123
      4226.38      0.46320633     0.046109663
      4230.61      0.45773708     0.046459309
      4234.84      0.45550836     0.045745078
      4239.08      0.45303627     0.045566278
      4243.32      0.46623439     0.045392690
      4247.56      0.49127787     0.045224464
      4251.81      0.50854558     0.045061740
      4256.06      0.55124195     0.044874619
      4260.32      0.55296773     0.044699243
      4264.58      0.54751880     0.044528650
      4268.84      0.51878877     0.044364311
      4273.11      0.53042986     0.044205792
      4277.38      0.51659508     0.044024838
      4281.66      0.49257153     0.043854480
      4285.94      0.49136661     0.043689447
      4290.23      0.47246347     0.043531008
      4294.52      0.46571188     0.042878638
      4298.81      0.44185251     0.042734979
      4303.11      0.37084617     0.043032111
      4307.42      0.33585198     0.042873488
      4311.72      0.35105476     0.042229279
      4316.04      0.33234757     0.042086979
      4320.35      0.32048937     0.042389988
      4324.67      0.31241558     0.042231772
      4329.00      0.32199464     0.041598355
      4333.33      0.31716621     0.041457299
      4337.66      0.30913387     0.041324438
      4342.00      0.30901195     0.041610055
      4346.34      0.32296557     0.040985398
      4350.69      0.32296652     0.040846538
      4355.04      0.36481842     0.040716209
      4359.39      0.38323333     0.040593254
      4363.75      0.43143740     0.040387808
      4368.12      0.48541176     0.040253225
      4372.48      0.51473723     0.040125592
      4376.86      0.55582901     0.039517872
      4381.23      0.57470717     0.039804379
      4385.61      0.58433042     0.039675464
      4390.00      0.60978844     0.039553908
      4394.39      0.61865783     0.038953237
      4398.79      0.58136955     0.039239367
      4403.18      0.58484814     0.039115625
      4407.59      0.58380722     0.038536979
      4412.00      0.59493891     0.038403727
      4416.41      0.56299352     0.038691273
      4420.82      0.53059944     0.038132376
      4425.25      0.52831817     0.037997296
      4429.67      0.51268842     0.037870910
      4434.10      0.51012744     0.038160006
      4438.54      0.51250667     0.037601539
      4442.97      0.49778568     0.037473940
      4447.42      0.48706533     0.037355244
      4451.86      0.51710488     0.037215768
      4456.32      0.52406603     0.037087734
      4460.77      0.55258039     0.036968497
      4465.24      0.58201804     0.036838466
      4469.70      0.59448733     0.036710514
      4474.17      0.59150476     0.036592016
      4478.65      0.58218900     0.036083289
      4483.12      0.57821618     0.036343599
      4487.61      0.60270055     0.036225319
      4492.09      0.63718990     0.035721744
      4496.59      0.67483196     0.035983956
      4501.08      0.69784618     0.035867410
      4505.58      0.70882893     0.035369886
      4510.09      0.74822474     0.035633674
      4514.60      0.76150374     0.035518327
      4519.12      0.74440088     0.035026953
      4523.63      0.74806646     0.034934366
      4528.16      0.74766121     0.034794049
      4532.69      0.77122844     0.034693727
      4537.22      0.81938281     0.034604223
      4541.76      0.84602698     0.034466325
      4546.30      0.86697816     0.034369843
      4550.85      0.88619995     0.034284151
      4555.40      0.87120393     0.034147919
      4559.95      0.87003443     0.034054885
      4564.51      0.88332426     0.033973287
      4569.08      0.88945633     0.033837785
      4573.65      0.89286935     0.033749831
      4578.22      0.91547846     0.033285209
      4582.80      0.92758224     0.033537170
      4587.38      0.92426220     0.033454162
      4591.97      0.92002034     0.032991150
      4596.56      0.92784701     0.033246272
      4601.16      0.94018239     0.032800280
      4605.76      0.93034976     0.032706744
      4610.37      0.92588349     0.032965035
      4614.98      0.90409602     0.032518730
      4619.59      0.90163413     0.032431268
      4624.21      0.89737981     0.032338409
      4628.84      0.89022490     0.032246693
      4633.47      0.87924034     0.032503052
      4638.10      0.88069589     0.032069340
      4642.74      0.86835884     0.031984673
      4647.38      0.88114967     0.031899392
      4652.03      0.85709127     0.031809834
      4656.68      0.82345404     0.031404230
      4661.34      0.79278827     0.031642910
      4666.00      0.77426087     0.031563020
      4670.67      0.76069837     0.031482158
      4675.33      0.75203572     0.031398217
      4680.01      0.75486465     0.031002566
      4684.69      0.77085009     0.031239267
      4689.38      0.78518782     0.030843279
      4694.07      0.77038312     0.031087102
      4698.76      0.75937965     0.031009581
      4703.46      0.77634244     0.030625985
      4708.16      0.79358504     0.030859179
      4712.87      0.79722945     0.030474497
      4717.58      0.81018052     0.030713692
      4722.30      0.82273696     0.030328879
      4727.03      0.83639245     0.030274864
      4731.75      0.84181240     0.030188404
      4736.48      0.86087719     0.030132747
      4741.22      0.82559374     0.030052884
      4745.96      0.79408551     0.029995627
      4750.71      0.75693574     0.029922024
      4755.46      0.71635800     0.029862958
      4760.22      0.68915647     0.029496097
      4764.97      0.66983401     0.029735179
      4769.74      0.65519194     0.029374736
      4774.51      0.65263191     0.029612182
      4779.29      0.65002179     0.029566109
      4784.07      0.66518287     0.029493062
      4788.85      0.65812862     0.029446580
      4793.64      0.67154520     0.029082100
      4798.43      0.66699422     0.029331481
      4803.23      0.66597643     0.028972084
      4808.03      0.67921907     0.029220791
      4812.84      0.69836113     0.028865460
      4817.66      0.73150900     0.028822651
      4822.48      0.74345059     0.028762868
      4827.30      0.77642591     0.028722985
      4832.12      0.77065009     0.028664209
      4836.96      0.77461196     0.028626133
      4841.79      0.78395006     0.028568425
      4846.63      0.77607330     0.028532966
      4851.48      0.79136232     0.028476700
      4856.33      0.80456384     0.028443190
      4861.19      0.80750689     0.028387838
      4866.05      0.82329917     0.028072746
      4870.92      0.83387815     0.028303180
      4875.79      0.84872377     0.027991921
      4880.66      0.84006605     0.028222358
      4885.55      0.83670734     0.027915057
      4890.43      0.83085250     0.028145418
      4895.32      0.85772687     0.027841395
      4900.22      0.87781242     0.027798690
      4905.12      0.88540238     0.027771567
      4910.02      0.88380468     0.027729722
      4914.94      0.89320607     0.027706408
      4919.85      0.90398663     0.027664177
      4924.77      0.90764700     0.027906280
      4929.70      0.93602404     0.027603161
      4934.62      0.96569676     0.027574346
      4939.56      0.97812749     0.027546019
      4944.50       1.0107218     0.027516612
      4949.44       1.0184388     0.027492685
      4954.39       1.0387892     0.027462896
      4959.35       1.0462078     0.027443523
      4964.31       1.0370198     0.027413394
      4969.27       1.0361628     0.027124485
      4974.24       1.0248562     0.027368175
      4979.22      0.99464470     0.027077545
      4984.20       1.0043204     0.027327293
      4989.18      0.99922246     0.027035771
      4994.17      0.97985716     0.027025677
      4999.16      0.94345879     0.027268805
      5004.16      0.95252075     0.026986173
      5009.17      0.95796664     0.027235641
      5014.18      0.94187736     0.026951387
      5019.19      0.94134954     0.026947741
      5024.21      0.95252583     0.026921952
      5029.23      0.96569121     0.026916167
      5034.26      0.97765266     0.026896719
      5039.30      0.98572904     0.026888829
      5044.34      0.97152099     0.026890764
      5049.39      0.96851257     0.026867295
      5054.43      0.95164787     0.026866129
      5059.49      0.94067464     0.026604501
      5064.55      0.93576166     0.026846847
      5069.61      0.92513147     0.026852075
      5074.68      0.93303972     0.026588220
      5079.76      0.95991405     0.026835960
      5084.84      0.96616187     0.026581734
      5089.92      0.98947931     0.026580450
      5095.01       1.0162733     0.026833047
      5100.11       1.0520992     0.026577569
      5105.21       1.0731750     0.026826730
      5110.31       1.0933207     0.026581581
      5115.42       1.1061958     0.026582689
      5120.54       1.1338734     0.026835169
      5125.66       1.1580215     0.026589570
      5130.79       1.1803756     0.026595314
      5135.92       1.2053048     0.026349824
      5141.05       1.2369802     0.026606199
      5146.20       1.2662594     0.026615209
      5151.34       1.3306715     0.026372352
      5156.49       1.3830197     0.026630725
      5161.65       1.4466812     0.026643108
      5166.81       1.5053231     0.026402698
      5171.98       1.5637466     0.026663008
      5177.15       1.5927972     0.026678072
      5182.33       1.6221532     0.026439502
      5187.51       1.6408077     0.026703622
      5192.70       1.6615928     0.026460550
      5197.89       1.6732563     0.026483511
      5203.09       1.6630994     0.026512120
      5208.29       1.6441817     0.026508923
      5213.50       1.6283931     0.026534055
      5218.72       1.6136542     0.026564637
      5223.93       1.6029255     0.026565187
      5229.16       1.5664989     0.026591183
      5234.39       1.5596882     0.026622891
      5239.62       1.5604456     0.026398446
      5244.86       1.5614465     0.026656015
      5250.11       1.5789834     0.026688649
      5255.36       1.5830373     0.026726085
      5260.61       1.5665003     0.026498298
      5265.87       1.5745442     0.026760950
      5271.14       1.5647136     0.026799248
      5276.41       1.5472060     0.026578047
      5281.69       1.5619994     0.026611022
      5286.97       1.5621763     0.026879190
      5292.26       1.5606740     0.026665466
      5297.55       1.5638429     0.026699048
      5302.85       1.5659017     0.026736612
      5308.15       1.5556708     0.027009833
      5313.46       1.5642774     0.026795237
      5318.77       1.5773852     0.026832429
      5324.09       1.5678617     0.026874041
      5329.42       1.5690019     0.026901568
      5334.75       1.5860003     0.026938436
      5340.08       1.5990997     0.026978920
      5345.42       1.5966372     0.027022913
      5350.77       1.5995996     0.026812492
      5356.12       1.5916991     0.027093741
      5361.48       1.5938005     0.027137201
      5366.83       1.6032089     0.027184027
      5372.20       1.6038348     0.026973182
      5377.58       1.6105149     0.027026368
      5382.95       1.6152766     0.027307437
      5388.34       1.5910918     0.027356542
      5393.72       1.5607536     0.027145638
      5399.12       1.5655806     0.027199836
      5404.52       1.5557137     0.027257267
      5409.92       1.5337538     0.027540735
      5415.33       1.5228053     0.027329438
      5420.75       1.5272674     0.027385189
      5426.17       1.5175741     0.027443480
      5431.60       1.5152662     0.027504671
      5437.03       1.5272310     0.027300668
      5442.47       1.5321114     0.027582353
      5447.91       1.5331746     0.027641511
      5453.36       1.5510868     0.027702964
      5458.81       1.5491729     0.027767001
      5464.27       1.5527145     0.027565750
      5469.73       1.5330328     0.027625254
      5475.20       1.5145801     0.027914025
      5480.68       1.4741555     0.027977957
      5486.16       1.4393921     0.028044313
      5491.65       1.4194483     0.027848590
      5497.14       1.3962663     0.027910682
      5502.64       1.4159194     0.027974594
      5508.14       1.4259554     0.028040286
      5513.65       1.4535561     0.028107690
      5519.16       1.4749924     0.028150451
      5524.68       1.4813957     0.028214596
      5530.20       1.5029674     0.028280390
      5535.73       1.5281587     0.028347782
      5541.27       1.5570372     0.028416668
      5546.81       1.5567269     0.028487472
      5552.36       1.5559889     0.028292398
      5557.91       1.5462779     0.028365577
      5563.47       1.5172831     0.028439966
      5569.04       1.4766180     0.028745290
      5574.60       1.4073653     0.028817558
      5580.18       1.3315974     0.028891047
      5585.76       1.2788840     0.028693749
      5591.35       1.2300723     0.028768763
      5596.94       1.1915257     0.028844827
      5602.53       1.1601424     0.028922679
      5608.14       1.1368724     0.029001501
      5613.75       1.0873309     0.029081308
      5619.36       1.0628307     0.029162140
      5624.98       1.0242368     0.028968940
      5630.60      0.98191867     0.029047023
      5636.23      0.96813517     0.029354160
      5641.87      0.95478364     0.029434661
      5647.51      0.92881187     0.029516020
      5653.16      0.89849088     0.029598230
      5658.82      0.88260938     0.029681409
      5664.47      0.85657745     0.029765638
      5670.14      0.83779794     0.029850428
      5675.81      0.83132683     0.029665727
      5681.48      0.83101935     0.029747618
      5687.17      0.83247463     0.029831047
      5692.85      0.84727549     0.029915040
      5698.55      0.83589776     0.029999602
      5704.25      0.83910668     0.030084755
      5709.95      0.85027194     0.030170468
      5715.66      0.83162765     0.030257584
      5721.38      0.83021930     0.030345239
      5727.10      0.84365478     0.030433475
      5732.83      0.83989934     0.030522205
      5738.56      0.86154419     0.030611749
      5744.30      0.87208965     0.030421190
      5750.04      0.87876296     0.030510952
      5755.79      0.88242921     0.030601166
      5761.55      0.89611190     0.030691758
      5767.31      0.92447568     0.030782841
      5773.08      0.94848009     0.030875360
      5778.85      0.97814718     0.030969339
      5784.63       1.0147787     0.031065468
      5790.41       1.0513019     0.031162346
      5796.21       1.0705699     0.031258241
      5802.00       1.1131300     0.031355509
      5807.81       1.1212796     0.031456194
      5813.61       1.1436715     0.031564671
      5819.43       1.1883386     0.031683435
      5825.25       1.2165384     0.031807136
      5831.07       1.2696639     0.031932122
      5836.90       1.3189379     0.032060584
      5842.74       1.3530488     0.032193238
      5848.58       1.4040425     0.032322106
      5854.43       1.4503672     0.032440628
      5860.29       1.5000088     0.032551632
      5866.15       1.5418888     0.032658084
      5872.01       1.5826480     0.032759767
      5877.89       1.5991723     0.032610893
      5883.76       1.6162068     0.032703008
      5889.65       1.6022319     0.032796748
      5895.54       1.5862750     0.032893091
      5901.43       1.5641940     0.032989209
      5907.34       1.5385924     0.033081587
      5913.24       1.5296719     0.033170570
      5919.16       1.4772558     0.033256266
      5925.08       1.4333859     0.033341651
      5931.00       1.3970585     0.033428198
      5936.93       1.3581296     0.033512016
      5942.87       1.3289081     0.033591649
      5948.81       1.2977492     0.033675787
      5954.76       1.2732162     0.033507626
      5960.72       1.2565134     0.033597380
      5966.68       1.2284931     0.033682201
      5972.64       1.1949160     0.033770091
      5978.62       1.1543176     0.033863849
      5984.60       1.1283508     0.033961623
      5990.58       1.0967733     0.034061560
      5996.57       1.0732121     0.034163537
      6002.57       1.0330583     0.034325972
      6008.57       1.0100713     0.034427643
      6014.58      0.98074952     0.034529960
      6020.60      0.98596981     0.034632792
      6026.62       1.0047741     0.034737122
      6032.65      0.98919322     0.034842669
      6038.68      0.98209880     0.034949190
      6044.72      0.97687438     0.034804310
      6050.76      0.97680416     0.034911800
      6056.81      0.98448415     0.035020653
      6062.87      0.99012318     0.035130477
      6068.93       1.0049832     0.035241347
      6075.00       1.0083604     0.035650461
      6081.08       1.0111261     0.035758257
      6087.16       1.0433065     0.035608338
      6093.25       1.0776178     0.035717564
      6099.34       1.1107165     0.035828266
      6105.44       1.1506956     0.035939914
      6111.54       1.1888291     0.036053257
      6117.66       1.2174087     0.035894991
      6123.78       1.2817444     0.036315342
      6129.90       1.3678082     0.036425218
      6136.03       1.4837574     0.036536816
      6142.17       1.6157902     0.036649887
      6148.31       1.7222503     0.036495515
      6154.46       1.8249365     0.036603046
      6160.61       1.9343768     0.036713022
      6166.77       2.0221343     0.036830740
      6172.94       2.1267912     0.037283943
      6179.11       2.2273155     0.037137302
      6185.29       2.3352261     0.037241202
      6191.48       2.4642047     0.037362771
      6197.67       2.6837470     0.037506321
      6203.87       2.9346141     0.037417361
      6210.07       3.1951232     0.037933467
      6216.28       3.4997287     0.038125049
      6222.50       3.8532249     0.038322598
      6228.72       4.2058989     0.038518087
      6234.95       4.5953937     0.038435203
      6241.19       5.0683453     0.038935829
      6247.42       5.5329721     0.039062075
      6253.67       6.0009787     0.039163140
      6259.93       6.4846646     0.038957889
      6266.19       6.8524264     0.039016208
      6272.46       7.1597911     0.039365259
      6278.73       7.3918414     0.039125066
      6285.01       7.5579943     0.039187276
      6291.29       7.5944634     0.039273427
      6297.58       7.5599870     0.039359706
      6303.88       7.4289407     0.039455047
      6310.19       7.2729805     0.039537832
      6316.50       7.1107044     0.039629275
      6322.81       6.8440095     0.039435655
      6329.14       6.5917789     0.039524887
      6335.47       6.3178255     0.039949191
      6341.80       6.0583704     0.040052342
      6348.14       5.7326362     0.039866301
      6354.49       5.4297440     0.039969461
      6360.85       5.1811865     0.040414523
      6367.21       4.9553355     0.040242304
      6373.57       4.7251625     0.040349945
      6379.95       4.4645734     0.040463484
      6386.33       4.1838695     0.040641420
      6392.72       3.9542121     0.040761245
      6399.11       3.7819515     0.040894932
      6405.51       3.5931561     0.041113882
      6411.92       3.3729853     0.041252111
      6418.32       3.1888301     0.041388017
      6424.74       3.0577492     0.041245223
      6431.17       2.9116479     0.041721973
      6437.60       2.7885990     0.041847934
      6444.04       2.7104446     0.041684411
      6450.48       2.6714831     0.042134415
      6456.94       2.6401439     0.041941991
      6463.39       2.5740344     0.042040029
      6469.85       2.4662570     0.042142516
      6476.33       2.4141616     0.042279083
      6482.80       2.3744645     0.042384449
      6489.28       2.3231292     0.042500027
      6495.77       2.2428251     0.042644544
      6502.27       2.0979419     0.042746662
      6508.77       2.0606055     0.042544378
      6515.28       2.0564626     0.042976092
      6521.80       2.0175117     0.043074822
      6528.32       1.9672185     0.042870321
      6534.85       1.9484823     0.043310859
      6541.38       1.9559321     0.043101719
      6547.92       1.9556928     0.043186291
      6554.47       1.9378433     0.043633030
      6561.03       1.8975523     0.043433187
      6567.59       1.9025639     0.043535359
      6574.16       1.8984349     0.043697587
      6580.73       1.8828052     0.043797154
      6587.31       1.8142943     0.043612687
      6593.90       1.7370150     0.044062674
      6600.50       1.6929236     0.044166200
      6607.10       1.6675058     0.044329793
      6613.70       1.6152004     0.044429297
      6620.32       1.5595282     0.044242445
      6626.94       1.4631105     0.044696022
      6633.57       1.4457621     0.044502701
      6640.20       1.4079376     0.044961680
      6646.84       1.3363174     0.044762405
      6653.49       1.3192448     0.044872519
      6660.14       1.2861716     0.045022728
      6666.80       1.2516274     0.045129061
      6673.47       1.2329563     0.045586507
      6680.14       1.2250079     0.045386062
      6686.82       1.1974349     0.045499795
      6693.51       1.1905666     0.045642034
      6700.20       1.1794550     0.045753116
      6706.90       1.1509099     0.045898062
      6713.61       1.1085938     0.046006935
      6720.32       1.0774694     0.045794196
      6727.05       1.0690093     0.046258895
      6733.77       1.0383835     0.046045554
      6740.51       1.0025920     0.046514263
      6747.25      0.97713139     0.046349086
      6754.00      0.94954113     0.046953829
      6760.75      0.91280737     0.046854082
      6767.51      0.89913602     0.046963696
      6774.28      0.86830330     0.047088278
      6781.05      0.84774645     0.047525650
      6787.84      0.80951878     0.047962284
      6794.62      0.80388889     0.048292753
      6801.42      0.80537845     0.049452864
      6808.22      0.79593946     0.049955682
      6815.03      0.79680629     0.051249443
      6821.85      0.76964865     0.051651874
      6828.67      0.78528116     0.052731769
      6835.50      0.77453710     0.052720704
      6842.33      0.78543186     0.052873039
      6849.17      0.77428093     0.052754729
      6856.02      0.73395699     0.052352491
      6862.88      0.71388359     0.051942317
      6869.74      0.73725067     0.051369790
      6876.61      0.75832854     0.051029917
      6883.49      0.76946601     0.050800524
      6890.37      0.76115564     0.050299948
      6897.27      0.79062099     0.050365612
      6904.16      0.81908053     0.049847725
      6911.07      0.85018721     0.050130056
      6917.98      0.88856583     0.050074795
      6924.89      0.92543083     0.049719389
      6931.82      0.96001937     0.050065287
      6938.75       1.0173193     0.049774578
      6945.69       1.0508289     0.050201990
      6952.64       1.0803984     0.049948110
      6959.59       1.1545084     0.050077724
      6966.55       1.1913538     0.050139944
      6973.52       1.2585582     0.050229929
      6980.49       1.3243426     0.049939722
      6987.47       1.3854407     0.050316933
      6994.46       1.4629790     0.050385363
      7001.46       1.5691564     0.050097050
      7008.46       1.6826652     0.050505076
      7015.46       1.7730008     0.050221804
      7022.48       1.8518028     0.050622949
      7029.51       1.9410229     0.050712990
      7036.53       2.0255473     0.050443789
      7043.57       2.0997057     0.050878067
      7050.62       2.1763752     0.050673224
      7057.66       2.2256305     0.050839842
      7064.72       2.2508474     0.051019585
      7071.79       2.2578002     0.051156763
      7078.86       2.2297298     0.051384662
      7085.94       2.2375586     0.051315896
      7093.03       2.2600899     0.052021165
      7100.12       2.2296878     0.052595745
      7107.22       2.2290294     0.052899596
      7114.33       2.2423782     0.053916406
      7121.44       2.2844756     0.054648748
      7128.56       2.3186302     0.054763890
      7135.69       2.3761791     0.055195677
      7142.83       2.4815026     0.055400983
      7149.97       2.6021269     0.055591608
      7157.12       2.7357419     0.055667354
      7164.28       2.8682508     0.055633015
      7171.44       3.0860341     0.055592123
      7178.62       3.2999228     0.055602946
      7185.80       3.4427062     0.055320156
      7192.98       3.5926173     0.055831949
      7200.17       3.7519649     0.056012253
      7207.38       3.8067956     0.055736657
      7214.58       3.8645505     0.055804700
      7221.80       3.9142654     0.056148889
      7229.02       3.8692980     0.056001354
      7236.25       3.7917455     0.055484340
      7243.49       3.7183664     0.055334978
      7250.73       3.6430176     0.055192556
      7257.98       3.5838723     0.055048560
      7265.24       3.5089476     0.054811721
      7272.51       3.4975201     0.054575601
      7279.78       3.5271610     0.054366819
      7287.06       3.5794531     0.054237648
      7294.35       3.6696493     0.054098052
      7301.64       3.7822710     0.053983699
      7308.94       3.9035121     0.053569453
      7316.25       3.9637402     0.053543601
      7323.57       4.0091988     0.053538354
      7330.89       4.1114325     0.053872470
      7338.22       4.1543673     0.053493878
      7345.56       4.0753371     0.053475013
      7352.91       4.0005406     0.053475296
      7360.26       3.8575500     0.053489563
      7367.62       3.6750237     0.053153309
      7374.99       3.4853234     0.053520292
      7382.37       3.2417651     0.053561500
      7389.75       2.9906468     0.053605047
      7397.14       2.7540968     0.053656994
      7404.53       2.5641222     0.053347568
      7411.94       2.3725252     0.053404195
      7419.35       2.1495095     0.053796314
      7426.77       1.9761244     0.053858234
      7434.20       1.8197163     0.053566744
      7441.63       1.6663211     0.053626743
      7449.07       1.5089212     0.053688443
      7456.52       1.3928620     0.053777405
      7463.98       1.3329678     0.054054709
      7471.45       1.2814896     0.054269119
      7478.92       1.2452443     0.054914075
      7486.40       1.1815307     0.055569769
      7493.88       1.1451203     0.055368834
      7501.38       1.1365482     0.055870749
      7508.88       1.1427652     0.057286772
      7516.39       1.1190338     0.059022485
      7523.91       1.0845889     0.062074993
      7531.43       1.0767411     0.065861655
      7538.96       1.1004108     0.070185502
      7546.50       1.1407180     0.074726423
      7554.05       1.0981804     0.078932254
      7561.60       1.0359376     0.082041688
      7569.16       1.0344726     0.082348539
      7576.73       1.0310594     0.081796135
      7584.31      0.96370973     0.079348231
      7591.89      0.98648886     0.076600050
      7599.49       1.0385042     0.072282404
      7607.09       1.0642926     0.068096099
      7614.70       1.0610088     0.064633561
      7622.31       1.0792298     0.062058364
      7629.93       1.0786746     0.059849827
      7637.56       1.0976973     0.057997651
      7645.20       1.1234037     0.056870104
      7652.85       1.1942437     0.056220837
      7660.50       1.2481646     0.055665792
      7668.16       1.2979974     0.055199516
      7675.83       1.3758944     0.054851736
      7683.50       1.4282497     0.054616871
      7691.19       1.5396191     0.054471127
      7698.88       1.5911930     0.054389383
      7706.58       1.6722421     0.054348673
      7714.29       1.7481605     0.054330059
      7722.00       1.7989299     0.054322718
      7729.73       1.8708363     0.054324995
      7737.45       1.9453476     0.053984184
      7745.19       2.0056080     0.053993520
      7752.94       2.0265855     0.054001246
      7760.69       2.0218199     0.053688074
      7768.45       1.9973517     0.053696490
      7776.22       1.9505074     0.053702971
      7784.00       1.9278266     0.053716205
      7791.78       1.8775744     0.053738374
      7799.57       1.8416635     0.053766233
      7807.37       1.7889855     0.053798389
      7815.18       1.7304142     0.053188781
      7822.99       1.6597262     0.052607155
      7830.82       1.6030629     0.052632486
      7838.65       1.5525318     0.052036320
      7846.49       1.5164100     0.051741318
      7854.34       1.4197236     0.051156659
      7862.19       1.3530892     0.050870736
      7870.05       1.3044715     0.050572720
      7877.93       1.2488470     0.050006698
      7885.80       1.2147191     0.049721081
      7893.69       1.2040028     0.049434059
      7901.58       1.1769473     0.048903397
      7909.49       1.1284148     0.048638136
      7917.40       1.0941834     0.048138859
      7925.31       1.0749620     0.048126893
      7933.24       1.0459410     0.047642701
      7941.17       1.0287999     0.047165140
      7949.11       1.0231991     0.046910390
      7957.06       1.0274986     0.046661906
      7965.02       1.0259023     0.046406138
      7972.98       1.0216056     0.045963799
      7980.96       1.0250963     0.045743725
      7988.94       1.0347287     0.045332549
      7996.93       1.0261420     0.045129031
      8004.93       1.0075050     0.044948948
      8012.93      0.98159471     0.044577959
      8020.95      0.97652304     0.044434346
      8028.97      0.93449160     0.044146807
      8036.99      0.89176901     0.044096081
      8045.03      0.86440028     0.043953378
      8053.08      0.81925173     0.044224282
      8061.13      0.78029717     0.044101677
      8069.20      0.76884639     0.043895414
      8077.26      0.75121778     0.043913677
      8085.34      0.71577713     0.043736186
      8093.43      0.67479627     0.043750899
      8101.52      0.65035232     0.043544682
      8109.62      0.61068916     0.043463754
      8117.73      0.59626065     0.043143490
      8125.85      0.56353020     0.043131813
      8133.98      0.54067977     0.042760438
      8142.11      0.52282431     0.042512093
      8150.25      0.54324320     0.042083232
      8158.41      0.58177198     0.041645311
      8166.56      0.54713736     0.041327070
      8174.73      0.53069229     0.040876451
      8182.91      0.53480879     0.041227949
      8191.09      0.52762115     0.041674643
      8199.28      0.53520615     0.042350748
      8207.48      0.52614800     0.043143366
      8215.69      0.53947036     0.044172156
      8223.91      0.55432798     0.045241486
      8232.13      0.56464020     0.046811191
      8240.36      0.55917906     0.049082022
      8248.60      0.55294248     0.051787004
      8256.85      0.54867476     0.054819794
      8265.11      0.53621356     0.059182702
      8273.37      0.53295288     0.065787615
      8281.65      0.53427102     0.073357226
      8289.93      0.52430183     0.081831367
      8298.22      0.52471252     0.093919472
      8306.52      0.52402681      0.11116174
      8314.83      0.51873027      0.13155598
