# starting wavelength =        3460.7200
# ending wavelength =        7375.5700
# O2 telluric scale =        0
# O2 telluric shift =        0
# H2O telluric scale =        0
# H2O telluric shift =        0
      3464.04       1.8525869       1.0779661
      3467.51       1.7427549      0.91789499
      3470.98       1.6359841      0.79079716
      3474.45       1.6993722      0.67237109
      3477.92       1.8255618      0.59841395
      3481.40       2.0043094      0.54058332
      3484.88       1.9990342      0.49576206
      3488.37       2.1474578      0.46116644
      3491.86       2.1690636      0.43871298
      3495.35       2.2754266      0.41628366
      3498.84       2.2804211      0.39865307
      3502.34       2.3740142      0.38460650
      3505.84       2.2016988      0.37033807
      3509.35       2.1563223      0.36125080
      3512.86       2.1373676      0.35364557
      3516.37       2.0710628      0.34717377
      3519.89       2.0470947      0.34160321
      3523.41       2.1000680      0.33467161
      3526.93       2.0361828      0.33345755
      3530.46       2.0780877      0.33228505
      3533.99       2.0254952      0.33282689
      3537.53       1.8320936      0.32950285
      3541.06       1.7085228      0.33002003
      3544.60       1.6521219      0.33053577
      3548.15       1.7690247      0.32937664
      3551.70       1.8452230      0.32776922
      3555.25       1.7455822      0.32660103
      3558.80       1.5800327      0.32716547
      3562.36       1.6766262      0.32769490
      3565.92       1.7500732      0.32439098
      3569.49       1.8251690      0.32492975
      3573.06       1.7232053      0.32378278
      3576.64       1.6484078      0.32440190
      3580.21       1.5973862      0.32273924
      3583.79       1.4471715      0.32163411
      3587.38       1.5126249      0.32217638
      3590.96       1.5679160      0.32061257
      3594.55       1.5370044      0.31943530
      3598.15       1.5809041      0.32005247
      3601.75       1.5495647      0.32066434
      3605.35       1.6372180      0.31731491
      3608.96       1.4921194      0.31792737
      3612.56       1.5271266      0.31856549
      3616.18       1.4150327      0.31748496
      3619.79       1.2309784      0.31583384
      3623.41       1.1676776      0.31650220
      3627.04       1.0221232      0.31534825
      3630.66       1.0940491      0.31378451
      3634.29       1.2644170      0.31444241
      3637.93       1.2225770      0.31334983
      3641.57       1.0683512      0.31172770
      3645.21       1.0563777      0.31244577
      3648.86       1.1420248      0.31128064
      3652.50       1.0874568      0.31204636
      3656.16       1.1592880      0.31042449
      3659.81       1.1984704      0.30933942
      3663.47       1.3979698      0.31002326
      3667.14       1.2738579      0.30848904
      3670.80       1.2593411      0.30732714
      3674.48       1.3678628      0.30813478
      3678.15       1.4392388      0.30652221
      3681.83       1.4119556      0.30731939
      3685.51       1.4285579      0.30616339
      3689.20       1.3412881      0.30462935
      3692.88       1.2205324      0.30541497
      3696.58       1.2176247      0.30435825
      3700.27       1.2238204      0.30273831
      3703.98       1.2942332      0.30355489
      3707.68       1.2570578      0.30440972
      3711.39       1.3250059      0.30338007
      3715.10       1.2122868      0.30173806
      3718.81       1.1878257      0.30258759
      3722.53       1.2110396      0.30352982
      3726.26       1.1790270      0.29991204
      3729.98       1.1293687      0.30086585
      3733.71       1.2698883      0.29927476
      3737.45       1.1594002      0.30021869
      3741.18       1.0606812      0.30116280
      3744.93       1.2068486      0.29753341
      3748.67       1.2405218      0.29849315
      3752.42       1.2729069      0.29945614
      3756.17       1.3677996      0.29797465
      3759.93       1.4485813      0.29677855
      3763.69       1.5116925      0.29786968
      3767.45       1.5661863      0.29626961
      3771.22       1.4487705      0.29731833
      3774.99       1.3584685      0.29842137
      3778.77       1.2964931      0.29463617
      3782.54       1.1555394      0.29576380
      3786.33       1.2142458      0.29681857
      3790.11       1.2923409      0.29531475
      3793.90       1.3142106      0.29645980
      3797.70       1.2778619      0.29263234
      3801.50       1.4407127      0.29381036
      3805.30       1.5733001      0.29494392
      3809.10       1.5498071      0.29344025
      3812.91       1.4002815      0.29466109
      3816.73       1.3458388      0.29311800
      3820.54       1.3194923      0.29201984
      3824.36       1.2757215      0.29321675
      3828.19       1.2915644      0.29171431
      3832.02       1.4728241      0.29303197
      3835.85       1.4804769      0.29433844
      3839.68       1.3655642      0.29286499
      3843.52       1.2666573      0.29165403
      3847.37       1.1712137      0.29013628
      3851.22      0.91321399      0.29157324
      3855.07      0.92341462      0.29000087
      3858.92      0.92684908      0.28897466
      3862.78       1.0142646      0.28736112
      3866.64       1.1284051      0.28582777
      3870.51       1.1371792      0.28478831
      3874.38       1.1627540      0.28320715
      3878.26       1.1280394      0.28170143
      3882.13       1.2943927      0.28065680
      3886.02       1.3384942      0.27910712
      3889.90       1.4855139      0.27519530
      3893.79       1.6842561      0.27658761
      3897.69       1.8350704      0.27505911
      3901.59       1.8716723      0.27119812
      3905.49       2.0335771      0.27257299
      3909.39       2.0150883      0.27106046
      3913.30       1.8776126      0.26725092
      3917.22       1.7899906      0.26587060
      3921.13       1.8476103      0.26710762
      3925.06       1.8706499      0.26334472
      3928.98       1.8701644      0.26198080
      3932.91       1.8192372      0.26321115
      3936.84       1.6751715      0.25949274
      3940.78       1.4603405      0.25812869
      3944.72       1.3215657      0.25682086
      3948.67       1.2161896      0.25568883
      3952.61       1.1197139      0.25433189
      3956.57       1.2243993      0.25301912
      3960.52       1.1452371      0.25193494
      3964.48       1.0826818      0.25057467
      3968.45       1.0779069      0.24926463
      3972.42       1.0009384      0.24582256
      3976.39      0.91632970      0.24687885
      3980.37       1.0271977      0.24555993
      3984.35       1.0689964      0.24222222
      3988.33       1.0637473      0.24087269
      3992.32       1.2065808      0.24191949
      3996.31       1.2780277      0.24063575
      4000.31       1.3635504      0.23732665
      4004.31       1.4953499      0.23601251
      4008.31       1.7031035      0.23473414
      4012.32       1.8286270      0.23385177
      4016.33       1.9581189      0.23252986
      4020.35       2.0592157      0.23124377
      4024.37       2.1821526      0.22999049
      4028.40       2.2248735      0.22912177
      4032.42       2.1794763      0.22782656
      4036.46       1.9613880      0.22656468
      4040.50       1.7555686      0.22343494
      4044.54       1.7114349      0.22223962
      4048.58       1.4189374      0.22321114
      4052.63       1.3221034      0.22196878
      4056.68       1.3731100      0.21889489
      4060.74       1.3939779      0.21770983
      4064.80       1.2506250      0.21655197
      4068.86       1.2137162      0.21746357
      4072.93       1.0946738      0.21444328
      4077.01       1.0341688      0.21327097
      4081.08       1.2657793      0.21212001
      4085.17       1.5017135      0.21099284
      4089.25       1.7180761      0.21007950
      4093.34       1.8275503      0.20891589
      4097.43       1.9467641      0.20777217
      4101.53       2.0620970      0.20665058
      4105.63       2.1071205      0.20554649
      4109.74       2.0395952      0.20272301
      4113.85       1.9432975      0.20352042
      4117.96       1.8348312      0.20240250
      4122.08       1.7062097      0.20130135
      4126.20       1.5658150      0.20021842
      4130.33       1.7038673      0.19749136
      4134.46       1.8768326      0.19639049
      4138.59       1.9779084      0.19530303
      4142.73       1.8930071      0.19608493
      4146.88       1.8048978      0.19502178
      4151.02       1.7372429      0.19240184
      4155.18       1.7311902      0.19131801
      4159.33       1.8484551      0.19024999
      4163.49       1.9004806      0.18919494
      4167.65       1.8374853      0.18815400
      4171.82       1.7317365      0.18745331
      4175.99       1.6958237      0.18638876
      4180.17       1.6465991      0.18533386
      4184.35       1.6112736      0.18429892
      4188.54       1.4519931      0.18327221
      4192.72       1.3954933      0.18225981
      4196.92       1.3412086      0.17979362
      4201.11       1.2019357      0.17880768
      4205.31       1.2971864      0.17783320
      4209.52       1.3954111      0.17686483
      4213.73       1.4841847      0.17755567
      4217.94       1.5113316      0.17656307
      4222.16       1.4781195      0.17416931
      4226.38       1.3901102      0.17320086
      4230.61       1.3912903      0.17224890
      4234.84       1.3867035      0.17129905
      4239.08       1.3622847      0.17036317
      4243.32       1.3565770      0.16942797
      4247.56       1.2568185      0.16850922
      4251.81       1.1846559      0.16759166
      4256.06       1.1941102      0.16534735
      4260.32       1.1974390      0.16442857
      4264.58       1.2791765      0.16351523
      4268.84       1.2106024      0.16261386
      4273.11       1.2282282      0.16321255
      4277.38       1.2639033      0.16231718
      4281.66       1.3744759      0.16142318
      4285.94       1.4720003      0.16054165
      4290.23       1.4836010      0.15966179
      4294.52       1.4602517      0.15759817
      4298.81       1.4462632      0.15671959
      4303.11       1.3353242      0.15585289
      4307.42       1.3083912      0.15499087
      4311.72       1.3555410      0.15413617
      4316.04       1.3955692      0.15328765
      4320.35       1.4589603      0.15244350
      4324.67       1.5144084      0.15160964
      4329.00       1.6083458      0.15077395
      4333.33       1.5634393      0.14995391
      4337.66       1.6194994      0.14913170
      4342.00       1.6123399      0.14831881
      4346.34       1.6624917      0.14751000
      4350.69       1.6322145      0.14670667
      4355.04       1.6932192      0.14477546
      4359.39       1.7225551      0.14398858
      4363.75       1.7475389      0.14320743
      4368.12       1.5696367      0.14242739
      4372.48       1.5266497      0.14165894
      4376.86       1.4315555      0.14089064
      4381.23       1.2875285      0.14013146
      4385.61       1.1512156      0.13937312
      4390.00      0.98923573      0.13862113
      4394.39      0.91478649      0.13787466
      4398.79      0.91984381      0.13713420
      4403.18      0.98896683      0.13639928
      4407.59       1.0273665      0.13566526
      4412.00       1.0924950      0.13494252
      4416.41       1.0637717      0.13421670
      4420.82       1.1458181      0.13231832
      4425.25       1.1959239      0.13161285
      4429.67       1.2361582      0.13091189
      4434.10       1.3387676      0.13021685
      4438.54       1.3826815      0.12952522
      4442.97       1.3443728      0.12883994
      4447.42       1.2508456      0.12815947
      4451.86       1.1419702      0.12748657
      4456.32       1.2259792      0.12681543
      4460.77       1.1447166      0.12615200
      4465.24       1.1435296      0.12549358
      4469.70       1.0616425      0.12484076
      4474.17      0.92173939      0.12419407
      4478.65       1.0280158      0.12354941
      4483.12       1.0761436      0.12179624
      4487.61       1.1190263      0.12116066
      4492.09       1.1838290      0.12053019
      4496.59       1.3118498      0.11990367
      4501.08       1.3863260      0.11928334
      4505.58       1.4143254      0.11866712
      4510.09       1.5308828      0.11805846
      4514.60       1.4948801      0.11834623
      4519.12       1.4712118      0.11774479
      4523.63       1.4165436      0.11613570
      4528.16       1.3642130      0.11553702
      4532.69       1.2397633      0.11494213
      4537.22       1.2295653      0.11435342
      4541.76       1.3423494      0.11377170
      4546.30       1.2633502      0.11319636
      4550.85       1.2455718      0.11262591
      4555.40       1.1670173      0.11206222
      4559.95       1.1593716      0.11055271
      4564.51       1.2433648      0.11000867
      4569.08       1.1378374      0.10946849
      4573.65       1.1161912      0.10972554
      4578.22       1.1708930      0.10917825
      4582.80       1.2503456      0.10863908
      4587.38       1.2734585      0.10718415
      4591.97       1.2634585      0.10666268
      4596.56       1.2940128      0.10614869
      4601.16       1.2149277      0.10563999
      4605.76       1.1854504      0.10514148
      4610.37       1.2056157      0.10464865
      4614.98       1.2183431      0.10398719
      4619.59       1.2283998      0.10349026
      4624.21       1.2276547      0.10299865
      4628.84       1.2002633      0.10251768
      4633.47       1.1219393      0.10204288
      4638.10       1.1057160      0.10069073
      4642.74       1.1091001      0.10021509
      4647.38       1.1245690     0.099746629
      4652.03       1.1206511      0.10002296
      4656.68       1.0640280     0.099568523
      4661.34       1.0475839     0.098272236
      4666.00       1.0751591     0.097815291
      4670.67       1.1189006     0.097367196
      4675.33       1.0850916     0.096928646
      4680.01       1.1117276     0.096407287
      4684.69       1.1315519     0.095961632
      4689.38       1.1352096     0.095524373
      4694.07       1.1557118     0.095096568
      4698.76       1.1181043     0.093902213
      4703.46       1.0917369     0.093496112
      4708.16       1.0496975     0.093758011
      4712.87      0.97335948     0.093343149
      4717.58      0.97851193     0.092176909
      4722.30       1.0152987     0.091786903
      4727.03       1.0299142     0.091404699
      4731.75      0.96257566     0.091663699
      4736.48      0.93478386     0.090526434
      4741.22      0.92523950     0.090148882
      4745.96      0.83810226     0.089783603
      4750.71      0.82293240     0.089426685
      4755.46      0.81379629     0.088943442
      4760.22      0.83817185     0.088582127
      4764.97      0.90881608     0.088232367
      4769.74      0.97254834     0.087152845
      4774.51       1.0155704     0.087429202
      4779.29      0.98978938     0.087086330
      4784.07      0.98686299     0.086753994
      4788.85      0.98727504     0.085699080
      4793.64       1.0162543     0.085986695
      4798.43       1.0709267     0.085659898
      4803.23       1.0663476     0.084639696
      4808.03       1.0999067     0.084311847
      4812.84       1.1378328     0.084606873
      4817.66       1.0567766     0.083619610
      4822.48      0.99014213     0.083298257
      4827.30      0.99278934     0.082990831
      4832.12      0.96503142     0.082636534
      4836.96      0.92758374     0.082324146
      4841.79      0.93081753     0.082026076
      4846.63      0.90264581     0.081099349
      4851.48      0.90602501     0.081387879
      4856.33      0.88819772     0.081099285
      4861.19      0.82954916     0.080190778
      4866.05      0.82739586     0.080487739
      4870.92      0.83589622     0.080207911
      4875.79      0.95743353     0.079318625
      4880.66       1.0279419     0.079069059
      4885.55       1.0963363     0.078734753
      4890.43       1.1898084     0.078482673
      4895.32       1.1475687     0.078245767
      4900.22       1.2111702     0.077924148
      4905.12       1.2180523     0.077684514
      4910.02       1.1988630     0.076840849
      4914.94       1.2561339     0.077149145
      4919.85       1.2782025     0.076922650
      4924.77       1.2831605     0.076092104
      4929.70       1.3421435     0.076408978
      4934.62       1.3808530     0.076196737
      4939.56       1.3591586     0.075377181
      4944.50       1.3268958     0.075705266
      4949.44       1.2879139     0.074909845
      4954.39       1.3051262     0.074696942
      4959.35       1.3640343     0.074464489
      4964.31       1.3682388     0.074250546
      4969.27       1.4411124     0.074051943
      4974.24       1.5376109     0.073823724
      4979.22       1.5963611     0.073626306
      4984.20       1.7049348     0.073415766
      4989.18       1.7269452     0.073218010
      4994.17       1.8387006     0.072493931
      4999.16       1.8691724     0.072826929
      5004.16       1.8306363     0.072106707
      5009.17       1.8238162     0.071946270
      5014.18       1.8081945     0.072274027
      5019.19       1.7462775     0.071580456
      5024.21       1.6695022     0.071920179
      5029.23       1.6342115     0.071229566
      5034.26       1.5701932     0.071092102
      5039.30       1.4560051     0.070897395
      5044.34       1.2829764     0.070761234
      5049.39       1.1598655     0.070580029
      5054.43       1.0507594     0.070445860
      5059.49       1.0022369     0.070276780
      5064.55      0.98367233     0.070146786
      5069.61      0.97677761     0.069491845
      5074.68      0.92307743     0.069862063
      5079.76      0.93505486     0.069219796
      5084.84      0.94444714     0.069590958
      5089.92      0.92574270     0.068961015
      5095.01      0.92513459     0.069336172
      5100.11      0.91994892     0.068715870
      5105.21      0.93821890     0.069096445
      5110.31       1.0139861     0.068484601
      5115.42       1.0478436     0.068376939
      5120.54       1.1850072     0.068266591
      5125.66       1.2947621     0.068163079
      5130.79       1.3586177     0.068058889
      5135.92       1.3841609     0.067483593
      5141.05       1.3383763     0.067865596
      5146.20       1.3974024     0.067298262
      5151.34       1.4666531     0.067685074
      5156.49       1.5167385     0.067126410
      5161.65       1.4396216     0.067517209
      5166.81       1.3488502     0.066968985
      5171.98       1.2344554     0.067360957
      5177.15       1.1080497     0.066823629
      5182.33       1.0292173     0.066748776
      5187.51       1.0159037     0.066690603
      5192.70      0.98340239     0.066619241
      5197.89      0.96985479     0.066570728
      5203.09      0.93448356     0.066503381
      5208.29      0.98997282     0.065985436
      5213.50      0.98530492     0.066400213
      5218.72       1.0246873     0.065884476
      5223.93       1.0184760     0.066311115
      5229.16       1.0248724     0.065797613
      5234.39       1.0212261     0.065768282
      5239.62       1.0620916     0.066192003
      5244.86       1.1372041     0.065695891
      5250.11       1.1209445     0.066129981
      5255.36       1.0923305     0.065635050
      5260.61       1.0134093     0.065623740
      5265.87      0.93587248     0.065587006
      5271.14      0.85765255     0.065576737
      5276.41      0.85877894     0.065112645
      5281.69      0.88462420     0.065542426
      5286.97      0.92903795     0.065546735
      5292.26      0.92673409     0.065084465
      5297.55      0.92775409     0.065525764
      5302.85      0.95114750     0.065079517
      5308.15      0.97327689     0.065082711
      5313.46      0.94862966     0.065535173
      5318.77      0.93857761     0.065091995
      5324.09      0.92913406     0.065105520
      5329.42      0.87986474     0.065114655
      5334.75      0.83708437     0.065127672
      5340.08      0.88285939     0.065151781
      5345.42      0.84941705     0.065165377
      5350.77      0.74996141     0.065188531
      5356.12      0.73933953     0.064764010
      5361.48      0.74277684     0.065240222
      5366.83      0.73461211     0.065272453
      5372.20      0.78543135     0.064854666
      5377.58      0.82638427     0.064906221
      5382.95      0.86392783     0.065378906
      5388.34      0.92672843     0.064966395
      5393.72      0.99774552     0.065023698
      5399.12       1.0042501     0.065506303
      5404.52       1.0549674     0.065098467
      5409.92       1.0455688     0.065161723
      5415.33      0.99980090     0.065233495
      5420.75       1.0337419     0.065251433
      5426.17      0.99357632     0.065319823
      5431.60      0.94118943     0.065396328
      5437.03      0.88686516     0.065007775
      5442.47      0.84504509     0.065497464
      5447.91      0.79152221     0.065578214
      5453.36      0.72117692     0.065202142
      5458.81      0.71309345     0.065277829
      5464.27      0.69437744     0.065779601
      5469.73      0.68162187     0.065417297
      5475.20      0.64739478     0.065496339
      5480.68      0.64847834     0.065582503
      5486.16      0.69105250     0.065219187
      5491.65      0.72188184     0.065736281
      5497.14      0.79941590     0.065824967
      5502.64      0.80059090     0.065919426
      5508.14      0.85752485     0.065559184
      5513.65      0.87076219     0.065663037
      5519.16      0.85031645     0.066184362
      5524.68      0.83964262     0.066285059
      5530.20      0.76857035     0.065928564
      5535.73      0.73536868     0.066038881
      5541.27      0.67872979     0.066154859
      5546.81      0.60736786     0.066681519
      5552.36      0.63390719     0.066327465
      5557.91      0.61376141     0.066443986
      5563.47      0.66017380     0.066563105
      5569.04      0.69574264     0.066686032
      5574.60      0.66310561     0.066346248
      5580.18      0.71028321     0.066465281
      5585.76      0.75750293     0.066997125
      5591.35      0.79082372     0.067124216
      5596.94      0.78272525     0.067255628
      5602.53      0.89386028     0.066922468
      5608.14      0.93930442     0.067048251
      5613.75      0.99182683     0.067177497
      5619.36      0.99100817     0.067309819
      5624.98      0.94995822     0.067858597
      5630.60      0.92138810     0.067539352
      5636.23      0.89670345     0.067670569
      5641.87      0.89791666     0.067804757
      5647.51      0.86603930     0.067941429
      5653.16      0.80782190     0.068081348
      5658.82      0.84580252     0.067755376
      5664.47      0.83254043     0.067898514
      5670.14      0.82592177     0.068044356
      5675.81      0.82859015     0.068191487
      5681.48      0.73694670     0.068341390
      5687.17      0.81905129     0.068899624
      5692.85      0.83101917     0.068572675
      5698.55      0.82767960     0.068720390
      5704.25      0.82394392     0.068869637
      5709.95      0.89678193     0.069021076
      5715.66      0.88477728     0.069173426
      5721.38      0.86936988     0.069327528
      5727.10      0.86180038     0.069483086
      5732.83      0.87227982     0.069640491
      5738.56      0.85671465     0.069327389
      5744.30      0.82633965     0.069481726
      5750.04      0.80333144     0.069636352
      5755.79      0.75975302     0.069791886
      5761.55      0.69704846     0.069949272
      5767.31      0.66596746     0.070107570
      5773.08      0.65158103     0.070266026
      5778.85      0.62738697     0.070425611
      5784.63      0.62432606     0.070588690
      5790.41      0.61092594     0.070756941
      5796.21      0.66708393     0.070451233
      5802.00      0.76732574     0.070619216
      5807.81      0.81625076     0.070787357
      5813.61      0.88508847     0.070960378
      5819.43      0.98758047     0.071145458
      5825.25       1.1381833     0.071353371
      5831.07       1.2361692     0.071578587
      5836.90       1.3573741     0.071806951
      5842.74       1.5016548     0.072038611
      5848.58       1.5558489     0.072281744
      5854.43       1.6088414     0.072524782
      5860.29       1.6598170     0.072745700
      5866.15       1.6663120     0.072943798
      5872.01       1.6160429     0.073130064
      5877.89       1.5492087     0.073306749
      5883.76       1.5067982     0.073470744
      5889.65       1.4219230     0.073622792
      5895.54       1.2654749     0.073772500
      5901.43       1.1548817     0.073929280
      5907.34       1.0791384     0.073658546
      5913.24       1.0948915     0.073807766
      5919.16      0.99904971     0.073946379
      5925.08      0.96750908     0.074078108
      5931.00      0.96798997     0.074204486
      5936.93      0.96142256     0.074331416
      5942.87      0.94522764     0.074455955
      5948.81      0.95485100     0.074568209
      5954.76      0.96374855     0.074681398
      5960.72      0.92501676     0.074810048
      5966.68      0.90009887     0.074511674
      5972.64      0.89179009     0.074635835
      5978.62      0.84655826     0.074758023
      5984.60      0.83894538     0.074892277
      5990.58      0.81602246     0.075035845
      5996.57      0.81572862     0.075184082
      6002.57      0.75587077     0.075334908
      6008.57      0.72660279     0.075488681
      6014.58      0.74537370     0.075219580
      6020.60      0.75050224     0.075376631
      6026.62      0.74221531     0.076018893
      6032.65      0.70103880     0.076170740
      6038.68      0.75490783     0.076323065
      6044.72      0.76463154     0.076477768
      6050.76      0.82643327     0.076199691
      6056.81      0.84453950     0.076353181
      6062.87      0.82239178     0.076508183
      6068.93      0.83884623     0.076663724
      6075.00      0.84608083     0.076819862
      6081.08      0.86996092     0.076524551
      6087.16      0.89325766     0.077162501
      6093.25      0.89882281     0.077310514
      6099.34      0.94893900     0.077459090
      6105.44      0.97536856     0.077608971
      6111.54      0.98745082     0.077312123
      6117.66      0.98738927     0.077451863
      6123.78       1.0136491     0.077592624
      6129.90      0.97608076     0.077734069
      6136.03      0.97198376     0.077937220
      6142.17      0.92958657     0.078068486
      6148.31      0.93992093     0.078201625
      6154.46      0.95894000     0.078335892
      6160.61      0.87428040     0.078035287
      6166.77      0.88754245     0.078172887
      6172.94      0.83676444     0.078801312
      6179.11      0.79947547     0.078958879
      6185.29      0.77114984     0.078691977
      6191.48      0.76114775     0.078813282
      6197.67      0.78854060     0.078948934
      6203.87      0.78385046     0.079610157
      6210.07      0.78312451     0.079397447
      6216.28      0.84624959     0.079654079
      6222.50      0.83476785     0.079943575
      6228.72      0.83515789     0.079819506
      6234.95      0.83852310     0.080622984
      6241.19      0.90253055     0.080896634
      6247.42      0.89620380     0.080684181
      6253.67      0.91339608     0.080849687
      6259.93      0.94563183     0.081469066
      6266.19      0.95976835     0.081521062
      6272.46       1.0247864     0.081033047
      6278.73       1.0301449     0.080988857
      6285.01       1.0632697     0.080938741
      6291.29       1.0925516     0.080923370
      6297.58       1.0827175     0.080939228
      6303.88       1.0839011     0.080521188
      6310.19       1.0522169     0.081001804
      6316.50       1.0170132     0.081007454
      6322.81      0.97487098     0.080587882
      6329.14      0.94160519     0.080628494
      6335.47      0.89055528     0.081140255
      6341.80      0.79878177     0.080731157
      6348.14      0.76397880     0.080782398
      6354.49      0.74624230     0.081307373
      6360.85      0.73062302     0.080911939
      6367.21      0.68119584     0.080977404
      6373.57      0.67566616     0.080586319
      6379.95      0.69403335     0.081132023
      6386.33      0.71065975     0.081202522
      6392.72      0.76089840     0.080809629
      6399.11      0.73737793     0.081371635
      6405.51      0.81538790     0.081017170
      6411.92      0.82204316     0.081125593
      6418.32      0.85827618     0.081299482
      6424.74      0.84346921     0.081393926
      6431.17      0.83238902     0.081485516
      6437.60      0.91539221     0.081610826
      6444.04      0.91639568     0.081682329
      6450.48      0.94018797     0.081779183
      6456.94      0.89878252     0.081804674
      6463.39      0.91270854     0.081370471
      6469.85      0.93037611     0.081835164
      6476.33      0.88198680     0.081373190
      6482.80      0.88580561     0.081371420
      6489.28      0.87780621     0.081374027
      6495.77      0.85686454     0.081380953
      6502.27      0.83982447     0.081393877
      6508.77      0.83427726     0.081385043
      6515.28      0.82788661     0.080908628
      6521.80      0.81652776     0.081333918
      6528.32      0.88437596     0.080841855
      6534.85      0.84555122     0.081270130
      6541.38      0.83949887     0.080784873
      6547.92      0.85476302     0.081187319
      6554.47      0.86215486     0.080679786
      6561.03      0.91104705     0.080563617
      6567.59      0.93002005     0.080595106
      6574.16      0.97072659     0.080551960
      6580.73      0.93561608     0.080525036
      6587.31      0.95526696     0.080480137
      6593.90      0.94176187     0.080449838
      6600.50      0.93447010     0.080399888
      6607.10      0.99498971     0.080358230
      6613.70       1.0221679     0.079861189
      6620.32       1.0641247     0.080249389
      6626.94       1.1120259     0.079747936
      6633.57       1.1254397     0.080127774
      6640.20       1.1353409     0.079620557
      6646.84       1.1465840     0.079987659
      6653.49       1.1597654     0.079473596
      6660.14       1.1419453     0.079387872
      6666.80       1.1364621     0.079308685
      6673.47       1.1457587     0.079210082
      6680.14       1.0977546     0.079127259
      6686.82       1.1088395     0.079016083
      6693.51       1.0942367     0.078479028
      6700.20       1.0351764     0.078802278
      6706.90      0.97252007     0.078253893
      6713.61      0.93841033     0.078135564
      6720.32      0.90841661     0.078011073
      6727.05      0.89855506     0.077877323
      6733.77      0.87938957     0.077323294
      6740.51      0.89530578     0.077599950
      6747.25      0.89522818     0.077454658
      6754.00      0.87488519     0.076932819
      6760.75      0.84630567     0.077368739
      6767.51      0.83863494     0.077130803
      6774.28      0.82485271     0.076945406
      6781.05      0.79603426     0.076721974
      6787.84      0.78124959     0.076770038
      6794.62      0.80003893     0.077166962
      6801.42      0.77298116     0.077687341
      6808.22      0.76183639     0.078571060
      6815.03      0.77709465     0.079139612
      6821.85      0.77680745     0.080508006
      6828.67      0.78731969     0.081498279
      6835.50      0.79853794     0.081681403
      6842.33      0.80061470     0.081977129
      6849.17      0.71534897     0.082320989
      6856.02      0.70626526     0.081257291
      6862.88      0.67908171     0.080257909
      6869.74      0.68764501     0.079252620
      6876.61      0.69312032     0.077935555
      6883.49      0.64988835     0.076724194
      6890.37      0.63276384     0.075488429
      6897.27      0.62125684     0.075237803
      6904.16      0.61242175     0.074365759
      6911.07      0.58584931     0.073211219
      6917.98      0.53285028     0.072555756
      6924.89      0.52659018     0.071978396
      6931.82      0.49902089     0.071849139
      6938.75      0.52098324     0.071012913
      6945.69      0.51640152     0.070550580
      6952.64      0.55463594     0.070135779
      6959.59      0.56368878     0.069415750
      6966.55      0.51206977     0.069433391
      6973.52      0.46864538     0.069028413
      6980.49      0.46660661     0.068271159
      6987.47      0.53846232     0.067810853
      6994.46      0.66236859     0.066628363
      7001.46      0.82205238     0.065469224
      7008.46      0.95385114     0.064421493
      7015.46       1.0984771     0.063328481
      7022.48       1.2159372     0.062265290
      7029.51       1.3120324     0.061557334
      7036.53       1.3831356     0.060524145
      7043.57       1.4155895     0.059545944
      7050.62       1.4369302     0.058650149
      7057.66       1.4301949     0.058049137
      7064.72       1.3956145     0.057163935
      7071.79       1.3443860     0.056083699
      7078.86       1.3178430     0.055228798
      7085.94       1.2759123     0.054691996
      7093.03       1.2577385     0.054047407
      7100.12       1.1837299     0.053565976
      7107.22       1.1576464     0.053135927
      7114.33       1.0643537     0.052641918
      7121.44      0.98753539     0.052296481
      7128.56      0.89573759     0.051696567
      7135.69      0.85705634     0.051072178
      7142.83      0.80119260     0.050393472
      7149.97      0.81832797     0.049667695
      7157.12      0.82221053     0.048761730
      7164.28      0.88504656     0.047971766
      7171.44      0.92262661     0.047362102
      7178.62      0.94501653     0.046478372
      7185.80      0.93722656     0.045576604
      7192.98      0.95192602     0.044666230
      7200.17      0.92228285     0.043748885
      7207.38      0.85993391     0.042819733
      7214.58      0.89696519     0.041875135
      7221.80      0.89507689     0.040914500
      7229.02      0.91825278     0.039952619
      7236.25      0.92862317     0.038995334
      7243.49      0.91114379     0.038039864
      7250.73      0.95375725     0.037278018
      7257.98      0.95143486     0.036915057
      7265.24      0.94943406     0.037203736
      7272.51      0.95059492     0.037581519
      7279.78      0.95407551     0.038071095
      7287.06      0.96588535     0.038707567
      7294.35      0.96886975     0.039444935
      7301.64      0.97917719     0.040544571
      7308.94      0.98925444     0.042049769
      7316.25      0.97742529     0.044123781
      7323.57      0.97494086     0.046927347
      7330.89      0.97719140     0.050638332
      7338.22      0.95215720     0.055453321
      7345.56      0.94603443     0.061653389
      7352.91      0.94504588     0.069631181
      7360.26      0.95194459     0.079787015
      7367.62      0.95479138     0.092583093
      7374.99      0.94701097      0.10861510
