# starting wavelength =        3458.7300
# ending wavelength =        7373.5900
# O2 telluric scale =        0
# O2 telluric shift =        0
# H2O telluric scale =        0
# H2O telluric shift =        0
      3460.58       3.8985521     0.081356726
      3464.04       3.9021269     0.050295332
      3467.51       3.8978926     0.038165758
      3470.98       3.8959039     0.032591630
      3474.45       3.9131259     0.030578701
      3477.92       3.8955013     0.029885021
      3481.40       3.9006991     0.029734914
      3484.88       3.8957993     0.029625368
      3488.37       3.8658706     0.029590262
      3491.86       3.8488615     0.029456562
      3495.35       3.8194842     0.029457590
      3498.84       3.8298847     0.029296398
      3502.34       3.8155851     0.029184216
      3505.84       3.8492547     0.029153815
      3509.35       3.8551329     0.029016528
      3512.86       3.9266210     0.029019558
      3516.37       3.9626635     0.028859268
      3519.89       3.9648533     0.028744231
      3523.41       3.9746475     0.028708956
      3526.93       3.9525340     0.028576471
      3530.46       3.9422508     0.027940178
      3533.99       3.9045142     0.028416330
      3537.53       3.8933980     0.028308814
      3541.06       3.8566580     0.028261822
      3544.60       3.8504672     0.028136709
      3548.15       3.8238562     0.028115406
      3551.70       3.8343698     0.027971627
      3555.25       3.8361930     0.027341535
      3558.80       3.7883201     0.027811439
      3562.36       3.7703724     0.027168289
      3565.92       3.7667606     0.027656994
      3569.49       3.7403438     0.027535410
      3573.06       3.7022542     0.026934663
      3576.64       3.6772837     0.027367259
      3580.21       3.6608023     0.026756314
      3583.79       3.6720161     0.027203616
      3587.38       3.6489962     0.026585411
      3590.96       3.6103053     0.027043871
      3594.55       3.6139427     0.026418668
      3598.15       3.5639418     0.026883905
      3601.75       3.5321236     0.026250344
      3605.35       3.4945528     0.026192158
      3608.96       3.4881873     0.026086975
      3612.56       3.4835829     0.026021478
      3616.18       3.4717796     0.025924076
      3619.79       3.4607178     0.025852972
      3623.41       3.4415927     0.025761590
      3627.04       3.4237531     0.025684520
      3630.66       3.3723845     0.025603538
      3634.29       3.3503218     0.025520929
      3637.93       3.3446677     0.025441740
      3641.57       3.3337524     0.025354938
      3645.21       3.3162416     0.025280176
      3648.86       3.2849691     0.025193632
      3652.50       3.2463067     0.025119370
      3656.16       3.2179716     0.025032098
      3659.81       3.1683677     0.024958311
      3663.47       3.1587745     0.024871131
      3667.14       3.1526776     0.024798030
      3670.80       3.1669296     0.024715021
      3674.48       3.1606922     0.024637703
      3678.15       3.1551534     0.024556093
      3681.83       3.1703722     0.024473910
      3685.51       3.1451615     0.024398514
      3689.20       3.1015198     0.024314058
      3692.88       3.0789489     0.024243081
      3696.58       3.0769121     0.024154376
      3700.27       3.0692301     0.024089348
      3703.98       3.1019140     0.023994242
      3707.68       3.1080342     0.023938388
      3711.39       3.1280394     0.023839097
      3715.10       3.1445681     0.023299971
      3718.81       3.1416885     0.023682063
      3722.53       3.1332103     0.023137709
      3726.26       3.1203310     0.023530437
      3729.98       3.0945400     0.022979653
      3733.71       3.0629928     0.023379682
      3737.45       3.0548668     0.022823680
      3741.18       3.0278549     0.022781482
      3744.93       3.0040750     0.022669401
      3748.67       3.0108336     0.022620582
      3752.42       3.0222508     0.022988837
      3756.17       3.0564002     0.022459798
      3759.93       3.0609657     0.022837247
      3763.69       3.0624580     0.022302291
      3767.45       3.0563463     0.022260031
      3771.22       3.0614623     0.022150089
      3774.99       3.0533571     0.022095975
      3778.77       3.0305652     0.022002282
      3782.54       3.0149571     0.021934367
      3786.33       3.0029206     0.021903166
      3790.11       2.9830990     0.021779959
      3793.90       2.9480250     0.021735418
      3797.70       2.8961319     0.021633451
      3801.50       2.8576100     0.021573326
      3805.30       2.8487592     0.021537841
      3809.10       2.8533208     0.021415856
      3812.91       2.8629425     0.021368300
      3816.73       2.8933769     0.021268970
      3820.54       2.9718045     0.021206568
      3824.36       3.0410356     0.021172000
      3828.19       3.1181512     0.021055466
      3832.02       3.1540815     0.021001571
      3835.85       3.1608679     0.020535815
      3839.68       3.1716636     0.020843282
      3843.52       3.1634703     0.020799239
      3847.37       3.1424624     0.020323989
      3851.22       3.1339018     0.020637907
      3855.07       3.1393479     0.020191847
      3858.92       3.1090364     0.020486411
      3862.78       3.0475682     0.020428830
      3866.64       2.9224430     0.019981277
      3870.51       2.8234052     0.020274297
      3874.38       2.7832229     0.020226627
      3878.26       2.8379809     0.019773838
      3882.13       2.9074408     0.020069200
      3886.02       3.0137068     0.019649975
      3889.90       3.1116253     0.019569977
      3893.79       3.1528630     0.019859562
      3897.69       3.0855182     0.019447562
      3901.59       2.9357236     0.019364536
      3905.49       2.7876675     0.019655289
      3909.39       2.6803845     0.019243553
      3913.30       2.6090867     0.019165821
      3917.22       2.5649379     0.019098472
      3921.13       2.5471366     0.019047583
      3925.06       2.5535077     0.018963491
      3928.98       2.5723695     0.018897369
      3932.91       2.5729900     0.018849394
      3936.84       2.5856444     0.018769400
      3940.78       2.5696703     0.018698286
      3944.72       2.5550222     0.018660436
      3948.67       2.5281602     0.018572462
      3952.61       2.5330328     0.018502413
      3956.57       2.5687392     0.018440255
      3960.52       2.6132707     0.018384546
      3964.48       2.6618337     0.018306407
      3968.45       2.7162041     0.018242225
      3972.42       2.7670344     0.018197232
      3976.39       2.7805060     0.018119269
      3980.37       2.7724853     0.018047743
      3984.35       2.7453014     0.017651834
      3988.33       2.7247870     0.017932239
      3992.32       2.6931387     0.017859393
      3996.31       2.6558425     0.017792070
      4000.31       2.6313516     0.017404131
      4004.31       2.6047094     0.017674434
      4008.31       2.5713745     0.017603396
      4012.32       2.5681558     0.017211402
      4016.33       2.5914312     0.017159019
      4020.35       2.6138979     0.017422400
      4024.37       2.6463793     0.017352783
      4028.40       2.6661861     0.016966030
      4032.42       2.6803663     0.016912783
      4036.46       2.6787262     0.016866244
      4040.50       2.6649792     0.017105514
      4044.54       2.6391090     0.016723623
      4048.58       2.6226598     0.016668776
      4052.63       2.6092104     0.016620008
      4056.68       2.5958070     0.016861190
      4060.74       2.5814887     0.016482547
      4064.80       2.5770506     0.016426075
      4068.86       2.5792392     0.016375665
      4072.93       2.5931823     0.016329222
      4077.01       2.6114297     0.016246430
      4081.08       2.6292647     0.016187582
      4085.17       2.6459761     0.016133632
      4089.25       2.6525875     0.016082922
      4093.34       2.6519144     0.016038117
      4097.43       2.6471447     0.015953047
      4101.53       2.6287418     0.015895960
      4105.63       2.6234866     0.015841488
      4109.74       2.6294246     0.015792684
      4113.85       2.6371866     0.015746107
      4117.96       2.6368993     0.015401021
      4122.08       2.6459790     0.015606291
      4126.20       2.6483096     0.015552840
      4130.33       2.6606787     0.015501293
      4134.46       2.6714611     0.015454392
      4138.59       2.6779008     0.015123763
      4142.73       2.6889359     0.015065532
      4146.88       2.6982917     0.015267135
      4151.02       2.6993392     0.015214120
      4155.18       2.6858124     0.015163829
      4159.33       2.6708595     0.015116576
      4163.49       2.6589387     0.014795350
      4167.65       2.6589057     0.014737189
      4171.82       2.6553218     0.014682167
      4175.99       2.6459082     0.014879848
      4180.17       2.6378025     0.014828870
      4184.35       2.6202614     0.014778949
      4188.54       2.5867382     0.014475080
      4192.72       2.5517439     0.014417303
      4196.92       2.5153628     0.014361528
      4201.11       2.5037933     0.014307527
      4205.31       2.5025893     0.014254989
      4209.52       2.5030077     0.014447086
      4213.73       2.4944782     0.014397572
      4217.94       2.4891233     0.014110176
      4222.16       2.4848430     0.014053443
      4226.38       2.4829916     0.013997704
      4230.61       2.4759746     0.013942784
      4234.84       2.4610433     0.013889818
      4239.08       2.4686909     0.013837390
      4243.32       2.4714516     0.013786361
      4247.56       2.4641446     0.013736726
      4251.81       2.4521657     0.013449633
      4256.06       2.4307522     0.013650058
      4260.32       2.4170023     0.013595190
      4264.58       2.4029351     0.013541222
      4268.84       2.3851548     0.013488176
      4273.11       2.3619814     0.013435409
      4277.38       2.3434238     0.013383845
      4281.66       2.3242549     0.013333569
      4285.94       2.3122792     0.013283232
      4290.23       2.3103970     0.013233534
      4294.52       2.3029227     0.013184377
      4298.81       2.3027358     0.012907468
      4303.11       2.3082868     0.012860419
      4307.42       2.3180616     0.012813101
      4311.72       2.3254570     0.012767026
      4316.04       2.3162420     0.012721099
      4320.35       2.3085471     0.012674704
      4324.67       2.3063389     0.012629007
      4329.00       2.3093486     0.012582979
      4333.33       2.3081474     0.012538184
      4337.66       2.3160145     0.012492674
      4342.00       2.3410785     0.012448103
      4346.34       2.3623396     0.012402561
      4350.69       2.3896094     0.012357885
      4355.04       2.3988451     0.012312469
      4359.39       2.3994704     0.012268579
      4363.75       2.3847784     0.012223929
      4368.12       2.3514535     0.012178779
      4372.48       2.3276532     0.012134418
      4376.86       2.3067726     0.012088731
      4381.23       2.2986910     0.012045170
      4385.61       2.3006582     0.012000211
      4390.00       2.3122247     0.011956113
      4394.39       2.3123455     0.011911304
      4398.79       2.3131306     0.011866541
      4403.18       2.2994024     0.011821927
      4407.59       2.2769620     0.011776833
      4412.00       2.2600050     0.011532767
      4416.41       2.2509679     0.011688073
      4420.82       2.2477997     0.011644124
      4425.25       2.2496323     0.011599520
      4429.67       2.2541139     0.011555727
      4434.10       2.2580891     0.011511499
      4438.54       2.2625252     0.011467415
      4442.97       2.2580914     0.011423519
      4447.42       2.2280401     0.011379289
      4451.86       2.2083823     0.011336344
      4456.32       2.2183207     0.011292848
      4460.77       2.2431765     0.011250264
      4465.24       2.2785294     0.011207411
      4469.70       2.3355197     0.011165487
      4474.17       2.4138586     0.011123482
      4478.65       2.4867072     0.011080922
      4483.12       2.5323456     0.010865769
      4487.61       2.5436441     0.010825232
      4492.09       2.5469194     0.010786413
      4496.59       2.5460944     0.010746685
      4501.08       2.5198480     0.010708566
      4505.58       2.4835811     0.010669953
      4510.09       2.4479630     0.010632448
      4514.60       2.4151840     0.010596322
      4519.12       2.3829049     0.010559631
      4523.63       2.3558888     0.010525153
      4528.16       2.3432647     0.010474619
      4532.69       2.3364133     0.010435338
      4537.22       2.3297915     0.010397104
      4541.76       2.3211401     0.010358344
      4546.30       2.3043215     0.010322223
      4550.85       2.2930439     0.010285556
      4555.40       2.2713814     0.010251027
      4559.95       2.2504681     0.010216212
      4564.51       2.2308957     0.010010325
      4569.08       2.2195379    0.0099720548
      4573.65       2.1986863     0.010097780
      4578.22       2.1833745     0.010061946
      4582.80       2.1649339     0.010025838
      4587.38       2.1420832    0.0099914184
      4591.97       2.1246355    0.0099575291
      4596.56       2.0982437    0.0097612458
      4601.16       2.0721694    0.0097243108
      4605.76       2.0477976    0.0096870067
      4610.37       2.0247047    0.0098115045
      4614.98       2.0033727    0.0097763696
      4619.59       1.9903798    0.0097431427
      4624.21       1.9788347    0.0095558063
      4628.84       1.9654857    0.0095179081
      4633.47       1.9512701    0.0094823843
      4638.10       1.9342737    0.0094470339
      4642.74       1.9043346    0.0095696723
      4647.38       1.8668874    0.0093917790
      4652.03       1.8359992    0.0093529655
      4656.68       1.8022959    0.0093169545
      4661.34       1.7629725    0.0092814910
      4666.00       1.7250612    0.0092491553
      4670.67       1.6817560    0.0092303244
      4675.33       1.6475467    0.0091914615
      4680.01       1.6137827    0.0091554168
      4684.69       1.5783493    0.0091200972
      4689.38       1.5496639    0.0090882648
      4694.07       1.5281882    0.0089227526
      4698.76       1.5160218    0.0090316624
      4703.46       1.5074596    0.0089966666
      4708.16       1.4985000    0.0089626949
      4712.87       1.4813449    0.0087992721
      4717.58       1.4634075    0.0087709988
      4722.30       1.4314016    0.0088745391
      4727.03       1.3980009    0.0088409640
      4731.75       1.3605415    0.0086785228
      4736.48       1.3254126    0.0086508460
      4741.22       1.3054981    0.0087556525
      4745.96       1.3002187    0.0087215137
      4750.71       1.2886474    0.0085612893
      4755.46       1.2786910    0.0085333443
      4760.22       1.2746312    0.0086382975
      4764.97       1.2708191    0.0086044604
      4769.74       1.2702876    0.0084464162
      4774.51       1.2668120    0.0084200941
      4779.29       1.2695303    0.0083962904
      4784.07       1.2854433    0.0084899208
      4788.85       1.2981613    0.0083349115
      4793.64       1.3083292    0.0083098686
      4798.43       1.3149449    0.0084082111
      4803.23       1.3260394    0.0082525025
      4808.03       1.3401911    0.0082266671
      4812.84       1.3467948    0.0082037084
      4817.66       1.3506461    0.0081728340
      4822.48       1.3577173    0.0081462504
      4827.30       1.3695688    0.0081218252
      4832.12       1.3746996    0.0079713035
      4836.96       1.3799857    0.0080669458
      4841.79       1.3796473    0.0080425888
      4846.63       1.3788002    0.0080233096
      4851.48       1.3838521    0.0079900096
      4856.33       1.3862552    0.0079656728
      4861.19       1.3889598    0.0079457555
      4866.05       1.3997915    0.0079144040
      4870.92       1.4074880    0.0078906381
      4875.79       1.4172111    0.0077486167
      4880.66       1.4311858    0.0077209996
      4885.55       1.4435731    0.0078171341
      4890.43       1.4598872    0.0076762904
      4895.32       1.4744205    0.0076495897
      4900.22       1.4858327    0.0077455585
      4905.12       1.4983855    0.0076052684
      4910.02       1.5179573    0.0075797130
      4914.94       1.5419841    0.0076753819
      4919.85       1.5644634    0.0075352057
      4924.77       1.5777387    0.0076276150
      4929.70       1.5793648    0.0074945308
      4934.62       1.5775776    0.0074670860
      4939.56       1.5635513    0.0075602815
      4944.50       1.5478265    0.0074257463
      4949.44       1.5280508    0.0074006034
      4954.39       1.5154618    0.0073868731
      4959.35       1.5129525    0.0073584967
      4964.31       1.5071083    0.0073356553
      4969.27       1.5044933    0.0073192440
      4974.24       1.4986170    0.0072939440
      4979.22       1.5030526    0.0072815951
      4984.20       1.5229309    0.0072537330
      4989.18       1.5576597    0.0072317820
      4994.17       1.6073599    0.0072154350
      4999.16       1.6693266    0.0071912225
      5004.16       1.7400120    0.0071785140
      5009.17       1.8021427    0.0071522422
      5014.18       1.8514727    0.0070325315
      5019.19       1.8672675    0.0071141775
      5024.21       1.8574245    0.0069935466
      5029.23       1.8341738    0.0070778053
      5034.26       1.8064933    0.0070547103
      5039.30       1.7734592    0.0069393904
      5044.34       1.7382124    0.0070172802
      5049.39       1.7074243    0.0069019093
      5054.43       1.6799743    0.0069810807
      5059.49       1.6485313    0.0068649089
      5064.55       1.6159424    0.0069457613
      5069.61       1.5851316    0.0068292310
      5074.68       1.5593293    0.0069108399
      5079.76       1.5380400    0.0067943692
      5084.84       1.5164441    0.0067811852
      5089.92       1.4865581    0.0067601755
      5095.01       1.4654819    0.0067465608
      5100.11       1.4461844    0.0067264506
      5105.21       1.4321177    0.0067127060
      5110.31       1.4276201    0.0066936591
      5115.42       1.4300609    0.0066803218
      5120.54       1.4418878    0.0066612313
      5125.66       1.4552678    0.0066481868
      5130.79       1.4712391    0.0066298380
      5135.92       1.4860090    0.0066169391
      5141.05       1.5092266    0.0065984659
      5146.20       1.5238303    0.0065863026
      5151.34       1.5442003    0.0065683150
      5156.49       1.5546248    0.0064615160
      5161.65       1.5648553    0.0065382717
      5166.81       1.5755017    0.0064315031
      5171.98       1.5781926    0.0065093079
      5177.15       1.5734609    0.0064021621
      5182.33       1.5682946    0.0064811723
      5187.51       1.5630697    0.0063739336
      5192.70       1.5485736    0.0064537622
      5197.89       1.5279145    0.0063459576
      5203.09       1.4979493    0.0063370520
      5208.29       1.4715127    0.0063187351
      5213.50       1.4497281    0.0063089947
      5218.72       1.4220914    0.0063853628
      5223.93       1.4002537    0.0062813179
      5229.16       1.3885226    0.0063601690
      5234.39       1.3791818    0.0062555053
      5239.62       1.3761875    0.0062474033
      5244.86       1.3667170    0.0062303264
      5250.11       1.3634050    0.0062209589
      5255.36       1.3533776    0.0062976966
      5260.61       1.3488742    0.0061954701
      5265.87       1.3357509    0.0061888512
      5271.14       1.3236305    0.0061712362
      5276.41       1.3146162    0.0061627660
      5281.69       1.3035146    0.0060680211
      5286.97       1.2887592    0.0061381096
      5292.26       1.2772499    0.0061320740
      5297.55       1.2642837    0.0061161102
      5302.85       1.2459044    0.0061071405
      5308.15       1.2307954    0.0060158231
      5313.46       1.2106338    0.0060848816
      5318.77       1.1913593    0.0060772640
      5324.09       1.1731759    0.0059848688
      5329.42       1.1533466    0.0060550674
      5334.75       1.1362100    0.0060489439
      5340.08       1.1173333    0.0059559831
      5345.42       1.0955424    0.0060266362
      5350.77       1.0747075    0.0059388839
      5356.12       1.0531938    0.0059283302
      5361.48       1.0293341    0.0059992037
      5366.83       1.0145798    0.0059120130
      5372.20      0.99942354    0.0059018794
      5377.58      0.98706655    0.0058946751
      5382.95      0.98217791    0.0058866370
      5388.34      0.97362911    0.0058767697
      5393.72      0.96435478    0.0058697182
      5399.12      0.95572230    0.0058630019
      5404.52      0.94662192    0.0058529543
      5409.92      0.92946723    0.0058455170
      5415.33      0.92015685    0.0058407604
      5420.75      0.90333969    0.0058309042
      5426.17      0.88846030    0.0058230494
      5431.60      0.87485416    0.0057370246
      5437.03      0.85754416    0.0058101506
      5442.47      0.84421043    0.0058019866
      5447.91      0.83107513    0.0057958535
      5453.36      0.81935693    0.0057109502
      5458.81      0.80466515    0.0057828486
      5464.27      0.79734254    0.0057758743
      5469.73      0.78422608    0.0056903644
      5475.20      0.77228531    0.0056866158
      5480.68      0.76334908    0.0057579831
      5486.16      0.75271566    0.0057516404
      5491.65      0.74442256    0.0056670042
      5497.14      0.73676985    0.0056639109
      5502.64      0.72808071    0.0057355327
      5508.14      0.71932598    0.0057294177
      5513.65      0.71009440    0.0056457005
      5519.16      0.69685594    0.0056426894
      5524.68      0.68981363    0.0056401550
      5530.20      0.67344770    0.0057091402
      5535.73      0.65841525    0.0056259839
      5541.27      0.64369128    0.0056223807
      5546.81      0.62939012    0.0056199158
      5552.36      0.61213546    0.0056184964
      5557.91      0.59571818    0.0056081424
      5563.47      0.58052314    0.0056043907
      5569.04      0.56944862    0.0056015747
      5574.60      0.56225179    0.0056000097
      5580.18      0.54981582    0.0055986846
      5585.76      0.54153039    0.0055200486
      5591.35      0.53420700    0.0055856993
      5596.94      0.53187354    0.0055831340
      5602.53      0.52565717    0.0055812832
      5608.14      0.52629397    0.0055800769
      5613.75      0.52671826    0.0055046010
      5619.36      0.53469434    0.0055014738
      5624.98      0.54100009    0.0054987872
      5630.60      0.54587961    0.0055654227
      5636.23      0.55058600    0.0055639570
      5641.87      0.55261582    0.0055629395
      5647.51      0.55348725    0.0054896784
      5653.16      0.55324079    0.0054870158
      5658.82      0.55246635    0.0054846328
      5664.47      0.54698068    0.0054827512
      5670.14      0.54268705    0.0054813508
      5675.81      0.53982877    0.0054803235
      5681.48      0.53566108    0.0055480383
      5687.17      0.52972714    0.0054777261
      5692.85      0.51938491    0.0054755057
      5698.55      0.50931861    0.0054737274
      5704.25      0.50127018    0.0054720854
      5709.95      0.48910998    0.0054708854
      5715.66      0.47833977    0.0054700996
      5721.38      0.46802881    0.0054693725
      5727.10      0.46183779    0.0054689256
      5732.83      0.45693481    0.0054687804
      5738.56      0.45631783    0.0053966258
      5744.30      0.45560461    0.0053968208
      5750.04      0.45849396    0.0053971457
      5755.79      0.46242737    0.0053976251
      5761.55      0.46916430    0.0054662804
      5767.31      0.47676147    0.0054657440
      5773.08      0.48596014    0.0054655634
      5778.85      0.49629297    0.0054657096
      5784.63      0.51369577    0.0054657596
      5790.41      0.53097555    0.0054659107
      5796.21      0.55254056    0.0054663578
      5802.00      0.57693527    0.0054669949
      5807.81      0.60588306    0.0054674316
      5813.61      0.63537580    0.0053960321
      5819.43      0.66346701    0.0053974126
      5825.25      0.70030551    0.0053996046
      5831.07      0.74773262    0.0054030147
      5836.90      0.80912085    0.0054097920
      5842.74      0.86547390    0.0054202086
      5848.58      0.92869026    0.0054329755
      5854.43      0.99869640    0.0054450302
      5860.29       1.0751690    0.0054529513
      5866.15       1.1330655    0.0054549843
      5872.01       1.1615866    0.0054544919
      5877.89       1.1628721    0.0054546354
      5883.76       1.1398913    0.0054547297
      5889.65       1.0949259    0.0053895228
      5895.54       1.0240917    0.0053897554
      5901.43      0.94479930    0.0053919955
      5907.34      0.87921757    0.0053952289
      5913.24      0.82716585    0.0053977993
      5919.16      0.78479876    0.0053977157
      5925.08      0.75255187    0.0053947971
      5931.00      0.73078379    0.0053923584
      5936.93      0.72121610    0.0053919469
      5942.87      0.71880638    0.0053920068
      5948.81      0.71567999    0.0054573806
      5954.76      0.70939737    0.0054553799
      5960.72      0.70319085    0.0054534725
      5966.68      0.69108801    0.0054520841
      5972.64      0.67533166    0.0053871165
      5978.62      0.65773352    0.0053867791
      5984.60      0.64024810    0.0053877209
      5990.58      0.62476343    0.0053896167
      5996.57      0.60660694    0.0053922498
      6002.57      0.59111757    0.0053951667
      6008.57      0.56964737    0.0053984780
      6014.58      0.55716763    0.0054021387
      6020.60      0.54647657    0.0053391091
      6026.62      0.53748964    0.0053413780
      6032.65      0.53126986    0.0054122112
      6038.68      0.52947034    0.0054147755
      6044.72      0.52809317    0.0054182034
      6050.76      0.52497142    0.0054217584
      6056.81      0.52592632    0.0054256702
      6062.87      0.52561213    0.0053637491
      6068.93      0.53064212    0.0053660890
      6075.00      0.53978541    0.0053687619
      6081.08      0.55063103    0.0054404961
      6087.16      0.56216030    0.0054439393
      6093.25      0.57496259    0.0053853463
      6099.34      0.58029000    0.0053871026
      6105.44      0.58428219    0.0053892351
      6111.54      0.58179792    0.0053917717
      6117.66      0.57856724    0.0053949046
      6123.78      0.57522433    0.0054678085
      6129.90      0.57754553    0.0054086278
      6136.03      0.58568421    0.0054105272
      6142.17      0.59729255    0.0054127246
      6148.31      0.61266218    0.0054159534
      6154.46      0.62830164    0.0053597852
      6160.61      0.63939176    0.0054295446
      6166.77      0.63858829    0.0054312447
      6172.94      0.63521987    0.0054337938
      6179.11      0.62752496    0.0053770819
      6185.29      0.61773497    0.0053815493
      6191.48      0.60846255    0.0054503083
      6197.67      0.60835423    0.0054525371
      6203.87      0.61759959    0.0053965694
      6210.07      0.62963586    0.0054044947
      6216.28      0.64213116    0.0054781823
      6222.50      0.65314241    0.0054890882
      6228.72      0.66421111    0.0054565002
      6234.95      0.66530681    0.0054907764
      6241.19      0.66410703    0.0055940639
      6247.42      0.66569749    0.0055507768
      6253.67      0.67295657    0.0055545472
      6259.93      0.68817864    0.0055473233
      6266.19      0.70625825    0.0055997853
      6272.46      0.72730386    0.0055273383
      6278.73      0.75126513    0.0055176378
      6285.01      0.77895503    0.0055093110
      6291.29      0.80295979    0.0055029029
      6297.58      0.82772128    0.0054989100
      6303.88      0.85062585    0.0054979979
      6310.19      0.87336716    0.0054333190
      6316.50      0.89494641    0.0054986502
      6322.81      0.90961137    0.0055000798
      6329.14      0.92420080    0.0054375411
      6335.47      0.93227496    0.0055041721
      6341.80      0.94150383    0.0055069082
      6348.14      0.94589107    0.0054451244
      6354.49      0.94051000    0.0055126870
      6360.85      0.92987316    0.0055160444
      6367.21      0.92107334    0.0054548621
      6373.57      0.90617522    0.0055237117
      6379.95      0.89532245    0.0054658925
      6386.33      0.88633503    0.0054671405
      6392.72      0.88392618    0.0055376181
      6399.11      0.88386572    0.0054801195
      6405.51      0.87963914    0.0054839579
      6411.92      0.86818542    0.0054986013
      6418.32      0.85734775    0.0055044884
      6424.74      0.84487374    0.0055150549
      6431.17      0.82123554    0.0055352047
      6437.60      0.80082229    0.0055442497
      6444.04      0.77746026    0.0055593719
      6450.48      0.75630540    0.0055574725
      6456.94      0.73633148    0.0054948503
      6463.39      0.71748487    0.0055568952
      6469.85      0.70048421    0.0055575547
      6476.33      0.68754489    0.0055675853
      6482.80      0.67640605    0.0055669693
      6489.28      0.67108491    0.0055077450
      6495.77      0.67213853    0.0055688926
      6502.27      0.67637290    0.0055105177
      6508.77      0.68253709    0.0055787490
      6515.28      0.69053980    0.0055218147
      6521.80      0.69739694    0.0055882082
      6528.32      0.70336508    0.0055267198
      6534.85      0.70683211    0.0055270700
      6541.38      0.70668598    0.0055269212
      6547.92      0.70358358    0.0055265391
      6554.47      0.70102855    0.0055275904
      6561.03      0.69509680    0.0055289108
      6567.59      0.68662826    0.0055332651
      6574.16      0.67648287    0.0055359395
      6580.73      0.66447012    0.0055414204
      6587.31      0.65180666    0.0055441953
      6593.90      0.64187922    0.0055492615
      6600.50      0.63070194    0.0055519469
      6607.10      0.61738003    0.0055565061
      6613.70      0.61012862    0.0055592548
      6620.32      0.60183740    0.0055635426
      6626.94      0.60164401    0.0055666042
      6633.57      0.60742880    0.0055705308
      6640.20      0.62010373    0.0055130474
      6646.84      0.63635186    0.0055770109
      6653.49      0.65735825    0.0055188692
      6660.14      0.68267550    0.0055833526
      6666.80      0.70515647    0.0055243831
      6673.47      0.71764810    0.0055895510
      6680.14      0.71438611    0.0055295042
      6686.82      0.70393375    0.0055361654
      6693.51      0.68518147    0.0055346461
      6700.20      0.65781383    0.0055402820
      6706.90      0.62222362    0.0056040855
      6713.61      0.58653656    0.0055442941
      6720.32      0.55427876    0.0055507635
      6727.05      0.52672061    0.0055481967
      6733.77      0.50104912    0.0055533280
      6740.51      0.47595637    0.0055521636
      6747.25      0.45978744    0.0055560038
      6754.00      0.44905597    0.0055618589
      6760.75      0.44445177    0.0055589872
      6767.51      0.43891247    0.0055632831
      6774.28      0.43643907    0.0055056399
      6781.05      0.43184783    0.0055653525
      6787.84      0.42588981    0.0055735481
      6794.62      0.42193191    0.0055367847
      6801.42      0.41585435    0.0056167944
      6808.22      0.41201340    0.0055997071
      6815.03      0.40802952    0.0057344002
      6821.85      0.40508462    0.0060101277
      6828.67      0.40187163    0.0061621434
      6835.50      0.40023780    0.0063417138
      6842.33      0.39554870    0.0064621980
      6849.17      0.38849863    0.0063311318
      6856.02      0.38419871    0.0062079111
      6862.88      0.38083028    0.0061061959
      6869.74      0.37391864    0.0060168579
      6876.61      0.36800354    0.0058955422
      6883.49      0.36397918    0.0058130013
      6890.37      0.36239472    0.0057062253
      6897.27      0.35996699    0.0057315063
      6904.16      0.36173358    0.0057025786
      6911.07      0.36418758    0.0056151396
      6917.98      0.37349316    0.0056474108
      6924.89      0.38272175    0.0056140751
      6931.82      0.38881768    0.0055928151
      6938.75      0.39437311    0.0055279600
      6945.69      0.39714839    0.0055344171
      6952.64      0.40127185    0.0056000069
      6959.59      0.40545450    0.0055432720
      6966.55      0.40983555    0.0055430372
      6973.52      0.41564766    0.0055400256
      6980.49      0.42565651    0.0055925889
      6987.47      0.43599801    0.0055220900
      6994.46      0.44605461    0.0055109454
      7001.46      0.46049551    0.0055011313
      7008.46      0.47330296    0.0054936564
      7015.46      0.49812144    0.0054878480
      7022.48      0.53760307    0.0054750623
      7029.51      0.58663379    0.0054662015
      7036.53      0.64143978    0.0054583965
      7043.57      0.69417335    0.0054521018
      7050.62      0.73841665    0.0053889832
      7057.66      0.76556526    0.0053827502
      7064.72      0.76672136    0.0054313960
      7071.79      0.73504168    0.0054274942
      7078.86      0.68850187    0.0054251703
      7085.94      0.63337944    0.0053698259
      7093.03      0.57572435    0.0053755895
      7100.12      0.52382881    0.0053881775
      7107.22      0.47787650    0.0054136661
      7114.33      0.44754491    0.0055124802
      7121.44      0.42890686    0.0055983873
      7128.56      0.41409329    0.0057137957
      7135.69      0.39898725    0.0057544220
      7142.83      0.39227933    0.0058414913
      7149.97      0.38813973    0.0058713132
      7157.12      0.38846502    0.0058335251
      7164.28      0.39541043    0.0057459109
      7171.44      0.39619590    0.0056514972
      7178.62      0.39650294    0.0056015567
      7185.80      0.39645783    0.0055494886
      7192.98      0.39746912    0.0055842496
      7200.17      0.39849899    0.0056147096
      7207.38      0.40361368    0.0056740425
      7214.58      0.41441279    0.0056577296
      7221.80      0.42604589    0.0056362564
      7229.02      0.43939433    0.0056162190
      7236.25      0.44827538    0.0055928387
      7243.49      0.45833219    0.0055641446
      7250.73      0.46536878    0.0055322295
      7257.98      0.47189372    0.0054988855
      7265.24      0.47690261    0.0054602705
      7272.51      0.48017544    0.0053586008
      7279.78      0.47691213    0.0053026734
      7287.06      0.46750691    0.0052501845
      7294.35      0.45873071    0.0052058500
      7301.64      0.44497762    0.0051745005
      7308.94      0.43285685    0.0051528422
      7316.25      0.41700756    0.0051338394
      7323.57      0.39860996    0.0051151270
      7330.89      0.38334516    0.0050952361
      7338.22      0.36862969    0.0050744387
      7345.56      0.35493047    0.0053998666
      7352.91      0.34390774    0.0059165159
      7360.26      0.34013575    0.0073350178
      7367.62      0.33740165     0.010382083
