# starting wavelength =        3410.5500
# ending wavelength =        9071.9100
# O2 telluric scale =        0
# O2 telluric shift =        0
# H2O telluric scale =        0
# H2O telluric shift =        0
      3412.49      0.14662086     0.010094722
      3415.91      0.14503145    0.0097112449
      3419.32      0.14742050    0.0094828577
      3422.74      0.14725342    0.0092845451
      3426.17      0.14328119    0.0091694286
      3429.59      0.13915938    0.0089912046
      3433.02      0.14244850    0.0088269608
      3436.45      0.14634783    0.0086775561
      3439.89      0.14731970    0.0085827258
      3443.33      0.14681549    0.0084403293
      3446.78      0.14755346    0.0083027433
      3450.22      0.15567306    0.0081713953
      3453.67      0.15572353    0.0079242245
      3457.13      0.15449595    0.0079579827
      3460.58      0.15071862    0.0078476787
      3464.04      0.14965385    0.0077513973
      3467.51      0.15249122    0.0075380123
      3470.98      0.15547086    0.0075989550
      3474.45      0.15364883    0.0075185669
      3477.92      0.14710885    0.0074363041
      3481.40      0.15234032    0.0072183392
      3484.88      0.15822244    0.0071009717
      3488.37      0.16222077    0.0071243767
      3491.86      0.16444815    0.0069854788
      3495.35      0.16554800    0.0067607120
      3498.84      0.16954978    0.0066199054
      3502.34      0.17387670    0.0064950834
      3505.84      0.17711850    0.0065132369
      3509.35      0.17971760    0.0064039025
      3512.86      0.17539833    0.0062157088
      3516.37      0.17867808    0.0061117636
      3519.89      0.17720979    0.0060201410
      3523.41      0.17577011    0.0060522891
      3526.93      0.17764677    0.0058892039
      3530.46      0.17786196    0.0058095532
      3533.99      0.18048247    0.0057407190
      3537.53      0.18000690    0.0056807633
      3541.06      0.17970091    0.0057311556
      3544.60      0.17793640    0.0055865754
      3548.15      0.17658689    0.0055242733
      3551.70      0.17907864    0.0054590608
      3555.25      0.17872463    0.0053945795
      3558.80      0.17865392    0.0053271036
      3562.36      0.17516118    0.0052917920
      3565.92      0.16913410    0.0052228838
      3569.49      0.16520430    0.0051466903
      3573.06      0.15870425    0.0050685855
      3576.64      0.16153511    0.0049877570
      3580.21      0.16862910    0.0048352105
      3583.79      0.17073104    0.0048614937
      3587.38      0.17502476    0.0047843811
      3590.96      0.17567246    0.0047101528
      3594.55      0.17792640    0.0046331031
      3598.15      0.17863899    0.0044889517
      3601.75      0.18133736    0.0044083121
      3605.35      0.18504790    0.0044220369
      3608.96      0.18528989    0.0043353928
      3612.56      0.18351730    0.0042613119
      3616.18      0.18016064    0.0042004619
      3619.79      0.17972040    0.0040894740
      3623.41      0.18032972    0.0040471644
      3627.04      0.18227233    0.0040108880
      3630.66      0.18560933    0.0040464743
      3634.29      0.19156381    0.0039920761
      3637.93      0.19544031    0.0039344211
      3641.57      0.19934011    0.0038226306
      3645.21      0.20322494    0.0037674362
      3648.86      0.20862539    0.0037151457
      3652.50      0.21283092    0.0036716188
      3656.16      0.21463844    0.0036299533
      3659.81      0.21480682    0.0036519133
      3663.47      0.21008275    0.0035500636
      3667.14      0.20603832    0.0035019136
      3670.80      0.20428460    0.0034492655
      3674.48      0.20324739    0.0033958844
      3678.15      0.20497432    0.0033433194
      3681.83      0.20700087    0.0033000903
      3685.51      0.20593178    0.0032662835
      3689.20      0.20682718    0.0031812215
      3692.88      0.20916461    0.0032044618
      3696.58      0.21367246    0.0031773642
      3700.27      0.21121122    0.0031508486
      3703.98      0.20951300    0.0031200053
      3707.68      0.21954770    0.0030804273
      3711.39      0.22556534    0.0030482837
      3715.10      0.22519935    0.0030170604
      3718.81      0.22659312    0.0029357238
      3722.53      0.22623448    0.0028965909
      3726.26      0.22387715    0.0028591900
      3729.98      0.22227588    0.0028734339
      3733.71      0.22045680    0.0028280732
      3737.45      0.21815894    0.0027837611
      3741.18      0.21494709    0.0027455209
      3744.93      0.21219198    0.0027116272
      3748.67      0.20991636    0.0026816414
      3752.42      0.20790466    0.0026213331
      3756.17      0.20369825    0.0026039486
      3759.93      0.21049721    0.0025878135
      3763.69      0.22642535    0.0025689965
      3767.45      0.23707671    0.0025574521
      3771.22      0.24409872    0.0025484185
      3774.99      0.24850807    0.0025321930
      3778.77      0.24684207    0.0025111552
      3782.54      0.24647741    0.0025334029
      3786.33      0.24447705    0.0025024240
      3790.11      0.24571524    0.0024352485
      3793.90      0.24713522    0.0023988159
      3797.70      0.24651303    0.0023648322
      3801.50      0.24458523    0.0023331563
      3805.30      0.24278794    0.0023040108
      3809.10      0.23940573    0.0022770143
      3812.91      0.23607811    0.0022496644
      3816.73      0.23171605    0.0022198433
      3820.54      0.22533647    0.0021888454
      3824.36      0.22010693    0.0021568236
      3828.19      0.21586365    0.0021290240
      3832.02      0.21344160    0.0021060757
      3835.85      0.20981091    0.0020934003
      3839.68      0.20965465    0.0020817401
      3843.52      0.21312504    0.0020373359
      3847.37      0.22178758    0.0020241307
      3851.22      0.23186441    0.0020114998
      3855.07      0.24185951    0.0020016590
      3858.92      0.25183870    0.0019912957
      3862.78      0.25864835    0.0019821250
      3866.64      0.25991687    0.0019755329
      3870.51      0.25767370    0.0019712198
      3874.38      0.25392114    0.0019679541
      3878.26      0.25116301    0.0019652937
      3882.13      0.25118405    0.0019631756
      3886.02      0.25350586    0.0019615823
      3889.90      0.25800246    0.0019608599
      3893.79      0.26215912    0.0019674690
      3897.69      0.26692259    0.0020025849
      3901.59      0.27226287    0.0020846410
      3905.49      0.28170739    0.0021977754
      3909.39      0.29302988    0.0020192277
      3913.30      0.29767630    0.0020269104
      3917.22      0.30056144    0.0021115628
      3921.13      0.29874922    0.0022169468
      3925.06      0.29338871    0.0023181017
      3928.98      0.28949242    0.0024505888
      3932.91      0.28588802    0.0027111950
      3936.84      0.28168286    0.0030997215
      3940.78      0.27895007    0.0027634032
      3944.72      0.28300466    0.0028522567
      3948.67      0.29988145    0.0022426919
      3952.61      0.30561202    0.0022934661
      3956.57      0.31352455    0.0024757994
      3960.52      0.32507359    0.0030357439
      3964.48      0.33067962    0.0030615145
      3968.45      0.33470646    0.0032167070
      3972.42      0.33790191    0.0029759535
      3976.39      0.34533098    0.0027681817
      3980.37      0.35214569    0.0025502192
      3984.35      0.35790220    0.0023724934
      3988.33      0.36373431    0.0022897728
      3992.32      0.37258396    0.0024872651
      3996.31      0.38094447    0.0022028346
      4000.31      0.38944848    0.0020347627
      4004.31      0.39551878    0.0019239728
      4008.31      0.39849279    0.0018455291
      4012.32      0.39688321    0.0017783848
      4016.33      0.39703234    0.0017664101
      4020.35      0.39664105    0.0017551055
      4024.37      0.39613059    0.0017426142
      4028.40      0.39587142    0.0017311635
      4032.42      0.39624757    0.0017196741
      4036.46      0.39674533    0.0017092527
      4040.50      0.39505720    0.0017024268
      4044.54      0.39442495    0.0016969320
      4048.58      0.39448896    0.0016932835
      4052.63      0.39461591    0.0016909878
      4056.68      0.39594003    0.0016886924
      4060.74      0.39794815    0.0016857453
      4064.80      0.40161147    0.0016818051
      4068.86      0.40954105    0.0016545993
      4072.93      0.41004605    0.0016575935
      4077.01      0.41182720    0.0016838095
      4081.08      0.41004488    0.0016841375
      4085.17      0.40694342    0.0016813784
      4089.25      0.40627915    0.0016736368
      4093.34      0.40576617    0.0016635471
      4097.43      0.40461392    0.0016524389
      4101.53      0.40574959    0.0016407332
      4105.63      0.40817188    0.0016292629
      4109.74      0.40931620    0.0015953133
      4113.85      0.41161312    0.0015884739
      4117.96      0.41413850    0.0015844190
      4122.08      0.41842554    0.0015792814
      4126.20      0.42389116    0.0015714989
      4130.33      0.42814107    0.0015622714
      4134.46      0.42656651    0.0015772725
      4138.59      0.42580796    0.0015698700
      4142.73      0.42758216    0.0015407934
      4146.88      0.42805370    0.0015377251
      4151.02      0.42817717    0.0015359948
      4155.18      0.42780290    0.0015358588
      4159.33      0.42829394    0.0015358882
      4163.49      0.43140215    0.0015349775
      4167.65      0.43408191    0.0015347827
      4171.82      0.43657654    0.0015343107
      4175.99      0.43809572    0.0015336934
      4180.17      0.43798703    0.0015302776
      4184.35      0.43933770    0.0015255724
      4188.54      0.43959121    0.0015213906
      4192.72      0.44068865    0.0015180564
      4196.92      0.44582785    0.0015138114
      4201.11      0.44956773    0.0015115546
      4205.31      0.44996417    0.0014858273
      4209.52      0.44865561    0.0014795389
      4213.73      0.44629794    0.0014919878
      4217.94      0.44624478    0.0014842872
      4222.16      0.44883221    0.0014774184
      4226.38      0.45267426    0.0014738726
      4230.61      0.45490363    0.0014538003
      4234.84      0.45553216    0.0014552508
      4239.08      0.45815316    0.0014552228
      4243.32      0.46344328    0.0014800916
      4247.56      0.46717679    0.0014798078
      4251.81      0.46754030    0.0014561571
      4256.06      0.47191361    0.0014499793
      4260.32      0.47766579    0.0014426585
      4264.58      0.47674530    0.0014394598
      4268.84      0.47510355    0.0014355914
      4273.11      0.47463664    0.0014501098
      4277.38      0.47110813    0.0014216770
      4281.66      0.46221784    0.0014149122
      4285.94      0.45118051    0.0014053432
      4290.23      0.44153021    0.0013920819
      4294.52      0.43789905    0.0013771045
      4298.81      0.43642984    0.0013631738
      4303.11      0.43913460    0.0013585096
      4307.42      0.44567054    0.0013589660
      4311.72      0.44730666    0.0013685771
      4316.04      0.45458662    0.0013650751
      4320.35      0.46486537    0.0013982152
      4324.67      0.47476834    0.0014083563
      4329.00      0.48270297    0.0014161237
      4333.33      0.49099883    0.0014178801
      4337.66      0.50096150    0.0013921384
      4342.00      0.50808275    0.0013875065
      4346.34      0.50926004    0.0014071007
      4350.69      0.51321335    0.0014077375
      4355.04      0.52217706    0.0013886206
      4359.39      0.52750395    0.0013863156
      4363.75      0.52745990    0.0013843325
      4368.12      0.52660237    0.0014010920
      4372.48      0.52795912    0.0013707553
      4376.86      0.52527766    0.0013648464
      4381.23      0.52320185    0.0013601355
      4385.61      0.51953910    0.0013746250
      4390.00      0.51801988    0.0013558663
      4394.39      0.51859780    0.0013560931
      4398.79      0.52249862    0.0013581448
      4403.18      0.53148152    0.0013605355
      4407.59      0.54380268    0.0013676240
      4412.00      0.55291966    0.0013689108
      4416.41      0.56080325    0.0013683411
      4420.82      0.56958745    0.0013662891
      4425.25      0.57671965    0.0013690044
      4429.67      0.58098509    0.0013679118
      4434.10      0.58239504    0.0013668451
      4438.54      0.58292482    0.0013630861
      4442.97      0.57764327    0.0013599941
      4447.42      0.57479613    0.0013545663
      4451.86      0.57545336    0.0013495386
      4456.32      0.57500221    0.0013309929
      4460.77      0.57677777    0.0013497326
      4465.24      0.57839000    0.0013504665
      4469.70      0.57836430    0.0013529791
      4474.17      0.57868299    0.0013395062
      4478.65      0.58140946    0.0013632253
      4483.12      0.58805633    0.0013642762
      4487.61      0.59729304    0.0013454923
      4492.09      0.60642347    0.0013425026
      4496.59      0.61452326    0.0013568478
      4501.08      0.61467953    0.0013367736
      4505.58      0.61177888    0.0013346919
      4510.09      0.60852354    0.0013317116
      4514.60      0.60650395    0.0013217128
      4519.12      0.60557515    0.0013139618
      4523.63      0.60216483    0.0013082317
      4528.16      0.59772759    0.0013178284
      4532.69      0.59442757    0.0012964268
      4537.22      0.59277776    0.0012957748
      4541.76      0.59645453    0.0012963077
      4546.30      0.60537597    0.0012976020
      4550.85      0.61507182    0.0012991001
      4555.40      0.62259982    0.0013021622
      4559.95      0.63300259    0.0013030324
      4564.51      0.64150819    0.0013023711
      4569.08      0.64583304    0.0012852960
      4573.65      0.64733790    0.0013043470
      4578.22      0.64942246    0.0013039065
      4582.80      0.65282427    0.0012840370
      4587.38      0.65556281    0.0012991955
      4591.97      0.65740315    0.0012984104
      4596.56      0.66140563    0.0012812015
      4601.16      0.66787709    0.0012806185
      4605.76      0.67621721    0.0012996723
      4610.37      0.68605082    0.0012841863
      4614.98      0.69324158    0.0012847868
      4619.59      0.70024944    0.0013038773
      4624.21      0.70019411    0.0012860837
      4628.84      0.70208206    0.0012830895
      4633.47      0.70707364    0.0012771938
      4638.10      0.70914295    0.0012722963
      4642.74      0.70827665    0.0012690556
      4647.38      0.70729524    0.0012656078
      4652.03      0.70867303    0.0012618290
      4656.68      0.70826494    0.0012614374
      4661.34      0.70835371    0.0012597727
      4666.00      0.70948804    0.0012588548
      4670.67      0.71136300    0.0012605707
      4675.33      0.71048744    0.0012595152
      4680.01      0.70824978    0.0012586455
      4684.69      0.70130214    0.0012585893
      4689.38      0.69565943    0.0012570050
      4694.07      0.69383557    0.0012394031
      4698.76      0.69454649    0.0012541145
      4703.46      0.69706352    0.0012373690
      4708.16      0.69833160    0.0012549800
      4712.87      0.70119547    0.0012563931
      4717.58      0.70863814    0.0012423663
      4722.30      0.71694050    0.0012609209
      4727.03      0.72617309    0.0012458894
      4731.75      0.73501531    0.0012466286
      4736.48      0.74256780    0.0012621977
      4741.22      0.74362605    0.0012449395
      4745.96      0.74325436    0.0012576337
      4750.71      0.74372972    0.0012369613
      4755.46      0.74219171    0.0012339698
      4760.22      0.73848153    0.0012302037
      4764.97      0.73722578    0.0012260660
      4769.74      0.73363480    0.0012205132
      4774.51      0.72983541    0.0012179449
      4779.29      0.72501456    0.0012324889
      4784.07      0.72097783    0.0012163629
      4788.85      0.72020572    0.0012158975
      4793.64      0.72144285    0.0012140785
      4798.43      0.72151762    0.0012129896
      4803.23      0.72191958    0.0012103698
      4808.03      0.71882093    0.0012090377
      4812.84      0.71501054    0.0011912160
      4817.66      0.71538968    0.0012031993
      4822.48      0.71740905    0.0011826031
      4827.30      0.70886527    0.0011955413
      4832.12      0.70457586    0.0011767999
      4836.96      0.70380964    0.0011881588
      4841.79      0.70290297    0.0011708119
      4846.63      0.70120207    0.0011825908
      4851.48      0.70161059    0.0011650625
      4856.33      0.70080241    0.0011635030
      4861.19      0.69890001    0.0011642492
      4866.05      0.69963322    0.0011626468
      4870.92      0.70137644    0.0011642514
      4875.79      0.70471590    0.0011642931
      4880.66      0.70843006    0.0011688058
      4885.55      0.71236975    0.0011706450
      4890.43      0.71274464    0.0011773109
      4895.32      0.71162220    0.0011790124
      4900.22      0.70785804    0.0011852863
      4905.12      0.71758039    0.0011862958
      4910.02      0.72978696    0.0011905295
      4914.94      0.73927993    0.0011927189
      4919.85      0.75359365    0.0011971436
      4924.77      0.76640669    0.0011975127
      4929.70      0.77728233    0.0012032432
      4934.62      0.78336973    0.0012061817
      4939.56      0.79192064    0.0012408095
      4944.50      0.79704468    0.0012147003
      4949.44      0.79851666    0.0012094259
      4954.39      0.79280176    0.0012173520
      4959.35      0.78025164    0.0012290255
      4964.31      0.76418336    0.0012217260
      4969.27      0.74589722    0.0012471726
      4974.24      0.73479590    0.0012294543
      4979.22      0.72840620    0.0012381549
      4984.20      0.72034325    0.0012124418
      4989.18      0.71222346    0.0012109665
      4994.17      0.70969483    0.0011810805
      4999.16      0.71328798    0.0011761356
      5004.16      0.72432441    0.0011536439
      5009.17      0.73729942    0.0011575406
      5014.18      0.75134859    0.0011720907
      5019.19      0.76556157    0.0011605180
      5024.21      0.77826277    0.0011633023
      5029.23      0.79060983    0.0011682183
      5034.26      0.80305830    0.0011717321
      5039.30      0.81532128    0.0011755930
      5044.34      0.82341093    0.0011789096
      5049.39      0.82634385    0.0011801179
      5054.43      0.82601334    0.0011791900
      5059.49      0.81958426    0.0011784797
      5064.55      0.81001086    0.0011763337
      5069.61      0.80522865    0.0011584763
      5074.68      0.79994230    0.0011692652
      5079.76      0.79276916    0.0011514271
      5084.84      0.78568171    0.0011623860
      5089.92      0.77989169    0.0011581928
      5095.01      0.77180205    0.0011428040
      5100.11      0.76412711    0.0011544130
      5105.21      0.75836989    0.0011365259
      5110.31      0.75241163    0.0011321201
      5115.42      0.74403903    0.0011284851
      5120.54      0.73332508    0.0011248773
      5125.66      0.72494826    0.0011347414
      5130.79      0.72305074    0.0011172278
      5135.92      0.71605559    0.0011174856
      5141.05      0.70691152    0.0011157469
      5146.20      0.69739726    0.0011116102
      5151.34      0.68518971    0.0011084967
      5156.49      0.67735371    0.0011039563
      5161.65      0.67234219    0.0010983657
      5166.81      0.67545730    0.0010806912
      5171.98      0.67844546    0.0010913543
      5177.15      0.68290420    0.0010957534
      5182.33      0.69181982    0.0010885653
      5187.51      0.70318736    0.0011076670
      5192.70      0.71704755    0.0011214680
      5197.89      0.72793220    0.0011190766
      5203.09      0.74419484    0.0011411446
      5208.29      0.75845116    0.0011334975
      5213.50      0.76737385    0.0011417971
      5218.72      0.77220760    0.0011628676
      5223.93      0.78163172    0.0011533976
      5229.16      0.78807569    0.0011593852
      5234.39      0.78801941    0.0011792009
      5239.62      0.78343264    0.0011691019
      5244.86      0.78128783    0.0011690908
      5250.11      0.77861810    0.0011805874
      5255.36      0.77571470    0.0011644233
      5260.61      0.77858429    0.0011615313
      5265.87      0.78103289    0.0011616744
      5271.14      0.78163179    0.0011636296
      5276.41      0.78294966    0.0011702912
      5281.69      0.78923921    0.0011642922
      5286.97      0.80140801    0.0011846220
      5292.26      0.81491536    0.0011944931
      5297.55      0.82560034    0.0012040307
      5302.85      0.83628708    0.0012064112
      5308.15      0.84530532    0.0012077366
      5313.46      0.84310804    0.0012106407
      5318.77      0.83969509    0.0011988931
      5324.09      0.84010553    0.0012147274
      5329.42      0.84511261    0.0012165452
      5334.75      0.85025326    0.0012053066
      5340.08      0.85358822    0.0012100069
      5345.42      0.85343090    0.0012351278
      5350.77      0.85732853    0.0012323591
      5356.12      0.86444862    0.0012390416
      5361.48      0.87003737    0.0012502478
      5366.83      0.87362396    0.0012788542
      5372.20      0.86939557    0.0012933885
      5377.58      0.86230252    0.0013404493
      5382.95      0.85791162    0.0013953428
      5388.34      0.85420343    0.0014334733
      5393.72      0.84880905    0.0014940286
      5399.12      0.84471235    0.0015476722
      5404.52      0.84900640    0.0015942628
      5409.92      0.85546179    0.0016066473
      5415.33      0.86155044    0.0015984098
      5420.75      0.86900634    0.0015825699
      5426.17      0.88168731    0.0015992734
      5431.60      0.89509621    0.0016288356
      5437.03      0.90787522    0.0016922073
      5442.47      0.91855086    0.0017796710
      5447.91      0.92252604    0.0018907810
      5453.36      0.92349005    0.0019549261
      5458.81      0.92446904    0.0020528912
      5464.27      0.92924867    0.0021369593
      5469.73      0.93390539    0.0021406311
      5475.20      0.93642962    0.0020773791
      5480.68      0.93605783    0.0020048358
      5486.16      0.93798864    0.0019255360
      5491.65      0.94340768    0.0018859357
      5497.14      0.94652480    0.0018014180
      5502.64      0.95030753    0.0017299753
      5508.14      0.95666835    0.0016697543
      5513.65      0.96589686    0.0016222199
      5519.16      0.97775955    0.0015709166
      5524.68      0.98764133    0.0015383706
      5530.20      0.99438273    0.0014976731
      5535.73       1.0007324    0.0014595587
      5541.27       1.0057045    0.0014221889
      5546.81       1.0110389    0.0013843946
      5552.36       1.0117779    0.0013383073
      5557.91       1.0091234    0.0013243848
      5563.47       1.0027253    0.0012904216
      5569.04      0.99300001    0.0012582695
      5574.60      0.98624137    0.0012271325
      5580.18      0.98231828    0.0011894960
      5585.76      0.97697167    0.0011655801
      5591.35      0.97323322    0.0011451505
      5596.94      0.97143087    0.0011409021
      5602.53      0.97084259    0.0011229750
      5608.14      0.96984049    0.0011077470
      5613.75      0.96983289    0.0010841435
      5619.36      0.97146403    0.0010721528
      5624.98      0.97195880    0.0010612610
      5630.60      0.97255324    0.0010505405
      5636.23      0.97052562    0.0010406878
      5641.87      0.96865417    0.0010310040
      5647.51      0.96669340    0.0010240518
      5653.16      0.96336581    0.0010170837
      5658.82      0.96374331    0.0010097244
      5664.47      0.96604366    0.0010021467
      5670.14      0.96556380   0.00099642601
      5675.81      0.96341257   0.00099185520
      5681.48      0.96051563   0.00098675879
      5687.17      0.95964018   0.00097095950
      5692.85      0.96183956   0.00096530547
      5698.55      0.96517307   0.00096005551
      5704.25      0.96888239   0.00095518309
      5709.95      0.97190224   0.00095143257
      5715.66      0.97479962   0.00095894459
      5721.38      0.97734984   0.00096815748
      5727.10      0.98022502    0.0010028508
      5732.83      0.98239564    0.0010598430
      5738.56      0.98323780    0.0011387879
      5744.30      0.98481609    0.0012509027
      5750.04      0.98434262    0.0015361796
      5755.79      0.97667663    0.0019103329
      5761.55      0.97395660    0.0015254997
      5767.31      0.96458852    0.0016646049
      5773.08      0.95793644    0.0018519199
      5778.85      0.95476404    0.0020270018
      5784.63      0.94250603    0.0021034611
      5790.41      0.93527459    0.0019629456
      5796.21      0.93176488    0.0017583868
      5802.00      0.92617327    0.0015737285
      5807.81      0.92179660    0.0014398155
      5813.61      0.91532282    0.0017740836
      5819.43      0.91190240    0.0014326651
      5825.25      0.90406460    0.0011648229
      5831.07      0.89531416    0.0010570483
      5836.90      0.89035628   0.00099865590
      5842.74      0.88634596   0.00098639179
      5848.58      0.88328883    0.0010097692
      5854.43      0.88014126    0.0010899023
      5860.29      0.87779484    0.0012792182
      5866.15      0.87890311    0.0015270647
      5872.01      0.88352839    0.0012993539
      5877.89      0.89040665    0.0013786391
      5883.76      0.90243029    0.0015389678
      5889.65      0.92400757    0.0017257626
      5895.54      0.96050580    0.0018717545
      5901.43      0.99701130    0.0020166762
      5907.34       1.0152213    0.0018599651
      5913.24       1.0202639    0.0016688410
      5919.16       1.0208418    0.0015143804
      5925.08       1.0358993    0.0021670022
      5931.00       1.0226424    0.0015222049
      5936.93       1.0140008    0.0012785400
      5942.87       1.0089488    0.0010896605
      5948.81       1.0063128    0.0010106854
      5954.76       1.0074034   0.00094590478
      5960.72       1.0113164   0.00090773651
      5966.68       1.0175982   0.00088598389
      5972.64       1.0244844   0.00088570398
      5978.62       1.0303504   0.00087669734
      5984.60       1.0327639   0.00087587980
      5990.58       1.0329328   0.00087438825
      5996.57       1.0320465   0.00087202228
      6002.57       1.0295750   0.00086921568
      6008.57       1.0261177   0.00086653884
      6014.58       1.0208306   0.00086372882
      6020.60       1.0154389   0.00086108692
      6026.62       1.0095365   0.00085889433
      6032.65       1.0043308   0.00085679318
      6038.68       1.0018843   0.00085484742
      6044.72       1.0042599   0.00084368750
      6050.76       1.0067286   0.00084138707
      6056.81       1.0101580   0.00083879326
      6062.87       1.0124269   0.00083623040
      6068.93       1.0129778   0.00083429706
      6075.00       1.0133215   0.00084074942
      6081.08       1.0148891   0.00083816523
      6087.16       1.0168716   0.00083620086
      6093.25       1.0201202   0.00083506151
      6099.34       1.0218568   0.00082624694
      6105.44       1.0237850   0.00082517201
      6111.54       1.0268555   0.00082493650
      6117.66       1.0349099   0.00082380345
      6123.78       1.0393685   0.00082400143
      6129.90       1.0389064   0.00082355080
      6136.03       1.0370440   0.00082445002
      6142.17       1.0330483   0.00081155945
      6148.31       1.0291337   0.00081636135
      6154.46       1.0227993   0.00081537380
      6160.61       1.0151188   0.00081528028
      6166.77       1.0089254   0.00081470435
      6172.94       1.0031403   0.00081184952
      6179.11      0.99635200   0.00080087924
      6185.29      0.99060128   0.00079749260
      6191.48      0.98536839   0.00079345726
      6197.67      0.98395788   0.00079512121
      6203.87      0.98584033   0.00078783506
      6210.07      0.99056463   0.00078055565
      6216.28      0.99342965   0.00076837538
      6222.50      0.99583150   0.00076696987
      6228.72       1.0042198   0.00076794023
      6234.95       1.0159167   0.00076652277
      6241.19       1.0297898   0.00077239202
      6247.42       1.0429103   0.00076554183
      6253.67       1.0545319   0.00076600700
      6259.93       1.0657204   0.00076598174
      6266.19       1.0760971   0.00076463168
      6272.46       1.0842036   0.00076362573
      6278.73       1.0882376   0.00076243360
      6285.01       1.0895775   0.00076151588
      6291.29       1.0895919   0.00076063393
      6297.58       1.0877461   0.00075913028
      6303.88       1.0842159   0.00074978582
      6310.19       1.0817745   0.00074805878
      6316.50       1.0768867   0.00075456327
      6322.81       1.0709643   0.00075423250
      6329.14       1.0625760   0.00074767534
      6335.47       1.0565646   0.00074641457
      6341.80       1.0503175   0.00074570668
      6348.14       1.0447687   0.00075325376
      6354.49       1.0424213   0.00074713437
      6360.85       1.0408549   0.00074782332
      6367.21       1.0398168   0.00074811425
      6373.57       1.0382713   0.00074903585
      6379.95       1.0366045   0.00075119655
      6386.33       1.0386473   0.00075138367
      6392.72       1.0417750   0.00075208683
      6399.11       1.0461479   0.00074511397
      6405.51       1.0523785   0.00075198949
      6411.92       1.0557878   0.00075160704
      6418.32       1.0577885   0.00075249885
      6424.74       1.0630220   0.00074749517
      6431.17       1.0718608   0.00075565457
      6437.60       1.0829289   0.00075529657
      6444.04       1.0968819   0.00074794977
      6450.48       1.1059278   0.00074785397
      6456.94       1.1104523   0.00075540561
      6463.39       1.1083829   0.00074726482
      6469.85       1.1066480   0.00074555563
      6476.33       1.1041423   0.00074402606
      6482.80       1.1019326   0.00074196850
      6489.28       1.0986046   0.00093460360
      6495.77       1.0951763   0.00093101666
      6502.27       1.1036796   0.00091708916
      6508.77       1.1230103   0.00093597982
      6515.28       1.1544885   0.00094344402
      6521.80       1.1904275   0.00094335073
      6528.32       1.2468686   0.00096519308
      6534.85       1.2909488   0.00098860645
      6541.38       1.3590297    0.0010103630
      6547.92       1.4816746    0.0010682125
      6554.47       1.6043859    0.0011296779
      6561.03       1.7263955    0.0012015669
      6567.59       1.8553683    0.0012885745
      6574.16       1.9009176    0.0013197756
      6580.73       1.8462192    0.0012803807
      6587.31       1.7381067    0.0012391925
      6593.90       1.5818437    0.0011242123
      6600.50       1.4309945    0.0010679208
      6607.10       1.3440259    0.0010120348
      6613.70       1.2616186   0.00094678632
      6620.32       1.1987090   0.00092655449
      6626.94       1.1786295   0.00091666853
      6633.57       1.1530288   0.00089078321
      6640.20       1.1302902   0.00088109799
      6646.84       1.1134601   0.00069724465
      6653.49       1.0996878   0.00069114961
      6660.14       1.0877382   0.00067778601
      6666.80       1.0739742   0.00067927409
      6673.47       1.0616332   0.00067568512
      6680.14       1.0529925   0.00066746302
      6686.82       1.0445747   0.00067371672
      6693.51       1.0368413   0.00066620578
      6700.20       1.0305626   0.00066942740
      6706.90       1.0256329   0.00066556590
      6713.61       1.0202873   0.00066903412
      6720.32       1.0148430   0.00067487992
      6727.05       1.0093238   0.00067952642
      6733.77       1.0065441   0.00069093216
      6740.51       1.0043874   0.00068795078
      6747.25       1.0032093   0.00068909225
      6754.00       1.0012360   0.00068807248
      6760.75      0.99757895   0.00068400258
      6767.51      0.99230625   0.00067663221
      6774.28      0.98964065   0.00066871471
      6781.05      0.98984705   0.00065502212
      6787.84      0.98939706   0.00065837701
      6794.62      0.99249614   0.00064845754
      6801.42      0.99516986   0.00064697253
      6808.22      0.99698876   0.00063776563
      6815.03      0.99738577   0.00064125378
      6821.85      0.99709343   0.00063312672
      6828.67      0.99718865   0.00063650424
      6835.50      0.99719509   0.00062864114
      6842.33      0.99627750   0.00062652001
      6849.17      0.99455596   0.00062434642
      6856.02      0.99409980   0.00062208374
      6862.88      0.99267912   0.00062077981
      6869.74      0.99266545   0.00061944372
      6876.61      0.99313452   0.00061802240
      6883.49      0.99337045   0.00061702893
      6890.37      0.99476907   0.00061709020
      6897.27      0.99652664   0.00061685555
      6904.16      0.99783290   0.00061706293
      6911.07      0.99822526   0.00061157961
      6917.98      0.99929644   0.00061711147
      6924.89       1.0010187   0.00061171691
      6931.82       1.0036234   0.00061739482
      6938.75       1.0038623   0.00061233724
      6945.69       1.0054418   0.00061808435
      6952.64       1.0096507   0.00061338771
      6959.59       1.0157019   0.00061960385
      6966.55       1.0226404   0.00061534660
      6973.52       1.0309886   0.00061709612
      6980.49       1.0384669   0.00061856041
      6987.47       1.0452027   0.00062068967
      6994.46       1.0523124   0.00062241122
      7001.46       1.0618839   0.00062412173
      7008.46       1.0740734   0.00062032221
      7015.46       1.0839731   0.00062823488
      7022.48       1.0939699   0.00062518598
      7029.51       1.1050041   0.00063299909
      7036.53       1.1170737   0.00063588377
      7043.57       1.1251360   0.00063337145
      7050.62       1.1316793   0.00064245570
      7057.66       1.1350297   0.00063693061
      7064.72       1.1359820   0.00064207455
      7071.79       1.1337185   0.00063574920
      7078.86       1.1281568   0.00063720078
      7085.94       1.1192426   0.00064609301
      7093.03       1.1090109   0.00064117458
      7100.12       1.0973752   0.00064256159
      7107.22       1.0905985   0.00064351427
      7114.33       1.0854754   0.00064563169
      7121.44       1.0790294   0.00064841677
      7128.56       1.0767607   0.00064802589
      7135.69       1.0808817   0.00064721168
      7142.83       1.0863666   0.00064160989
      7149.97       1.0903469   0.00064897579
      7157.12       1.0941933   0.00065145120
      7164.28       1.0979824   0.00064738467
      7171.44       1.1022820   0.00065253725
      7178.62       1.1070153   0.00064835167
      7185.80       1.1135184   0.00064856118
      7192.98       1.1189218   0.00065803671
      7200.17       1.1255735   0.00065334071
      7207.38       1.1301722   0.00065417974
      7214.58       1.1333883   0.00065963263
      7221.80       1.1358148   0.00065443999
      7229.02       1.1379164   0.00065526931
      7236.25       1.1418483   0.00065633001
      7243.49       1.1456996   0.00065578354
      7250.73       1.1478611   0.00065585639
      7257.98       1.1500062   0.00065732297
      7265.24       1.1556939   0.00065634298
      7272.51       1.1645349   0.00065783008
      7279.78       1.1786589   0.00066085561
      7287.06       1.1961439   0.00065893653
      7294.35       1.2144735   0.00066561132
      7301.64       1.2338878   0.00066944884
      7308.94       1.2472288   0.00066816622
      7316.25       1.2555576   0.00067285438
      7323.57       1.2580209   0.00068159929
      7330.89       1.2576467   0.00067665521
      7338.22       1.2553995   0.00067605538
      7345.56       1.2485564   0.00067639880
      7352.91       1.2394656   0.00068256096
      7360.26       1.2315112   0.00067697660
      7367.62       1.2225487   0.00067767717
      7374.99       1.2156506   0.00067964431
      7382.37       1.2134768   0.00067441371
      7389.75       1.2151518   0.00068113040
      7397.14       1.2190966   0.00068751090
      7404.53       1.2243910   0.00069656433
      7411.94       1.2309328   0.00069191389
      7419.35       1.2366797   0.00069026135
      7426.77       1.2411077   0.00071243701
      7434.20       1.2455947   0.00074447675
      7441.63       1.2522308   0.00077221997
      7449.07       1.2589123   0.00081506804
      7456.52       1.2621237   0.00086236835
      7463.98       1.2670295   0.00090406361
      7471.45       1.2702782   0.00092624917
      7478.92       1.2698668   0.00093762197
      7486.40       1.2708392   0.00092636963
      7493.88       1.2744022   0.00089450255
      7501.38       1.2781442   0.00085373577
      7508.88       1.2811368   0.00081688391
      7516.39       1.2821127   0.00080660914
      7523.91       1.2812560   0.00077555295
      7531.43       1.2798728   0.00074905381
      7538.96       1.2763094   0.00073908262
      7546.50       1.2697908   0.00073235960
      7554.05       1.2618193   0.00072655307
      7561.60       1.2510263   0.00072245046
      7569.16       1.2361985   0.00072093143
      7576.73       1.2219649   0.00072544949
      7584.31       1.2055667   0.00072338851
      7591.89       1.1910465   0.00071667170
      7599.49       1.1821503   0.00071263082
      7607.09       1.1766323   0.00070991279
      7614.70       1.1689989   0.00070978671
      7622.31       1.1603186   0.00071056971
      7629.93       1.1553524   0.00071111355
      7637.56       1.1550890   0.00070424481
      7645.20       1.1575329   0.00070557179
      7652.85       1.1618800   0.00070662063
      7660.50       1.1674902   0.00071513459
      7668.16       1.1753402   0.00071771540
      7675.83       1.1848746   0.00072041000
      7683.50       1.1975180   0.00072509108
      7691.19       1.2131195   0.00072962959
      7698.88       1.2273314   0.00072815116
      7706.58       1.2398064   0.00073767699
      7714.29       1.2512066   0.00073843366
      7722.00       1.2561167   0.00073876519
      7729.73       1.2515615   0.00073992568
      7737.45       1.2457827   0.00074079785
      7745.19       1.2426577   0.00073865753
      7752.94       1.2369324   0.00073981033
      7760.69       1.2277188   0.00074057583
      7768.45       1.2187236   0.00074016630
      7776.22       1.2121072   0.00073790473
      7784.00       1.2059124   0.00073356681
      7791.78       1.2017904   0.00073171437
      7799.57       1.1996414   0.00073128522
      7807.37       1.1970170   0.00073055198
      7815.18       1.1919553   0.00073180866
      7822.99       1.1843073   0.00073482199
      7830.82       1.1744687   0.00073403996
      7838.65       1.1640580   0.00073244782
      7846.49       1.1543856   0.00073132876
      7854.34       1.1485072   0.00072881275
      7862.19       1.1436191   0.00072559718
      7870.05       1.1375205   0.00072344536
      7877.93       1.1331703   0.00072240249
      7885.80       1.1318724   0.00071828353
      7893.69       1.1306903   0.00071524966
      7901.58       1.1272099   0.00071362228
      7909.49       1.1244713   0.00070976906
      7917.40       1.1251498   0.00070733345
      7925.31       1.1306459   0.00070210722
      7933.24       1.1379895   0.00070344712
      7941.17       1.1457301   0.00070413461
      7949.11       1.1531228   0.00070573880
      7957.06       1.1620762   0.00070901485
      7965.02       1.1731154   0.00071310866
      7972.98       1.1833367   0.00071726430
      7980.96       1.1922374   0.00071968267
      7988.94       1.2011229   0.00072239843
      7996.93       1.2088930   0.00072540010
      8004.93       1.2151683   0.00072778357
      8012.93       1.2198656   0.00072431167
      8020.95       1.2220598   0.00072544929
      8028.97       1.2236843   0.00072676298
      8036.99       1.2256329   0.00072825747
      8045.03       1.2268258   0.00072938320
      8053.08       1.2247288   0.00073003291
      8061.13       1.2212597   0.00073724488
      8069.20       1.2150311   0.00073848794
      8077.26       1.2079245   0.00073227835
      8085.34       1.2008569   0.00073192860
      8093.43       1.1929109   0.00073452894
      8101.52       1.1850791   0.00073973049
      8109.62       1.1772305   0.00074762291
      8117.73       1.1702204   0.00075667735
      8125.85       1.1677499   0.00076379141
      8133.98       1.1633028   0.00076845408
      8142.11       1.1568880   0.00076948850
      8150.25       1.1539949   0.00077751773
      8158.41       1.1513550   0.00077991157
      8166.56       1.1494270   0.00078253360
      8174.73       1.1528738   0.00078083701
      8182.91       1.1579173   0.00078530798
      8191.09       1.1627307   0.00078954426
      8199.28       1.1697872   0.00079318758
      8207.48       1.1752595   0.00080480792
      8215.69       1.1827929   0.00079890979
      8223.91       1.1867456   0.00079833063
      8232.13       1.1901150   0.00080102689
      8240.36       1.1959893   0.00080609408
      8248.60       1.2010851   0.00080991765
      8256.85       1.1979259   0.00081246891
      8265.11       1.1952712   0.00081792893
      8273.37       1.1970561   0.00081891381
      8281.65       1.1987049   0.00081305478
      8289.93       1.2004079   0.00081211199
      8298.22       1.2057741   0.00081093925
      8306.52       1.2108602   0.00081898097
      8314.83       1.2189237   0.00081067369
      8323.14       1.2307343   0.00081091735
      8331.46       1.2423668   0.00081177164
      8339.80       1.2541118   0.00081193109
      8348.13       1.2592653   0.00080962421
      8356.48       1.2648749   0.00081052917
      8364.84       1.2673680   0.00081064784
      8373.21       1.2639642   0.00080510569
      8381.58       1.2549537   0.00080748094
      8389.96       1.2422501   0.00080651526
      8398.35       1.2294574   0.00080712850
      8406.75       1.2177440   0.00080186176
      8415.16       1.2037500   0.00080685253
      8423.57       1.1936561   0.00080790977
      8432.00       1.1941305   0.00080659298
      8440.43       1.1997934   0.00081257263
      8448.87       1.2090271   0.00082737568
      8457.32       1.2222916   0.00083054739
      8465.78       1.2395181   0.00083932290
      8474.25       1.2625476   0.00084885800
      8482.72       1.2918612   0.00085984958
      8491.20       1.3080717   0.00086813529
      8499.69       1.3284668   0.00086738700
      8508.19       1.3561044   0.00087745031
      8516.70       1.3856650   0.00088099016
      8525.22       1.4214448   0.00088034642
      8533.75       1.4501588   0.00088741890
      8542.28       1.4710167   0.00089961700
      8550.82       1.4804022   0.00089925548
      8559.37       1.4831106   0.00090617960
      8567.93       1.4710420   0.00091908719
      8576.50       1.4503909   0.00093139929
      8585.08       1.4321281   0.00094377894
      8593.66       1.4163395   0.00096138733
      8602.26       1.4003393   0.00096936782
      8610.86       1.3694389   0.00096622125
      8619.47       1.3349881   0.00098029521
      8628.09       1.3374812   0.00098038594
      8636.72       1.3631591   0.00099499924
      8645.36       1.4033544    0.0010015029
      8654.00       1.4518090    0.0010089962
      8662.66       1.5030413    0.0010333879
      8671.32       1.5472668    0.0010402132
      8679.99       1.5782768    0.0010513196
      8688.67       1.5986917    0.0010600659
      8697.36       1.6056241    0.0010599128
      8706.06       1.6029635    0.0010607060
      8714.76       1.5928823    0.0010617206
      8723.48       1.5712153    0.0010634584
      8732.21       1.5340225    0.0010751901
      8740.93       1.4913491    0.0010725559
      8749.68       1.4520020    0.0010733081
      8758.43       1.4242094    0.0010741399
      8767.19       1.4053517    0.0010686001
      8775.96       1.3944575    0.0010737839
      8784.73       1.3931636    0.0010693015
      8793.52       1.3983911    0.0010754921
      8802.31       1.4113797    0.0010715004
      8811.11       1.4219089    0.0010774374
      8819.92       1.4254433    0.0010846599
      8828.75       1.4257414    0.0010818191
      8837.57       1.4204375    0.0010804372
      8846.41       1.4100610    0.0010802179
      8855.26       1.3969141    0.0010797119
      8864.12       1.3808529    0.0010661092
      8872.98       1.3627694    0.0010642016
      8881.85       1.3450431    0.0010531467
      8890.73       1.3252076    0.0010611083
      8899.63       1.3094107    0.0010573961
      8908.52       1.2988649    0.0010590733
      8917.43       1.2965850    0.0010616932
      8926.35       1.3026654    0.0010643440
      8935.28       1.3122277    0.0010680324
      8944.22       1.3228776    0.0010745053
      8953.16       1.3330692    0.0010801510
      8962.11       1.3429947    0.0010879826
      8971.08       1.3508154    0.0010985090
      8980.05       1.3577381    0.0011082582
      8989.03       1.3651727    0.0011199760
      8998.02       1.3758276    0.0011216985
      9007.02       1.3922542    0.0024023541
      9016.02       1.4067293    0.0024627900
      9025.04       1.4179915    0.0026010584
      9034.07       1.4311221    0.0027003493
      9043.10       1.4445379    0.0023472182
      9052.14       1.4600887    0.0019158064
      9061.20       1.4811217    0.0013589587
      9070.26       1.5040953   0.00091273037
