# starting wavelength =        3247.6800
# ending wavelength =        9067.9900
# O2 telluric scale =        0
# O2 telluric shift =        0
# H2O telluric scale =        0
# H2O telluric shift =        0
      3249.39      0.12132011    0.0059397252
      3252.64      0.12400582    0.0058325474
      3255.89      0.12455103    0.0056409321
      3259.14      0.12535307    0.0054472304
      3262.40      0.12746152    0.0053530614
      3265.67      0.13044203    0.0051847745
      3268.93      0.13189010    0.0051020889
      3272.20      0.13251731    0.0049553946
      3275.47      0.13445588    0.0048232830
      3278.75      0.13714411    0.0047663978
      3282.03      0.13897165    0.0046269941
      3285.31      0.14114123    0.0045784472
      3288.60      0.14358232    0.0044618266
      3291.88      0.14417271    0.0043419648
      3295.18      0.14565129    0.0043040449
      3298.47      0.14843868    0.0042065131
      3301.77      0.15018440    0.0041734777
      3305.07      0.15127886    0.0040658241
      3308.38      0.15247003    0.0039770081
      3311.69      0.15354437    0.0039518506
      3315.00      0.15251361    0.0038747745
      3318.31      0.15150229    0.0037800881
      3321.63      0.15181971    0.0037599998
      3324.95      0.15158397    0.0036856624
      3328.28      0.15143934    0.0036619850
      3331.61      0.15005798    0.0035835874
      3334.94      0.14911330    0.0034890857
      3338.27      0.14914351    0.0034620150
      3341.61      0.14875125    0.0033775995
      3344.95      0.14747663    0.0032954315
      3348.30      0.14642311    0.0032543726
      3351.65      0.14458084    0.0031734696
      3355.00      0.14362861    0.0031430331
      3358.35      0.14384930    0.0030674636
      3361.71      0.14577174    0.0029856836
      3365.07      0.14576844    0.0029594477
      3368.44      0.14650399    0.0028949439
      3371.81      0.14794166    0.0028350423
      3375.18      0.14814211    0.0028184518
      3378.56      0.14711455    0.0027521815
      3381.94      0.14851027    0.0027043249
      3385.32      0.15020612    0.0026938667
      3388.70      0.15173842    0.0026488276
      3392.09      0.15520516    0.0026052674
      3395.48      0.15664334    0.0025842674
      3398.88      0.15769461    0.0025434267
      3402.28      0.15693071    0.0025021451
      3405.68      0.15704219    0.0024943353
      3409.09      0.15692550    0.0024524638
      3412.49      0.15759850    0.0023984351
      3415.91      0.15823186    0.0023916985
      3419.32      0.15690462    0.0023553088
      3422.74      0.15656796    0.0023183214
      3426.17      0.15710307    0.0023139560
      3429.59      0.15918917    0.0022801559
      3433.02      0.16015266    0.0022329983
      3436.45      0.16006842    0.0022299567
      3439.89      0.15934899    0.0021957852
      3443.33      0.15981428    0.0021622030
      3446.78      0.15968995    0.0021594877
      3450.22      0.15962569    0.0021145199
      3453.67      0.15920102    0.0020855076
      3457.13      0.16003906    0.0020844305
      3460.58      0.16025166    0.0020577892
      3464.04      0.16037912    0.0020319424
      3467.51      0.16067916    0.0020318136
      3470.98      0.16180289    0.0020050428
      3474.45      0.16273138    0.0019641726
      3477.92      0.16422562    0.0019647664
      3481.40      0.16660666    0.0019369492
      3484.88      0.16673116    0.0019106901
      3488.37      0.16677518    0.0018854211
      3491.86      0.16627280    0.0018851699
      3495.35      0.16617513    0.0018477245
      3498.84      0.16570295    0.0018219643
      3502.34      0.16684373    0.0018208693
      3505.84      0.16871126    0.0017980220
      3509.35      0.17074693    0.0017779284
      3512.86      0.17232672    0.0017817921
      3516.37      0.17484931    0.0017639939
      3519.89      0.17789967    0.0017493280
      3523.41      0.17975586    0.0017204477
      3526.93      0.18071484    0.0017281211
      3530.46      0.18100264    0.0017138583
      3533.99      0.18153283    0.0017000358
      3537.53      0.18171914    0.0017067160
      3541.06      0.18141161    0.0016908849
      3544.60      0.18061711    0.0016767671
      3548.15      0.17871227    0.0016613098
      3551.70      0.17704308    0.0016664134
      3555.25      0.17372212    0.0016329191
      3558.80      0.17137745    0.0016132573
      3562.36      0.17028414    0.0015925845
      3565.92      0.16947963    0.0015944303
      3569.49      0.16874193    0.0015725020
      3573.06      0.16723043    0.0015538820
      3576.64      0.16610784    0.0015575147
      3580.21      0.16653642    0.0015404473
      3583.79      0.16561317    0.0015250546
      3587.38      0.16647906    0.0015089229
      3590.96      0.16856461    0.0014985762
      3594.55      0.17253474    0.0014810091
      3598.15      0.17535485    0.0014648150
      3601.75      0.17757725    0.0014495491
      3605.35      0.18099384    0.0014546706
      3608.96      0.18477786    0.0014386672
      3612.56      0.18704367    0.0014248923
      3616.18      0.18775198    0.0014126866
      3619.79      0.18933757    0.0014184630
      3623.41      0.19146628    0.0014044456
      3627.04      0.19374434    0.0013911454
      3630.66      0.19600524    0.0013783303
      3634.29      0.19749701    0.0013847364
      3637.93      0.20036509    0.0013711074
      3641.57      0.20487518    0.0013571365
      3645.21      0.20847782    0.0013301213
      3648.86      0.21112756    0.0013363631
      3652.50      0.21304931    0.0013227071
      3656.16      0.21338570    0.0013105940
      3659.81      0.21379911    0.0012982879
      3663.47      0.21378370    0.0012873215
      3667.14      0.21615192    0.0012938184
      3670.80      0.22099600    0.0012800000
      3674.48      0.22194333    0.0012686682
      3678.15      0.22041089    0.0012579015
      3681.83      0.22069749    0.0012639092
      3685.51      0.22291438    0.0012488828
      3689.20      0.22140563    0.0012367000
      3692.88      0.21517757    0.0012269596
      3696.58      0.21663656    0.0012115520
      3700.27      0.22026660    0.0012143400
      3703.98      0.22375880    0.0012001090
      3707.68      0.22401175    0.0011880126
      3711.39      0.22472010    0.0011743234
      3715.10      0.22569847    0.0011610303
      3718.81      0.22220194    0.0011506803
      3722.53      0.21892468    0.0011568874
      3726.26      0.21665059    0.0011310941
      3729.98      0.21407482    0.0011194748
      3733.71      0.21310903    0.0011078714
      3737.45      0.21257220    0.0010977312
      3741.18      0.21142034    0.0010880883
      3744.93      0.20886111    0.0010795719
      3748.67      0.20714356    0.0010730857
      3752.42      0.21069157    0.0010664275
      3756.17      0.21767127    0.0010476416
      3759.93      0.22487347    0.0010433984
      3763.69      0.22904220    0.0010422376
      3767.45      0.23394449    0.0010405886
      3771.22      0.23981801    0.0010345855
      3774.99      0.24220051    0.0010433087
      3778.77      0.24312444    0.0010350164
      3782.54      0.24712802    0.0010226149
      3786.33      0.25097169    0.0010104113
      3790.11      0.25120146    0.0010003448
      3793.90      0.25243911   0.00098968102
      3797.70      0.25280882   0.00096849090
      3801.50      0.25119914   0.00095728606
      3805.30      0.24563479   0.00094703316
      3809.10      0.23635614   0.00093780361
      3812.91      0.22644666   0.00092819044
      3816.73      0.21987301   0.00091727065
      3820.54      0.21706733   0.00090570000
      3824.36      0.21863110   0.00089366114
      3828.19      0.21786399   0.00088523796
      3832.02      0.21676422   0.00087763589
      3835.85      0.21609217   0.00087132820
      3839.68      0.21558662   0.00086812269
      3843.52      0.21770268   0.00086615811
      3847.37      0.22222869   0.00085442957
      3851.22      0.22851657   0.00085362385
      3855.07      0.23469896   0.00085283958
      3858.92      0.23900133   0.00085219732
      3862.78      0.24111513   0.00085108039
      3866.64      0.24435694   0.00084828332
      3870.51      0.24702081   0.00084525082
      3874.38      0.24786412   0.00084305812
      3878.26      0.24756980   0.00084211469
      3882.13      0.24934194   0.00084209039
      3886.02      0.25460875   0.00084242977
      3889.90      0.26044800   0.00085291602
      3893.79      0.26510087   0.00087802122
      3897.69      0.27026676   0.00091011448
      3901.59      0.27847731   0.00086430371
      3905.49      0.28259461   0.00085349798
      3909.39      0.28667485   0.00087120807
      3913.30      0.29059549   0.00089819092
      3917.22      0.29452267   0.00092707057
      3921.13      0.29915593   0.00096337788
      3925.06      0.30164041    0.0010273621
      3928.98      0.30014187    0.0011165465
      3932.91      0.29617033    0.0012461165
      3936.84      0.29148984    0.0014400600
      3940.78      0.29420826    0.0011948003
      3944.72      0.29440797    0.0010177150
      3948.67      0.29480077    0.0010434468
      3952.61      0.29835413    0.0010722153
      3956.57      0.30494007    0.0010997180
      3960.52      0.31394493    0.0011293710
      3964.48      0.32490056    0.0015125942
      3968.45      0.33869751    0.0014968630
      3972.42      0.34648497    0.0012840088
      3976.39      0.35209198    0.0011352803
      3980.37      0.35628950    0.0010638970
      3984.35      0.36229109    0.0010099212
      3988.33      0.37004066   0.00096208186
      3992.32      0.37745602   0.00092700330
      3996.31      0.38532654   0.00093112265
      4000.31      0.39314712    0.0010150743
      4004.31      0.39557555   0.00095041007
      4008.31      0.39926012   0.00090084389
      4012.32      0.40102486   0.00086272582
      4016.33      0.40245860   0.00083304310
      4020.35      0.40327834   0.00081944174
      4024.37      0.40317791   0.00081684281
      4028.40      0.40300593   0.00081426685
      4032.42      0.40205335   0.00081177870
      4036.46      0.40208143   0.00080869580
      4040.50      0.40156126   0.00080604410
      4044.54      0.40032280   0.00080356791
      4048.58      0.39821806   0.00080119731
      4052.63      0.39669414   0.00079887479
      4056.68      0.39838403   0.00079573709
      4060.74      0.40510160   0.00078202884
      4064.80      0.40753288   0.00078029630
      4068.86      0.40667572   0.00077865608
      4072.93      0.40472022   0.00077686228
      4077.01      0.40095106   0.00077535323
      4081.08      0.39809317   0.00077292317
      4085.17      0.39741595   0.00076933071
      4089.25      0.39585506   0.00077556993
      4093.34      0.39701448   0.00077163486
      4097.43      0.39796139   0.00076820262
      4101.53      0.39803794   0.00075589675
      4105.63      0.39956066   0.00075272428
      4109.74      0.40034593   0.00075081406
      4113.85      0.40191073   0.00074891140
      4117.96      0.40230620   0.00074793938
      4122.08      0.40175769   0.00074797742
      4126.20      0.40311639   0.00074755469
      4130.33      0.40667313   0.00074589431
      4134.46      0.41291091   0.00074279582
      4138.59      0.41781479   0.00073116150
      4142.73      0.41684328   0.00073825397
      4146.88      0.41439399   0.00073747642
      4151.02      0.41282863   0.00073667981
      4155.18      0.41209149   0.00073577454
      4159.33      0.41372888   0.00073440304
      4163.49      0.41568394   0.00073360580
      4167.65      0.41583845   0.00072505227
      4171.82      0.41710390   0.00072402181
      4175.99      0.41759802   0.00072332148
      4180.17      0.41842214   0.00072267760
      4184.35      0.42269948   0.00072068024
      4188.54      0.42675635   0.00072710196
      4192.72      0.42766031   0.00072708074
      4196.92      0.42672933   0.00071909380
      4201.11      0.42553189   0.00071931189
      4205.31      0.42538917   0.00071912152
      4209.52      0.42821533   0.00071756876
      4213.73      0.43230984   0.00071585814
      4217.94      0.43424741   0.00071521642
      4222.16      0.43393443   0.00071528219
      4226.38      0.43457556   0.00071551611
      4230.61      0.43876238   0.00071438246
      4234.84      0.44278447   0.00071386605
      4239.08      0.44491081   0.00071382851
      4243.32      0.44484354   0.00071426762
      4247.56      0.44574585   0.00070557863
      4251.81      0.44849150   0.00071350488
      4256.06      0.45112770   0.00071231109
      4260.32      0.45486265   0.00071007570
      4264.58      0.45814978   0.00070729965
      4268.84      0.45562267   0.00069629796
      4273.11      0.44663431   0.00069558561
      4277.38      0.43610397   0.00069396729
      4281.66      0.42718111   0.00069828934
      4285.94      0.42383067   0.00069313007
      4290.23      0.42103447   0.00067996843
      4294.52      0.42122923   0.00067610367
      4298.81      0.42288747   0.00067338895
      4303.11      0.42345012   0.00067313979
      4307.42      0.42429788   0.00068236794
      4311.72      0.42961489   0.00067707710
      4316.04      0.43212088   0.00068013853
      4320.35      0.43398854   0.00068469022
      4324.67      0.43974745   0.00068865816
      4329.00      0.45125629   0.00068423670
      4333.33      0.46428350   0.00069570188
      4337.66      0.47548492   0.00069716855
      4342.00      0.48756974   0.00069698712
      4346.34      0.49462386   0.00069078136
      4350.69      0.49577096   0.00069209931
      4355.04      0.49145384   0.00070322490
      4359.39      0.49086136   0.00070432304
      4363.75      0.49514276   0.00070264248
      4368.12      0.49658688   0.00069328105
      4372.48      0.49636365   0.00069242604
      4376.86      0.49894304   0.00069696762
      4381.23      0.50025417   0.00069398262
      4385.61      0.49986570   0.00068523057
      4390.00      0.50162281   0.00068454576
      4394.39      0.50448703   0.00068449659
      4398.79      0.50592585   0.00068690331
      4403.18      0.50877369   0.00068971691
      4407.59      0.51468233   0.00069256489
      4412.00      0.52410901   0.00069471579
      4416.41      0.53663315   0.00069767849
      4420.82      0.54423858   0.00069978559
      4425.25      0.55026107   0.00070122102
      4429.67      0.55186714   0.00070312790
      4434.10      0.54874925   0.00070560773
      4438.54      0.54963805   0.00070544632
      4442.97      0.55134972   0.00070460806
      4447.42      0.55300555   0.00069480891
      4451.86      0.55313915   0.00069373779
      4456.32      0.55177222   0.00070122849
      4460.77      0.55107940   0.00070108932
      4465.24      0.55007340   0.00069352634
      4469.70      0.55268872   0.00069307585
      4474.17      0.55674252   0.00070107607
      4478.65      0.56094988   0.00069455038
      4483.12      0.56564071   0.00069513625
      4487.61      0.57077147   0.00069611883
      4492.09      0.57607888   0.00069868067
      4496.59      0.57884840   0.00069854573
      4501.08      0.58058502   0.00069763166
      4505.58      0.58003918   0.00070480105
      4510.09      0.57747456   0.00069549180
      4514.60      0.57411493   0.00069429260
      4519.12      0.57127901   0.00069307207
      4523.63      0.57147930   0.00069050152
      4528.16      0.57212916   0.00068831707
      4532.69      0.57383634   0.00068650098
      4537.22      0.57681288   0.00068547563
      4541.76      0.57879507   0.00068552400
      4546.30      0.58023872   0.00068685691
      4550.85      0.58397796   0.00068158685
      4555.40      0.59121225   0.00069074456
      4559.95      0.59771554   0.00069176340
      4564.51      0.60314210   0.00068605119
      4569.08      0.61085782   0.00069356558
      4573.65      0.61676584   0.00068638785
      4578.22      0.62072454   0.00068691470
      4582.80      0.62463941   0.00069526441
      4587.38      0.63132050   0.00068872010
      4591.97      0.63778889   0.00068928528
      4596.56      0.64376435   0.00069055042
      4601.16      0.64958542   0.00069330004
      4605.76      0.65558094   0.00069548365
      4610.37      0.66110171   0.00069770348
      4614.98      0.66573043   0.00070026230
      4619.59      0.67199182   0.00070069099
      4624.21      0.67858265   0.00069293518
      4628.84      0.68243444   0.00070065742
      4633.47      0.68463022   0.00070066955
      4638.10      0.68763163   0.00069217594
      4642.74      0.69031554   0.00069874531
      4647.38      0.69177553   0.00069821627
      4652.03      0.69322448   0.00069007594
      4656.68      0.69444799   0.00069703009
      4661.34      0.69524606   0.00068925070
      4666.00      0.69442629   0.00068868798
      4670.67      0.69332107   0.00069581151
      4675.33      0.68965614   0.00068788011
      4680.01      0.68876239   0.00069387239
      4684.69      0.68983147   0.00068437002
      4689.38      0.68987058   0.00068301668
      4694.07      0.68768266   0.00069006962
      4698.76      0.68657199   0.00068339472
      4703.46      0.68781989   0.00068378241
      4708.16      0.69334499   0.00068500936
      4712.87      0.69863607   0.00068558745
      4717.58      0.70486158   0.00068881934
      4722.30      0.71039231   0.00069012147
      4727.03      0.71504114   0.00069159230
      4731.75      0.71988812   0.00069389747
      4736.48      0.72411612   0.00069378469
      4741.22      0.72810334   0.00068606647
      4745.96      0.72962773   0.00069196516
      4750.71      0.72698494   0.00068376835
      4755.46      0.72354398   0.00068908428
      4760.22      0.71923125   0.00068048897
      4764.97      0.71485985   0.00067934984
      4769.74      0.71137586   0.00068429948
      4774.51      0.70769832   0.00067578653
      4779.29      0.70266717   0.00068142340
      4784.07      0.69857246   0.00067409028
      4788.85      0.69570202   0.00067403603
      4793.64      0.69457227   0.00067364849
      4798.43      0.69434858   0.00067330893
      4803.23      0.69476126   0.00067270408
      4808.03      0.69519850   0.00067172546
      4812.84      0.69346365   0.00067103226
      4817.66      0.68719304   0.00067127935
      4822.48      0.68561167   0.00066332075
      4827.30      0.69077543   0.00093890236
      4832.12      0.69024420   0.00095521838
      4836.96      0.68319666   0.00093418976
      4841.79      0.67120988   0.00095144984
      4846.63      0.67072990   0.00092627883
      4851.48      0.66840837   0.00092293165
      4856.33      0.66578723   0.00091986791
      4861.19      0.66829894   0.00091854699
      4866.05      0.67485076   0.00091931417
      4870.92      0.67727786   0.00092180638
      4875.79      0.67851491   0.00092324463
      4880.66      0.67985349   0.00092249158
      4885.55      0.67714670   0.00092626639
      4890.43      0.68585247   0.00092788789
      4895.32      0.69276148   0.00093201643
      4900.22      0.69573094   0.00093504702
      4905.12      0.69001706   0.00093896122
      4910.02      0.69197720   0.00093595251
      4914.94      0.69931667   0.00093539568
      4919.85      0.71093306   0.00093982040
      4924.77      0.74260864   0.00067196887
      4929.70      0.75379539   0.00067547088
      4934.62      0.76202185   0.00067627832
      4939.56      0.76544977   0.00067923101
      4944.50      0.76509311   0.00067997852
      4949.44      0.76255194   0.00067253617
      4954.39      0.76100084   0.00067664515
      4959.35      0.75315334   0.00066718520
      4964.31      0.74455422   0.00066214552
      4969.27      0.73662040   0.00065878452
      4974.24      0.71508356   0.00065674117
      4979.22      0.69896660   0.00066115016
      4984.20      0.69022488   0.00065274745
      4989.18      0.68559099   0.00065740150
      4994.17      0.68915884   0.00065045592
      4999.16      0.69627452   0.00065146420
      5004.16      0.70553392   0.00065255495
      5009.17      0.71730916   0.00065608073
      5014.18      0.72983988   0.00065850875
      5019.19      0.74623133   0.00066255209
      5024.21      0.76029527   0.00066536412
      5029.23      0.77670680   0.00066910235
      5034.26      0.78734423   0.00066611373
      5039.30      0.79521691   0.00067635710
      5044.34      0.79905678   0.00067158373
      5049.39      0.80375665   0.00067878407
      5054.43      0.80316919   0.00067117173
      5059.49      0.80035162   0.00066947755
      5064.55      0.79337039   0.00067424817
      5069.61      0.77975662   0.00066646292
      5074.68      0.76809907   0.00067144610
      5079.76      0.76256741   0.00066218360
      5084.84      0.75530830   0.00065972787
      5089.92      0.74691474   0.00065748880
      5095.01      0.73740657   0.00065542675
      5100.11      0.72919230   0.00065358131
      5105.21      0.72021199   0.00065180939
      5110.31      0.71207307   0.00064969994
      5115.42      0.70667568   0.00064680885
      5120.54      0.70537607   0.00064311599
      5125.66      0.69566992   0.00063596209
      5130.79      0.68540719   0.00064020236
      5135.92      0.67427402   0.00063815631
      5141.05      0.66370131   0.00063045056
      5146.20      0.65610244   0.00063400595
      5151.34      0.64920550   0.00062625072
      5156.49      0.64606513   0.00062966805
      5161.65      0.64700942   0.00062875398
      5166.81      0.64934221   0.00062351624
      5171.98      0.65433829   0.00062983770
      5177.15      0.66252223   0.00062584992
      5182.33      0.66930711   0.00062997406
      5187.51      0.67669129   0.00064047529
      5192.70      0.68441303   0.00063931966
      5197.89      0.69548944   0.00064516088
      5203.09      0.70632620   0.00064932861
      5208.29      0.71902667   0.00065446169
      5213.50      0.73523272   0.00065701607
      5218.72      0.74811223   0.00065220529
      5223.93      0.74955794   0.00066214285
      5229.16      0.74751007   0.00066554098
      5234.39      0.74513643   0.00066054332
      5239.62      0.74044741   0.00066879647
      5244.86      0.73732373   0.00066956361
      5250.11      0.73970816   0.00066304754
      5255.36      0.74298647   0.00066964417
      5260.61      0.74503988   0.00066423519
      5265.87      0.74755131   0.00066636906
      5271.14      0.75195185   0.00066905182
      5276.41      0.75912771   0.00067011564
      5281.69      0.76457618   0.00067420526
      5286.97      0.76828175   0.00067974319
      5292.26      0.77382985   0.00068282804
      5297.55      0.78386715   0.00068731016
      5302.85      0.79308528   0.00069189771
      5308.15      0.80045742   0.00068844136
      5313.46      0.81273682   0.00069602820
      5318.77      0.82246401   0.00069752892
      5324.09      0.82688695   0.00070192866
      5329.42      0.82715574   0.00071274889
      5334.75      0.83003106   0.00071716985
      5340.08      0.83504349   0.00072303087
      5345.42      0.84136242   0.00072530880
      5350.77      0.84735381   0.00074487042
      5356.12      0.84905967   0.00077138502
      5361.48      0.85027079   0.00079139914
      5366.83      0.85296500   0.00083006240
      5372.20      0.85407149   0.00087432923
      5377.58      0.85651382   0.00090531326
      5382.95      0.85550806   0.00095214235
      5388.34      0.85178375   0.00099589622
      5393.72      0.85067400    0.0010381404
      5399.12      0.85165920    0.0010595291
      5404.52      0.85186907    0.0010728936
      5409.92      0.85692091    0.0010673045
      5415.33      0.86710777    0.0010561530
      5420.75      0.87569958    0.0010460908
      5426.17      0.88668472    0.0010797631
      5431.60      0.89603082    0.0011007852
      5437.03      0.90474634    0.0011255922
      5442.47      0.91442147    0.0011719363
      5447.91      0.92378136    0.0012232157
      5453.36      0.93099153    0.0012782852
      5458.81      0.93481330    0.0013070157
      5464.27      0.93488126    0.0013441255
      5469.73      0.93239507    0.0013620841
      5475.20      0.93422911    0.0013550490
      5480.68      0.93671209    0.0013379826
      5486.16      0.93800824    0.0013008177
      5491.65      0.93909834    0.0012564774
      5497.14      0.94417246    0.0012172144
      5502.64      0.95442718    0.0011841974
      5508.14      0.96480092    0.0011584858
      5513.65      0.97745952    0.0011261318
      5519.16      0.99061067    0.0010992875
      5524.68       1.0017887    0.0010777887
      5530.20       1.0108358    0.0010469338
      5535.73       1.0194651    0.0010215706
      5541.27       1.0258463    0.0010004114
      5546.81       1.0298577   0.00099183715
      5552.36       1.0302554   0.00097158534
      5557.91       1.0264267   0.00094654856
      5563.47       1.0216578   0.00092652412
      5569.04       1.0171647   0.00090700597
      5574.60       1.0105553   0.00088911810
      5580.18       1.0029812   0.00087267661
      5585.76      0.99542445   0.00086719842
      5591.35      0.98863083   0.00084841674
      5596.94      0.98059584   0.00083667589
      5602.53      0.97570209   0.00082521764
      5608.14      0.97315791   0.00081502560
      5613.75      0.97006260   0.00080624779
      5619.36      0.96750440   0.00079276948
      5624.98      0.96456772   0.00078559144
      5630.60      0.96263771   0.00077894587
      5636.23      0.96159486   0.00078019653
      5641.87      0.95975051   0.00077425836
      5647.51      0.95732824   0.00076849361
      5653.16      0.95588146   0.00076284764
      5658.82      0.95424779   0.00075193717
      5664.47      0.95024691   0.00074768556
      5670.14      0.94705717   0.00074326348
      5675.81      0.94496331   0.00073824847
      5681.48      0.94348527   0.00073358821
      5687.17      0.94267630   0.00072942052
      5692.85      0.94335603   0.00072547574
      5698.55      0.94330861   0.00072261928
      5704.25      0.94313583   0.00071987725
      5709.95      0.94381992   0.00072387275
      5715.66      0.94353480   0.00074342684
      5721.38      0.94194598   0.00077261050
      5727.10      0.94087238   0.00080434779
      5732.83      0.93889060   0.00086414843
      5738.56      0.93793944   0.00092931060
      5744.30      0.93442697    0.0010528788
      5750.04      0.93004390   0.00088848470
      5755.79      0.92669999   0.00091612092
      5761.55      0.92365231   0.00096940215
      5767.31      0.91547016    0.0010363378
      5773.08      0.90098117    0.0011059994
      5778.85      0.88861809    0.0011581473
      5784.63      0.87953557    0.0011697613
      5790.41      0.87351566    0.0011186642
      5796.21      0.86671566    0.0010429790
      5802.00      0.86069288   0.00096478966
      5807.81      0.85320505   0.00089774481
      5813.61      0.84423738   0.00084344780
      5819.43      0.83625406   0.00081911651
      5825.25      0.83024870   0.00097429290
      5831.07      0.82397844   0.00086151967
      5836.90      0.81872901   0.00081380127
      5842.74      0.81449822   0.00080377960
      5848.58      0.81129205   0.00082288290
      5854.43      0.80911445   0.00088666325
      5860.29      0.80889288   0.00081202434
      5866.15      0.81397601   0.00078865453
      5872.01      0.82008751   0.00083182368
      5877.89      0.82896881   0.00089318378
      5883.76      0.84479842   0.00096566878
      5889.65      0.86941778    0.0010396671
      5895.54      0.90076034    0.0010994590
      5901.43      0.93309819    0.0011584734
      5907.34      0.95825804    0.0011142010
      5913.24      0.97292066    0.0010493783
      5919.16      0.98069202   0.00098110410
      5925.08      0.98743557   0.00092001983
      5931.00      0.99448251   0.00087643335
      5936.93       1.0039993    0.0011112359
      5942.87       1.0034507   0.00093041735
      5948.81       1.0083519   0.00085164720
      5954.76       1.0169644   0.00078200516
      5960.72       1.0253307   0.00074646788
      5966.68       1.0321652   0.00071490324
      5972.64       1.0364462   0.00068765001
      5978.62       1.0384643   0.00067501679
      5984.60       1.0417848   0.00067464344
      5990.58       1.0435867   0.00067360518
      5996.57       1.0432018   0.00067249349
      6002.57       1.0412119   0.00067068923
      6008.57       1.0372381   0.00066862260
      6014.58       1.0235570   0.00093438865
      6020.60       1.0106444   0.00093025319
      6026.62       1.0015065   0.00092807797
      6032.65      0.99957398   0.00092583490
      6038.68       1.0007802   0.00092392293
      6044.72       1.0023238   0.00092239130
      6050.76       1.0054497   0.00093527294
      6056.81       1.0105888   0.00093334704
      6062.87       1.0164152   0.00091856363
      6068.93       1.0226274   0.00091803406
      6075.00       1.0281159   0.00091710368
      6081.08       1.0321585   0.00091548891
      6087.16       1.0346750   0.00091355117
      6093.25       1.0367729   0.00091194114
      6099.34       1.0391907   0.00091164926
      6105.44       1.0420577   0.00091326664
      6111.54       1.0494884   0.00091493663
      6117.66       1.0559343   0.00090155734
      6123.78       1.0628484   0.00091786658
      6129.90       1.0729269   0.00091816801
      6136.03       1.0841379   0.00091719851
      6142.17       1.0887554   0.00091640021
      6148.31       1.0842372   0.00091529040
      6154.46       1.0758192   0.00091223373
      6160.61       1.0656693   0.00088952292
      6166.77       1.0545232   0.00088619703
      6172.94       1.0416291   0.00088506493
      6179.11       1.0287920   0.00089774458
      6185.29       1.0236141   0.00089426742
      6191.48       1.0254902   0.00088739022
      6197.67       1.0247703   0.00086569565
      6203.87       1.0220058   0.00086108853
      6210.07       1.0246785   0.00086069698
      6216.28       1.0326962   0.00085931312
      6222.50       1.0430412   0.00087309873
      6228.72       1.0544371   0.00087637428
      6234.95       1.0759949   0.00086749236
      6241.19       1.1017258   0.00087373776
      6247.42       1.1302491   0.00087982225
      6253.67       1.1548394   0.00088499823
      6259.93       1.1754087   0.00090382201
      6266.19       1.1835838   0.00088946167
      6272.46       1.1822929   0.00088480231
      6278.73       1.1741504   0.00087992264
      6285.01       1.1643167   0.00087761764
      6291.29       1.1600723   0.00086185530
      6297.58       1.1526418   0.00087445078
      6303.88       1.1468640   0.00087112116
      6310.19       1.1405323   0.00086758792
      6316.50       1.1327402   0.00086417970
      6322.81       1.1208805   0.00084855180
      6329.14       1.1071189   0.00085927708
      6335.47       1.0980212   0.00085742046
      6341.80       1.0895644   0.00085616103
      6348.14       1.0817093   0.00084163396
      6354.49       1.0769570   0.00085222447
      6360.85       1.0764221   0.00085116570
      6367.21       1.0800488   0.00085093006
      6373.57       1.0835319   0.00084163760
      6379.95       1.0858115   0.00084576242
      6386.33       1.0879705   0.00086042746
      6392.72       1.0901774   0.00085906630
      6399.11       1.0888717   0.00084567205
      6405.51       1.0915421   0.00084529411
      6411.92       1.0986113   0.00085828534
      6418.32       1.1102697   0.00084845764
      6424.74       1.1238316   0.00085076932
      6431.17       1.1340551   0.00085341646
      6437.60       1.1429643   0.00086856223
      6444.04       1.1572187   0.00085701151
      6450.48       1.1723687   0.00085765424
      6456.94       1.1877979   0.00085973480
      6463.39       1.2052385   0.00086300537
      6469.85       1.2144646   0.00086400881
      6476.33       1.2156397   0.00086421977
      6482.80       1.2089874   0.00086102999
      6489.28       1.2052886   0.00085814417
      6495.77       1.2065002   0.00085911782
      6502.27       1.2258512   0.00085153989
      6508.77       1.2595317   0.00087516772
      6515.28       1.3054571   0.00088884686
      6521.80       1.3594400   0.00089706719
      6528.32       1.4339452   0.00093272881
      6534.85       1.4922840   0.00096047650
      6541.38       1.5495773   0.00098580169
      6547.92       1.6602889    0.0010346604
      6554.47       1.7881272    0.0010762965
      6561.03       1.9223470    0.0011283147
      6567.59       2.0631514    0.0012068861
      6574.16       2.1349221    0.0012487541
      6580.73       2.1136497    0.0012304203
      6587.31       2.0295554    0.0012076251
      6593.90       1.8695556    0.0011083482
      6600.50       1.6823757    0.0010563357
      6607.10       1.5606011    0.0010020060
      6613.70       1.4513472   0.00092794241
      6620.32       1.3627797   0.00089204753
      6626.94       1.3149013   0.00087030062
      6633.57       1.2673641   0.00083491232
      6640.20       1.2271541   0.00082173785
      6646.84       1.1972231   0.00080904882
      6653.49       1.1743712   0.00079994805
      6660.14       1.1586427   0.00080541171
      6666.80       1.1457631   0.00078849726
      6673.47       1.1308823   0.00078432341
      6680.14       1.1142584   0.00078032027
      6686.82       1.0921389   0.00077651923
      6693.51       1.0709873   0.00076169472
      6700.20       1.0529936   0.00077132364
      6706.90       1.0362453   0.00077005997
      6713.61       1.0280491   0.00076991541
      6720.32       1.0209109   0.00076909993
      6727.05       1.0144978   0.00076806289
      6733.77       1.0068817   0.00079117334
      6740.51      0.99908867   0.00078488109
      6747.25      0.98830643   0.00079747132
      6754.00      0.98275398   0.00077896258
      6760.75      0.98396953   0.00078058299
      6767.51      0.98302427   0.00077348555
      6774.28      0.98766551   0.00075957320
      6781.05      0.99125742   0.00076052791
      6787.84      0.99237531   0.00074230486
      6794.62      0.99094988   0.00074780020
      6801.42      0.99208332   0.00073358711
      6808.22      0.99437101   0.00074180136
      6815.03      0.99725824   0.00072939612
      6821.85      0.99904992   0.00072696453
      6828.67      0.99959590   0.00072363110
      6835.50      0.99805099   0.00072097446
      6842.33      0.99476599   0.00071783608
      6849.17      0.99159940   0.00071618145
      6856.02      0.98780414   0.00071346956
      6862.88      0.98233814   0.00071241526
      6869.74      0.97968069   0.00071132883
      6876.61      0.97861846   0.00071106887
      6883.49      0.97838270   0.00071065639
      6890.37      0.97824159   0.00071033499
      6897.27      0.97818805   0.00070962456
      6904.16      0.97526983   0.00070996942
      6911.07      0.97279302   0.00070923181
      6917.98      0.97123457   0.00070784882
      6924.89      0.96817068   0.00070530695
      6931.82      0.96790118   0.00069332578
      6938.75      0.97010010   0.00070166767
      6945.69      0.97679570   0.00069115200
      6952.64      0.98396815   0.00070240602
      6959.59      0.99112458   0.00069446391
      6966.55       1.0006119   0.00070693287
      6973.52       1.0130721   0.00069913295
      6980.49       1.0290423   0.00070352106
      6987.47       1.0451035   0.00070527671
      6994.46       1.0590225   0.00070943112
      7001.46       1.0714503   0.00072204233
      7008.46       1.0815182   0.00071332823
      7015.46       1.0886738   0.00072560565
      7022.48       1.0966832   0.00071762098
      7029.51       1.1072453   0.00072409249
      7036.53       1.1175747   0.00072804055
      7043.57       1.1303218   0.00073539616
      7050.62       1.1464708   0.00073921031
      7057.66       1.1634390   0.00074302163
      7064.72       1.1712104   0.00074477628
      7071.79       1.1698039   0.00074260542
      7078.86       1.1602323   0.00073688512
      7085.94       1.1476591   0.00072363281
      7093.03       1.1334087   0.00073299722
      7100.12       1.1150170   0.00073657340
      7107.22       1.0995400   0.00073756580
      7114.33       1.0923266   0.00073355468
      7121.44       1.0905179   0.00072044251
      7128.56       1.0909442   0.00072828525
      7135.69       1.0948556   0.00073408196
      7142.83       1.1022346   0.00072820046
      7149.97       1.1131248   0.00073824827
      7157.12       1.1276757   0.00072902265
      7164.28       1.1427846   0.00073094053
      7171.44       1.1558188   0.00074653778
      7178.62       1.1675354   0.00073799303
      7185.80       1.1770286   0.00074162041
      7192.98       1.1872493   0.00075341805
      7200.17       1.1992568   0.00074564002
      7207.38       1.2127151   0.00074785829
      7214.58       1.2251670   0.00076193089
      7221.80       1.2337501   0.00075324565
      7229.02       1.2354992   0.00075473006
      7236.25       1.2323273   0.00076523052
      7243.49       1.2263941   0.00075303843
      7250.73       1.2195136   0.00075209007
      7257.98       1.2178482   0.00075329512
      7265.24       1.2225742   0.00075598648
      7272.51       1.2334724   0.00075661090
      7279.78       1.2518109   0.00075922180
      7287.06       1.2736094   0.00075307634
      7294.35       1.2977400   0.00076880904
      7301.64       1.3238822   0.00077535331
      7308.94       1.3439621   0.00077027426
      7316.25       1.3590560   0.00078507543
      7323.57       1.3650038   0.00078870428
      7330.89       1.3582767   0.00079040606
      7338.22       1.3401395   0.00077832198
      7345.56       1.3203980   0.00078640468
      7352.91       1.3014057   0.00078150574
      7360.26       1.2886150   0.00077875084
      7367.62       1.2786043   0.00076917477
      7374.99       1.2704765   0.00077233222
      7382.37       1.2683790   0.00078392545
      7389.75       1.2669398   0.00077334226
      7397.14       1.2643191   0.00077254868
      7404.53       1.2649783   0.00077138845
      7411.94       1.2705189   0.00078344319
      7419.35       1.2807142   0.00078419035
      7426.77       1.2923882   0.00079410080
      7434.20       1.3034976   0.00080702666
      7441.63       1.3137482   0.00085689085
      7449.07       1.3245651   0.00093158095
      7456.52       1.3300026   0.00098634120
      7463.98       1.3306995    0.0010446102
      7471.45       1.3337783    0.0010594381
      7478.92       1.3379888    0.0010334323
      7486.40       1.3430310   0.00098992686
      7493.88       1.3471963   0.00099058880
      7501.38       1.3542680   0.00095534435
      7508.88       1.3609707   0.00090965784
      7516.39       1.3658159   0.00088342118
      7523.91       1.3668461   0.00085250315
      7531.43       1.3600652   0.00083587579
      7538.96       1.3471453   0.00082089946
      7546.50       1.3289633   0.00082282635
      7554.05       1.3084576   0.00082014581
      7561.60       1.2869949   0.00082030963
      7569.16       1.2662343   0.00081011983
      7576.73       1.2430743   0.00080438563
      7584.31       1.2207887   0.00079728469
      7591.89       1.1996607   0.00079249965
      7599.49       1.1807155   0.00079033096
      7607.09       1.1680412   0.00080114741
      7614.70       1.1638758   0.00079832311
      7622.31       1.1681180   0.00078412967
      7629.93       1.1781037   0.00078239496
      7637.56       1.1848620   0.00078588671
      7645.20       1.1875964   0.00078786850
      7652.85       1.1921074   0.00078931349
      7660.50       1.1997171   0.00079226870
      7668.16       1.2087832   0.00079857781
      7675.83       1.2194676   0.00080313122
      7683.50       1.2356147   0.00079933613
      7691.19       1.2553374   0.00081373469
      7698.88       1.2784398   0.00081862768
      7706.58       1.2961288   0.00082408502
      7714.29       1.3086338   0.00082874899
      7722.00       1.3111999   0.00083030552
      7729.73       1.3020335   0.00082996899
      7737.45       1.2779600   0.00082015945
      7745.19       1.2351142   0.00081469703
      7752.94       1.1960005   0.00080975557
      7760.69       1.1746386   0.00081067457
      7768.45       1.1707917   0.00080257050
      7776.22       1.1780312   0.00080547525
      7784.00       1.1909321   0.00080098331
      7791.78       1.2023953   0.00079566140
      7799.57       1.2084994   0.00079496380
      7807.37       1.2044247   0.00079585912
      7815.18       1.1841841   0.00079279361
      7822.99       1.1619093   0.00079308927
      7830.82       1.1493943   0.00079205528
      7838.65       1.1398823   0.00079060943
      7846.49       1.1311445   0.00078627375
      7854.34       1.1190648   0.00078546902
      7862.19       1.1083213   0.00078215837
      7870.05       1.1007782   0.00077840958
      7877.93       1.0942946   0.00077524215
      7885.80       1.0864575   0.00077090333
      7893.69       1.0806802   0.00076610968
      7901.58       1.0781203   0.00076368985
      7909.49       1.0779725   0.00076433053
      7917.40       1.0792189   0.00076465626
      7925.31       1.0755533   0.00076443090
      7933.24       1.0758123   0.00076482770
      7941.17       1.0823505   0.00075849189
      7949.11       1.0913855   0.00076178729
      7957.06       1.1011277   0.00076463200
      7965.02       1.1085692   0.00076899933
      7972.98       1.1160670   0.00077256683
      7980.96       1.1198753   0.00077480293
      7988.94       1.1218061   0.00077594639
      7996.93       1.1206049   0.00077763266
      8004.93       1.1206905   0.00078063729
      8012.93       1.1237490   0.00078328424
      8020.95       1.1265675   0.00078772284
      8028.97       1.1302023   0.00080229323
      8036.99       1.1355583   0.00079590369
      8045.03       1.1372064   0.00079646198
      8053.08       1.1332543   0.00079781875
      8061.13       1.1284324   0.00079796015
      8069.20       1.1221953   0.00079530549
      8077.26       1.1122876   0.00079301912
      8085.34       1.1055400   0.00079130946
      8093.43       1.0964586   0.00079101637
      8101.52       1.0876806   0.00078289208
      8109.62       1.0840802   0.00079046372
      8117.73       1.0773998   0.00081246516
      8125.85       1.0714098   0.00082481950
      8133.98       1.0672796   0.00083342311
      8142.11       1.0645558   0.00083351173
      8150.25       1.0647259   0.00081829094
      8158.41       1.0679431   0.00081019405
      8166.56       1.0691631   0.00081209120
      8174.73       1.0738916   0.00081931268
      8182.91       1.0830623   0.00084233175
      8191.09       1.0918910   0.00083919340
      8199.28       1.1064467   0.00084023732
      8207.48       1.1239118   0.00083851838
      8215.69       1.1426760   0.00083889247
      8223.91       1.1587344   0.00084849196
      8232.13       1.1655602   0.00086335981
      8240.36       1.1652865   0.00086325813
      8248.60       1.1600109   0.00086112399
      8256.85       1.1532757   0.00085788329
      8265.11       1.1450431   0.00085613307
      8273.37       1.1375955   0.00084059040
      8281.65       1.1310841   0.00085018451
      8289.93       1.1313171   0.00084674992
      8298.22       1.1396900   0.00084549420
      8306.52       1.1491758   0.00083812448
      8314.83       1.1586708   0.00085012909
      8323.14       1.1691027   0.00084901477
      8331.46       1.1814836   0.00085123292
      8339.80       1.1938192   0.00084386371
      8348.13       1.2017850   0.00084682062
      8356.48       1.1940595   0.00085488452
      8364.84       1.1817270   0.00085283368
      8373.21       1.1741660   0.00084204711
      8381.58       1.1643881   0.00084240307
      8389.96       1.1513520   0.00085300723
      8398.35       1.1432541   0.00084462672
      8406.75       1.1392430   0.00084659024
      8415.16       1.1384173   0.00084991442
      8423.57       1.1492768   0.00085387368
      8432.00       1.1561416   0.00085826989
      8440.43       1.1644461   0.00086573880
      8448.87       1.1819947   0.00086946070
      8457.32       1.2089948   0.00089449870
      8465.78       1.2329216   0.00090818969
      8474.25       1.2501266   0.00091030404
      8482.72       1.2682333   0.00092964853
      8491.20       1.2881917   0.00093617788
      8499.69       1.3198380   0.00093104610
      8508.19       1.3333900   0.00094773966
      8516.70       1.3271617   0.00094793830
      8525.22       1.3373020   0.00093331189
      8533.75       1.3759099   0.00094447226
      8542.28       1.4211832   0.00094951274
      8550.82       1.4584955   0.00095324218
      8559.37       1.4862083   0.00097996052
      8567.93       1.4926694   0.00097748001
      8576.50       1.4805953   0.00098049489
      8585.08       1.4324444   0.00099810497
      8593.66       1.3612247   0.00099924556
      8602.26       1.3124466    0.0010093267
      8610.86       1.3011269    0.0010247993
      8619.47       1.3189965    0.0010118484
      8628.09       1.3313358    0.0010043933
      8636.72       1.3327540    0.0010085281
      8645.36       1.3525938    0.0010224538
      8654.00       1.3970814    0.0010343779
      8662.66       1.4577183    0.0010703722
      8671.32       1.5272023    0.0010900559
      8679.99       1.5930580    0.0011113291
      8688.67       1.6443955    0.0011128983
      8697.36       1.6699848    0.0011041349
      8706.06       1.6526495    0.0011210312
      8714.76       1.5925561    0.0011068004
      8723.48       1.5280559    0.0011149367
      8732.21       1.4750971    0.0011034480
      8740.93       1.4321533    0.0011147393
      8749.68       1.3928599    0.0010983696
      8758.43       1.3585758    0.0010910714
      8767.19       1.3305133    0.0010816981
      8775.96       1.3068793    0.0010808847
      8784.73       1.2903788    0.0010776933
      8793.52       1.2779109    0.0010824408
      8802.31       1.2669869    0.0010803693
      8811.11       1.2685332    0.0010802533
      8819.92       1.2757628    0.0010870143
      8828.75       1.2745870    0.0010979904
      8837.57       1.2686652    0.0010996990
      8846.41       1.2535084    0.0010896417
      8855.26       1.2270200    0.0010765375
      8864.12       1.2010534    0.0010665215
      8872.98       1.1705304    0.0010617039
      8881.85       1.1466336    0.0010613191
      8890.73       1.1370232    0.0010642559
      8899.63       1.1352531    0.0010666321
      8908.52       1.1370392    0.0010729153
      8917.43       1.1417530    0.0010680789
      8926.35       1.1460979    0.0010837146
      8935.28       1.1481491    0.0010771623
      8944.22       1.1540454    0.0010930613
      8953.16       1.1579887    0.0010864393
      8962.11       1.1637134    0.0011067970
      8971.08       1.1734524    0.0011046860
      8980.05       1.1802390    0.0011192060
      8989.03       1.1861068    0.0011284415
      8998.02       1.1913803    0.0011390569
      9007.02       1.1941371    0.0011450893
      9016.02       1.2007958    0.0011505831
      9025.04       1.2148600    0.0035892076
      9034.07       1.2210403    0.0031682158
      9043.10       1.2298649    0.0027681046
      9052.14       1.2409397    0.0020727048
      9061.20       1.2402363    0.0012661584
