# starting wavelength =        3485.4400
# ending wavelength =        7294.7400
# O2 telluric scale =        0
# O2 telluric shift =        0
# H2O telluric scale =        0
# H2O telluric shift =        0
      3488.37       1.2389526     0.012431066
      3491.86       1.2279915    0.0097543057
      3495.35       1.2220865    0.0090700988
      3498.84       1.2192854    0.0074105285
      3502.34       1.2171775    0.0070204622
      3505.84       1.2138975    0.0060037376
      3509.35       1.2096237    0.0057691597
      3512.86       1.2050566    0.0051533241
      3516.37       1.2016097    0.0048711979
      3519.89       1.1978164    0.0047474705
      3523.41       1.1941492    0.0044679525
      3526.93       1.1904534    0.0043743864
      3530.46       1.1869537    0.0041984900
      3533.99       1.1836517    0.0041212854
      3537.53       1.1793151    0.0040047258
      3541.06       1.1747066    0.0039377316
      3544.60       1.1703306    0.0038568071
      3548.15       1.1680303    0.0038513477
      3551.70       1.1651462    0.0038442631
      3555.25       1.1621759    0.0038372928
      3558.80       1.1599978    0.0038304582
      3562.36       1.1586923    0.0038236427
      3565.92       1.1585187    0.0038170179
      3569.49       1.1595038    0.0038104126
      3573.06       1.1609937    0.0038039937
      3576.64       1.1619833    0.0037975890
      3580.21       1.1632502    0.0037912951
      3583.79       1.1631629    0.0038402953
      3587.38       1.1640064    0.0038340286
      3590.96       1.1640184    0.0038278645
      3594.55       1.1653029    0.0038218288
      3598.15       1.1678042    0.0038737136
      3601.75       1.1721410    0.0038676699
      3605.35       1.1780214    0.0038618356
      3608.96       1.1834058    0.0038559846
      3612.56       1.1869077    0.0038503353
      3616.18       1.1884560    0.0038446767
      3619.79       1.1878966    0.0038391903
      3623.41       1.1880953    0.0038923200
      3627.04       1.1843415    0.0038867553
      3630.66       1.1808812    0.0038812575
      3634.29       1.1786868    0.0038758737
      3637.93       1.1768095    0.0038705499
      3641.57       1.1747241    0.0038653065
      3645.21       1.1713767    0.0038601724
      3648.86       1.1657584    0.0039182099
      3652.50       1.1609089    0.0039131042
      3656.16       1.1563328    0.0039079888
      3659.81       1.1524093    0.0039030688
      3663.47       1.1488688    0.0038981080
      3667.14       1.1452322    0.0039559500
      3670.80       1.1434039    0.0039511242
      3674.48       1.1435359    0.0039462175
      3678.15       1.1446973    0.0039415259
      3681.83       1.1466202    0.0039367576
      3685.51       1.1487360    0.0039320811
      3689.20       1.1502465    0.0039275217
      3692.88       1.1522281    0.0039925816
      3696.58       1.1548272    0.0039880766
      3700.27       1.1573919    0.0039836428
      3703.98       1.1608398    0.0039791997
      3707.68       1.1645006    0.0039749803
      3711.39       1.1679420    0.0039707362
      3715.10       1.1703994    0.0039665521
      3718.81       1.1708601    0.0040297475
      3722.53       1.1704844    0.0040255626
      3726.26       1.1684435    0.0040215448
      3729.98       1.1656157    0.0040948190
      3733.71       1.1642167    0.0040907762
      3737.45       1.1627079    0.0040868258
      3741.18       1.1611182    0.0040829466
      3744.93       1.1610330    0.0040791635
      3748.67       1.1612610    0.0040754633
      3752.42       1.1614317    0.0040718668
      3756.17       1.1619459    0.0040683325
      3759.93       1.1623663    0.0040647980
      3763.69       1.1600837    0.0041443058
      3767.45       1.1570263    0.0041398526
      3771.22       1.1545979    0.0041356202
      3774.99       1.1521353    0.0041313238
      3778.77       1.1512328    0.0042083103
      3782.54       1.1494274    0.0042053541
      3786.33       1.1492163    0.0042023527
      3790.11       1.1501715    0.0041994719
      3793.90       1.1510014    0.0042800930
      3797.70       1.1523657    0.0042759700
      3801.50       1.1545068    0.0042719154
      3805.30       1.1563963    0.0042679823
      3809.10       1.1575497    0.0042640011
      3812.91       1.1579913    0.0042603473
      3816.73       1.1573448    0.0042566669
      3820.54       1.1573571    0.0042532985
      3824.36       1.1597985    0.0043480071
      3828.19       1.1638393    0.0043447666
      3832.02       1.1687872    0.0043414238
      3835.85       1.1720239    0.0043382474
      3839.68       1.1735363    0.0043352779
      3843.52       1.1732332    0.0043324902
      3847.37       1.1705914    0.0043299170
      3851.22       1.1639073    0.0044375659
      3855.07       1.1606203    0.0045275347
      3858.92       1.1557712    0.0045254483
      3862.78       1.1523742    0.0045233377
      3866.64       1.1494619    0.0045214903
      3870.51       1.1457921    0.0045200736
      3874.38       1.1420897    0.0045185987
      3878.26       1.1384375    0.0044048736
      3882.13       1.1358339    0.0044009501
      3886.02       1.1336963    0.0043973194
      3889.90       1.1323100    0.0043937182
      3893.79       1.1305908    0.0045028054
      3897.69       1.1299412    0.0044994836
      3901.59       1.1300232    0.0044967060
      3905.49       1.1308942    0.0044939247
      3909.39       1.1315267    0.0044917506
      3913.30       1.1311846    0.0044896248
      3917.22       1.1300580    0.0044875671
      3921.13       1.1293682    0.0044861516
      3925.06       1.1307612    0.0044847831
      3928.98       1.1360998    0.0043787015
      3932.91       1.1410029    0.0043741778
      3936.84       1.1458743    0.0043702825
      3940.78       1.1479344    0.0043665066
      3944.72       1.1475203    0.0043630375
      3948.67       1.1466492    0.0043598624
      3952.61       1.1444702    0.0043569806
      3956.57       1.1423245    0.0044660416
      3960.52       1.1393837    0.0044637900
      3964.48       1.1358906    0.0044620133
      3968.45       1.1326375    0.0044603680
      3972.42       1.1303820    0.0043607864
      3976.39       1.1278856    0.0043556725
      3980.37       1.1260685    0.0043509687
      3984.35       1.1243498    0.0043464928
      3988.33       1.1221923    0.0043427423
      3992.32       1.1209168    0.0043391992
      3996.31       1.1216267    0.0043360509
      4000.31       1.1245442    0.0043334311
      4004.31       1.1278198    0.0043311737
      4008.31       1.1328175    0.0044405121
      4012.32       1.1351358    0.0043451742
      4016.33       1.1344050    0.0043393618
      4020.35       1.1323072    0.0043339872
      4024.37       1.1304540    0.0043291453
      4028.40       1.1283821    0.0043246403
      4032.42       1.1263691    0.0043209597
      4036.46       1.1258621    0.0043175748
      4040.50       1.1264393    0.0043147637
      4044.54       1.1275733    0.0042249956
      4048.58       1.1261939    0.0042231461
      4052.63       1.1228761    0.0043250688
      4056.68       1.1176646    0.0043190804
      4060.74       1.1119302    0.0043135452
      4064.80       1.1062556    0.0043085290
      4068.86       1.1017871    0.0043041708
      4072.93       1.0990751    0.0043003596
      4077.01       1.0975224    0.0042972507
      4081.08       1.0979591    0.0042074148
      4085.17       1.0982231    0.0042056158
      4089.25       1.0990573    0.0042044423
      4093.34       1.0997981    0.0042998071
      4097.43       1.1019292    0.0042940084
      4101.53       1.1043284    0.0042889832
      4105.63       1.1076743    0.0042844946
      4109.74       1.1117020    0.0041935672
      4113.85       1.1153235    0.0041908675
      4117.96       1.1181825    0.0041885748
      4122.08       1.1188827    0.0041871640
      4126.20       1.1180160    0.0041861979
      4130.33       1.1136450    0.0042760518
      4134.46       1.1105602    0.0042705112
      4138.59       1.1079723    0.0042657655
      4142.73       1.1059046    0.0041749998
      4146.88       1.1053455    0.0041720103
      4151.02       1.1059000    0.0041698065
      4155.18       1.1065905    0.0041684009
      4159.33       1.1074905    0.0041677828
      4163.49       1.1079379    0.0042539871
      4167.65       1.1079750    0.0041615111
      4171.82       1.1081885    0.0041571795
      4175.99       1.1076828    0.0041537174
      4180.17       1.1062330    0.0041510920
      4184.35       1.1047480    0.0041493378
      4188.54       1.1020898    0.0041481951
      4192.72       1.0981698    0.0042338125
      4196.92       1.0944208    0.0041410771
      4201.11       1.0914455    0.0041364520
      4205.31       1.0877722    0.0041327509
      4209.52       1.0842914    0.0041300091
      4213.73       1.0815376    0.0041279582
      4217.94       1.0795756    0.0041270829
      4222.16       1.0808298    0.0040296989
      4226.38       1.0835091    0.0041174735
      4230.61       1.0865656    0.0041126902
      4234.84       1.0892264    0.0041091306
      4239.08       1.0912624    0.0041063241
      4243.32       1.0924289    0.0041046046
      4247.56       1.0920882    0.0040092049
      4251.81       1.0934419    0.0040956550
      4256.06       1.0935444    0.0040901955
      4260.32       1.0936293    0.0040860238
      4264.58       1.0934446    0.0040826830
      4268.84       1.0923597    0.0040804915
      4273.11       1.0901131    0.0039854561
      4277.38       1.0869788    0.0039790037
      4281.66       1.0822694    0.0040646511
      4285.94       1.0767719    0.0040600428
      4290.23       1.0719315    0.0040563723
      4294.52       1.0669655    0.0039660033
      4298.81       1.0647131    0.0039579582
      4303.11       1.0638919    0.0039512308
      4307.42       1.0643306    0.0040358256
      4311.72       1.0662984    0.0040311603
      4316.04       1.0715647    0.0039442822
      4320.35       1.0773602    0.0039351947
      4324.67       1.0830612    0.0039271829
      4329.00       1.0885090    0.0039203360
      4333.33       1.0965671    0.0040041169
      4337.66       1.1020156    0.0039997135
      4342.00       1.1059779    0.0039097213
      4346.34       1.1092012    0.0039008402
      4350.69       1.1104303    0.0038931459
      4355.04       1.1096666    0.0038866946
      4359.39       1.1059551    0.0039699566
      4363.75       1.0977387    0.0038817807
      4368.12       1.0921407    0.0038719773
      4372.48       1.0872063    0.0038637104
      4376.86       1.0830330    0.0038567179
      4381.23       1.0791469    0.0038630009
      4385.61       1.0760880    0.0038510283
      4390.00       1.0741842    0.0038407711
      4394.39       1.0728575    0.0038318395
      4398.79       1.0723658    0.0038245345
      4403.18       1.0733419    0.0037447517
      4407.59       1.0751351    0.0038176294
      4412.00       1.0754030    0.0038068368
      4416.41       1.0756553    0.0037977985
      4420.82       1.0762333    0.0037901577
      4425.25       1.0776547    0.0037108101
      4429.67       1.0795324    0.0037814324
      4434.10       1.0810953    0.0037707531
      4438.54       1.0820006    0.0037615886
      4442.97       1.0826676    0.0036812350
      4447.42       1.0818539    0.0036754775
      4451.86       1.0834048    0.0037428622
      4456.32       1.0848212    0.0037322641
      4460.77       1.0856390    0.0037235315
      4465.24       1.0858003    0.0036440637
      4469.70       1.0839844    0.0037139594
      4474.17       1.0805545    0.0037022203
      4478.65       1.0766939    0.0036922262
      4483.12       1.0722424    0.0036120180
      4487.61       1.0695478    0.0036055835
      4492.09       1.0670915    0.0036708168
      4496.59       1.0661110    0.0036597676
      4501.08       1.0657132    0.0035791134
      4505.58       1.0645102    0.0035717927
      4510.09       1.0632211    0.0035661135
      4514.60       1.0624381    0.0036259273
      4519.12       1.0620917    0.0035450601
      4523.63       1.0618062    0.0035372045
      4528.16       1.0622148    0.0035308463
      4532.69       1.0626360    0.0035909871
      4537.22       1.0636549    0.0035099379
      4541.76       1.0646962    0.0035015250
      4546.30       1.0651867    0.0034946708
      4550.85       1.0659134    0.0034895511
      4555.40       1.0659244    0.0034735793
      4559.95       1.0654480    0.0034647209
      4564.51       1.0654656    0.0034576444
      4569.08       1.0652369    0.0034524046
      4573.65       1.0653922    0.0034361406
      4578.22       1.0655369    0.0034269632
      4582.80       1.0648644    0.0034196272
      4587.38       1.0637217    0.0034141688
      4591.97       1.0619988    0.0033975528
      4596.56       1.0603071    0.0033882162
      4601.16       1.0590481    0.0033807623
      4605.76       1.0587415    0.0033014976
      4610.37       1.0573710    0.0033575791
      4614.98       1.0558824    0.0033484063
      4619.59       1.0532952    0.0033412119
      4624.21       1.0486577    0.0032615036
      4628.84       1.0480375    0.0033167090
      4633.47       1.0496619    0.0033077788
      4638.10       1.0535776    0.0033008770
      4642.74       1.0616046    0.0032204092
      4647.38       1.0661878    0.0032749196
      4652.03       1.0695655    0.0032663489
      4656.68       1.0717722    0.0031901415
      4661.34       1.0725029    0.0031785949
      4666.00       1.0739623    0.0032325102
      4670.67       1.0735724    0.0032244415
      4675.33       1.0711182    0.0031468356
      4680.01       1.0694478    0.0031358190
      4684.69       1.0668331    0.0031894094
      4689.38       1.0632876    0.0031153131
      4694.07       1.0604513    0.0031028175
      4698.76       1.0542059    0.0031544003
      4703.46       1.0494437    0.0030834335
      4708.16       1.0444739    0.0030698118
      4712.87       1.0411350    0.0030584211
      4717.58       1.0412822    0.0031099915
      4722.30       1.0435920    0.0030373496
      4727.03       1.0461159    0.0030249660
      4731.75       1.0479472    0.0030147650
      4736.48       1.0485273    0.0030050399
      4741.22       1.0476312    0.0029920670
      4745.96       1.0457128    0.0029816454
      4750.71       1.0430157    0.0029766634
      4755.46       1.0413395    0.0029643138
      4760.22       1.0397950    0.0029540283
      4764.97       1.0386089    0.0028912421
      4769.74       1.0369921    0.0029379724
      4774.51       1.0363736    0.0029267981
      4779.29       1.0359029    0.0029169880
      4784.07       1.0360408    0.0029065356
      4788.85       1.0351376    0.0028928708
      4793.64       1.0335756    0.0028813306
      4798.43       1.0314775    0.0028696365
      4803.23       1.0302166    0.0028546292
      4808.03       1.0291471    0.0028421346
      4812.84       1.0274977    0.0027777169
      4817.66       1.0279976    0.0028158036
      4822.48       1.0294024    0.0028023519
      4827.30       1.0340623    0.0027373248
      4832.12       1.0372837    0.0027738986
      4836.96       1.0413520    0.0027597728
      4841.79       1.0465077    0.0026948264
      4846.63       1.0507864    0.0027303159
      4851.48       1.0540636    0.0027155685
      4856.33       1.0560395    0.0026511952
      4861.19       1.0585840    0.0026872092
      4866.05       1.0599344    0.0026726720
      4870.92       1.0596342    0.0026091654
      4875.79       1.0601719    0.0025996513
      4880.66       1.0595343    0.0025794076
      4885.55       1.0583583    0.0025681953
      4890.43       1.0566830    0.0025591461
      4895.32       1.0530187    0.0025393520
      4900.22       1.0503045    0.0025284091
      4905.12       1.0477201    0.0025196236
      4910.02       1.0469537    0.0024996221
      4914.94       1.0462269    0.0024887678
      4919.85       1.0458132    0.0024800872
      4924.77       1.0455305    0.0024597601
      4929.70       1.0436233    0.0024491476
      4934.62       1.0413934    0.0024406434
      4939.56       1.0373828    0.0024196731
      4944.50       1.0341725    0.0024093024
      4949.44       1.0303585    0.0023500510
      4954.39       1.0265202    0.0023794287
      4959.35       1.0241523    0.0023693119
      4964.31       1.0223029    0.0023099560
      4969.27       1.0216568    0.0023389121
      4974.24       1.0220402    0.0023292487
      4979.22       1.0232414    0.0022697849
      4984.20       1.0238557    0.0022982768
      4989.18       1.0242666    0.0022890579
      4994.17       1.0255038    0.0022685661
      4999.16       1.0259765    0.0022576721
      5004.16       1.0259578    0.0022011843
      5009.17       1.0262359    0.0022272489
      5014.18       1.0259227    0.0022169358
      5019.19       1.0256264    0.0021601320
      5024.21       1.0249260    0.0021860356
      5029.23       1.0236253    0.0021322997
      5034.26       1.0221817    0.0021198223
      5039.30       1.0204025    0.0021468371
      5044.34       1.0197495    0.0020924847
      5049.39       1.0185963    0.0020800944
      5054.43       1.0174768    0.0020663511
      5059.49       1.0167511    0.0020545983
      5064.55       1.0168653    0.0020816191
      5069.61       1.0165871    0.0020347810
      5074.68       1.0157200    0.0020255428
      5079.76       1.0134434    0.0020167541
      5084.84       1.0124473    0.0020056088
      5089.92       1.0115551    0.0019961106
      5095.01       1.0108726    0.0019814086
      5100.11       1.0103276    0.0019684792
      5105.21       1.0100699    0.0019507805
      5110.31       1.0099457    0.0019346334
      5115.42       1.0103214    0.0019202520
      5120.54       1.0114293    0.0018978811
      5125.66       1.0118644    0.0018826021
      5130.79       1.0128891    0.0018643820
      5135.92       1.0126194    0.0018495330
      5141.05       1.0120466    0.0018365315
      5146.20       1.0110503    0.0018167469
      5151.34       1.0099890    0.0018032395
      5156.49       1.0090555    0.0017574743
      5161.65       1.0085468    0.0017719521
      5166.81       1.0078719    0.0017263035
      5171.98       1.0063525    0.0017419511
      5177.15       1.0049126    0.0017294752
      5182.33       1.0034536    0.0016863279
      5187.51       1.0031324    0.0017001569
      5192.70       1.0040499    0.0016572786
      5197.89       1.0049984    0.0016720367
      5203.09       1.0063046    0.0016291379
      5208.29       1.0074580    0.0016448499
      5213.50       1.0082129    0.0016331365
      5218.72       1.0087346    0.0015929032
      5223.93       1.0085672    0.0016074405
      5229.16       1.0074893    0.0015680765
      5234.39       1.0062111    0.0015835414
      5239.62       1.0060975    0.0015431583
      5244.86       1.0062549    0.0015350190
      5250.11       1.0061206    0.0015181889
      5255.36       1.0057001    0.0015093421
      5260.61       1.0049723    0.0015218630
      5265.87       1.0036449    0.0014826898
      5271.14       1.0024841    0.0014948165
      5276.41       1.0020370    0.0014555312
      5281.69       1.0014999    0.0014470318
      5286.97       1.0011943    0.0014290323
      5292.26       1.0008419    0.0014204407
      5297.55       1.0001461    0.0014036718
      5302.85      0.99999941    0.0013948540
      5308.15       1.0003318    0.0013784893
      5313.46       1.0010875    0.0013692485
      5318.77       1.0024889    0.0013330533
      5324.09       1.0031568    0.0013440761
      5329.42       1.0042323    0.0013366305
      5334.75       1.0065915    0.0013196622
      5340.08       1.0077887    0.0013118672
      5345.42       1.0087946    0.0012957454
      5350.77       1.0086342    0.0012880811
      5356.12       1.0081211    0.0012731913
      5361.48       1.0078701    0.0012655729
      5366.83       1.0065905    0.0012325325
      5372.20       1.0058341    0.0012440096
      5377.58       1.0036752    0.0012119682
      5382.95       1.0015904    0.0012231722
      5388.34      0.99957606    0.0011919780
      5393.72      0.99739901    0.0012030001
      5399.12      0.99612073    0.0011727080
      5404.52      0.99564291    0.0011835766
      5409.92      0.99627307    0.0011541607
      5415.33      0.99657335    0.0011649119
      5420.75      0.99704781    0.0011363090
      5426.17      0.99708191    0.0011469584
      5431.60      0.99603692    0.0011192283
      5437.03      0.99549418    0.0011124507
      5442.47      0.99446620    0.0011032261
      5447.91      0.99447251    0.0010966499
      5453.36      0.99474398    0.0010881630
      5458.81      0.99502705    0.0010820154
      5464.27      0.99511871    0.0010749989
      5469.73      0.99489038    0.0010696218
      5475.20      0.99506860    0.0010646733
      5480.68      0.99495559    0.0010604120
      5486.16      0.99470676    0.0010577011
      5491.65      0.99377895    0.0010545629
      5497.14      0.99244973    0.0010537871
      5502.64      0.99171607    0.0010515683
      5508.14      0.99182969    0.0010538157
      5513.65      0.99141882    0.0010542559
      5519.16      0.99078937    0.0010579533
      5524.68      0.98991339    0.0010552744
      5530.20      0.98782020    0.0010586172
      5535.73      0.98600242    0.0010610309
      5541.27      0.98401959    0.0010756509
      5546.81      0.98382826    0.0010707075
      5552.36      0.98447712    0.0011054267
      5557.91      0.98532624    0.0011022442
      5563.47      0.98603317    0.0011392425
      5569.04      0.98675485    0.0011316193
      5574.60      0.98843453    0.0011626658
      5580.18      0.98899860    0.0011453249
      5585.76      0.98935056    0.0011637809
      5591.35      0.98892716    0.0011372045
      5596.94      0.98784146    0.0011431205
      5602.53      0.98662853    0.0011135638
      5608.14      0.98590291    0.0011156580
      5613.75      0.98468148    0.0010899382
      5619.36      0.98365989    0.0010819834
      5624.98      0.98249818    0.0010777450
      5630.60      0.97982668    0.0010671094
      5636.23      0.97783782    0.0010636565
      5641.87      0.97485479    0.0010585102
      5647.51      0.97383376    0.0010567510
      5653.16      0.97365610    0.0010525161
      5658.82      0.97396973    0.0010674160
      5664.47      0.97505415    0.0010494855
      5670.14      0.97633045    0.0010492562
      5675.81      0.97688263    0.0010487222
      5681.48      0.97779442    0.0010486041
      5687.17      0.97846337    0.0010482010
      5692.85      0.98012474    0.0010469484
      5698.55      0.98129047    0.0010464333
      5704.25      0.98228508    0.0010442212
      5709.95      0.98264076    0.0010261228
      5715.66      0.98314027    0.0010422361
      5721.38      0.98347527    0.0010245020
      5727.10      0.98395215    0.0010410047
      5732.83      0.98358995    0.0010404344
      5738.56      0.98246942    0.0010239509
      5744.30      0.98140195    0.0010404248
      5750.04      0.98049968    0.0010252454
      5755.79      0.98003548    0.0010440196
      5761.55      0.98013468    0.0010306208
      5767.31      0.98058766    0.0010522290
      5773.08      0.98144068    0.0010405489
      5778.85      0.98163743    0.0010526137
      5784.63      0.98065858    0.0010791128
      5790.41      0.98001137    0.0010771201
      5796.21      0.97996147    0.0011100795
      5802.00      0.97975112    0.0011140823
      5807.81      0.97983787    0.0011438278
      5813.61      0.97950356    0.0011559857
      5819.43      0.97867845    0.0011823387
      5825.25      0.97799560    0.0012204711
      5831.07      0.97765557    0.0012143487
      5836.90      0.97826456    0.0012337137
      5842.74      0.97883836    0.0012394495
      5848.58      0.97882783    0.0012540180
      5854.43      0.97916215    0.0012699839
      5860.29      0.97948904    0.0012749909
      5866.15      0.98061324    0.0012958051
      5872.01      0.98149551    0.0013042347
      5877.89      0.98253634    0.0013267895
      5883.76      0.98262293    0.0013202363
      5889.65      0.98243673    0.0013550911
      5895.54      0.98149149    0.0013713276
      5901.43      0.97984679    0.0013592651
      5907.34      0.97821949    0.0013891379
      5913.24      0.97645914    0.0013786431
      5919.16      0.97501992    0.0014103930
      5925.08      0.97269299    0.0014241659
      5931.00      0.97069241    0.0014106114
      5936.93      0.96875727    0.0014399940
      5942.87      0.96847469    0.0014282875
      5948.81      0.96956271    0.0014417562
      5954.76      0.96980105    0.0014746946
      5960.72      0.96985660    0.0014641332
      5966.68      0.97039940    0.0014816388
      5972.64      0.97056572    0.0015190442
      5978.62      0.97008288    0.0015094758
      5984.60      0.96920153    0.0015468266
      5990.58      0.96758994    0.0015382510
      5996.57      0.96639339    0.0015572311
      6002.57      0.96516525    0.0015959431
      6008.57      0.96287586    0.0015874151
      6014.58      0.95997919    0.0016084653
      6020.60      0.95811405    0.0016497079
      6026.62      0.95731505    0.0016409114
      6032.65      0.95664111    0.0016630632
      6038.68      0.95604684    0.0016747503
      6044.72      0.95512891    0.0016967469
      6050.76      0.95510626    0.0017199798
      6056.81      0.95552870    0.0017317867
      6062.87      0.95690042    0.0017544415
      6068.93      0.95860634    0.0017782790
      6075.00      0.95983264    0.0017901857
      6081.08      0.96225836    0.0018132463
      6087.16      0.96408283    0.0018388032
      6093.25      0.96494300    0.0018371248
      6099.34      0.96542523    0.0018954575
      6105.44      0.96577093    0.0018934584
      6111.54      0.96604651    0.0019186764
      6117.66      0.96590944    0.0019714179
      6123.78      0.96612247    0.0019814971
      6129.90      0.96692965    0.0020757579
      6136.03      0.96766508    0.0021818446
      6142.17      0.96827339    0.0022818000
      6148.31      0.96863765    0.0024667792
      6154.46      0.96858466    0.0026527879
      6160.61      0.96814422    0.0027833728
      6166.77      0.96700041    0.0029943797
      6172.94      0.96596153    0.0031571156
      6179.11      0.96554506    0.0032016920
      6185.29      0.96476464    0.0032123020
      6191.48      0.96375612    0.0031188648
      6197.67      0.96297739    0.0030412803
      6203.87      0.96327639    0.0028691747
      6210.07      0.96372051    0.0027076228
      6216.28      0.96331025    0.0025870534
      6222.50      0.96259578    0.0025473066
      6228.72      0.96139581    0.0024649420
      6234.95      0.96137786    0.0024140673
      6241.19      0.96127092    0.0023976399
      6247.42      0.96087062    0.0023883429
      6253.67      0.95995968    0.0023798609
      6259.93      0.96009476    0.0023394741
      6266.19      0.96088432    0.0023717507
      6272.46      0.96283197    0.0023790688
      6278.73      0.96338432    0.0023523561
      6285.01      0.96341080    0.0023945676
      6291.29      0.96307109    0.0024108316
      6297.58      0.96324615    0.0024290668
      6303.88      0.96193183    0.0024048597
      6310.19      0.96072397    0.0024513296
      6316.50      0.95948781    0.0024696342
      6322.81      0.96032252    0.0024462626
      6329.14      0.96122804    0.0024623215
      6335.47      0.96036641    0.0025091851
      6341.80      0.95951763    0.0024863039
      6348.14      0.95839203    0.0025008125
      6354.49      0.95767154    0.0025161451
      6360.85      0.95648701    0.0025636966
      6367.21      0.95557177    0.0025393099
      6373.57      0.95540490    0.0025540948
      6379.95      0.95629153    0.0025697916
      6386.33      0.95723263    0.0026183909
      6392.72      0.95696290    0.0025921804
      6399.11      0.95657983    0.0026045308
      6405.51      0.95779164    0.0026160780
      6411.92      0.95902353    0.0025856395
      6418.32      0.95948324    0.0026312339
      6424.74      0.95864305    0.0026399273
      6431.17      0.95914680    0.0026484697
      6437.60      0.96052323    0.0026155166
      6444.04      0.96270398    0.0026598919
      6450.48      0.96330460    0.0026667234
      6456.94      0.96339273    0.0026741008
      6463.39      0.96379413    0.0026399749
      6469.85      0.96258304    0.0026470715
      6476.33      0.96102477    0.0026886589
      6482.80      0.95890867    0.0026928808
      6489.28      0.95813220    0.0026555458
      6495.77      0.95844322    0.0026582653
      6502.27      0.95845782    0.0026611033
      6508.77      0.96037749    0.0026990343
      6515.28      0.96694834    0.0026590098
      6521.80      0.97538796    0.0026590976
      6528.32      0.98449196    0.0026601597
      6534.85      0.99252639    0.0026625007
      6541.38      0.99840161    0.0026996904
      6547.92       1.0036227    0.0026626470
      6554.47       1.0079987    0.0026691907
      6561.03       1.0087504    0.0026787129
      6567.59       1.0072127    0.0026937759
      6574.16       1.0055906    0.0026974705
      6580.73       1.0030007    0.0027183137
      6587.31      0.99684749    0.0027413481
      6593.90      0.98654917    0.0027667559
      6600.50      0.97540421    0.0027933579
      6607.10      0.96829074    0.0027987279
      6613.70      0.95979753    0.0028054035
      6620.32      0.95399704    0.0028004841
      6626.94      0.94951047    0.0027934090
      6633.57      0.94816611    0.0027471496
      6640.20      0.94956402    0.0027348352
      6646.84      0.95035658    0.0027578100
      6653.49      0.95164480    0.0027400859
      6660.14      0.95237312    0.0027207638
      6666.80      0.95208691    0.0026691470
      6673.47      0.95262512    0.0026515358
      6680.14      0.95097435    0.0026351201
      6686.82      0.94936220    0.0026165396
      6693.51      0.94928785    0.0026366921
      6700.20      0.94972526    0.0026163317
      6706.90      0.94849870    0.0025655217
      6713.61      0.94596031    0.0025440567
      6720.32      0.94411502    0.0025260070
      6727.05      0.94440376    0.0025129971
      6733.77      0.94520541    0.0025354975
      6740.51      0.94539997    0.0024835606
      6747.25      0.94450615    0.0024570565
      6754.00      0.94370149    0.0024330849
      6760.75      0.94485504    0.0024105676
      6767.51      0.94594573    0.0023903244
      6774.28      0.94546727    0.0023717317
      6781.05      0.94497424    0.0023252128
      6787.84      0.94487121    0.0023431979
      6794.62      0.94545668    0.0023258126
      6801.42      0.94579943    0.0023106446
      6808.22      0.94524779    0.0022970237
      6815.03      0.94465848    0.0022838979
      6821.85      0.94330265    0.0022433997
      6828.67      0.94296427    0.0022320874
      6835.50      0.94283103    0.0022220281
      6842.33      0.94281704    0.0022444427
      6849.17      0.94316624    0.0022347609
      6856.02      0.94339664    0.0022261277
      6862.88      0.94398609    0.0022182862
      6869.74      0.94456880    0.0021823099
      6876.61      0.94400821    0.0021761735
      6883.49      0.94378080    0.0021707525
      6890.37      0.94437108    0.0021658257
      6897.27      0.94449486    0.0021615191
      6904.16      0.94418355    0.0021577652
      6911.07      0.94483138    0.0021820351
      6917.98      0.94428062    0.0021217191
      6924.89      0.94387718    0.0021184657
      6931.82      0.94370534    0.0020886829
      6938.75      0.94329017    0.0020867519
      6945.69      0.94277832    0.0020359354
      6952.64      0.94247510    0.0020356320
      6959.59      0.94283137    0.0020124668
      6966.55      0.94264474    0.0020130236
      6973.52      0.94205681    0.0019933619
      6980.49      0.94182671    0.0019721596
      6987.47      0.94167538    0.0019754819
      6994.46      0.94114844    0.0019378509
      7001.46      0.94138665    0.0019430091
      7008.46      0.94185835    0.0019264686
      7015.46      0.94260227    0.0019327960
      7022.48      0.94205727    0.0019013558
      7029.51      0.94080043    0.0019092126
      7036.53      0.94028427    0.0018973382
      7043.57      0.93928344    0.0018907160
      7050.62      0.93934038    0.0019009764
      7057.66      0.94000864    0.0018908671
      7064.72      0.94106267    0.0018888295
      7071.79      0.94112726    0.0018802442
      7078.86      0.94098038    0.0018934689
      7085.94      0.94119780    0.0018745562
      7093.03      0.94009151    0.0018895081
      7100.12      0.93804855    0.0018847191
      7107.22      0.93699396    0.0018902362
      7114.33      0.93657968    0.0018874584
      7121.44      0.93595097    0.0019061213
      7128.56      0.93452614    0.0019158729
      7135.69      0.93341075    0.0019157539
      7142.83      0.93230535    0.0019376572
      7149.97      0.93013856    0.0019309424
      7157.12      0.92769906    0.0019547230
      7164.28      0.92650874    0.0019587696
      7171.44      0.92586825    0.0019763349
      7178.62      0.92495588    0.0019888935
      7185.80      0.92391840    0.0020357157
      7192.98      0.92246422    0.0020889895
      7200.17      0.92143884    0.0021396110
      7207.38      0.92053834    0.0022148622
      7214.58      0.91972242    0.0022748996
      7221.80      0.91876204    0.0023807565
      7229.02      0.91792243    0.0025289823
      7236.25      0.91650614    0.0027046287
      7243.49      0.91611559    0.0029286730
      7250.73      0.91630187    0.0031508897
      7257.98      0.91697826    0.0035066019
      7265.24      0.91788076    0.0040639235
      7272.51      0.91904054    0.0046822670
      7279.78      0.91988441    0.0052747659
      7287.06      0.91822729    0.0062287301
      7294.35      0.91336453    0.0074563987
