# starting wavelength =        4526.4900
# ending wavelength =        7503.4000
# O2 telluric scale =        0
# O2 telluric shift =        0
# H2O telluric scale =        0
# H2O telluric shift =        0
      4528.16       1.0315950     0.024818648
      4532.69       1.0436430     0.019909268
      4537.22       1.0426904     0.016701363
      4541.76       1.0474148     0.014280333
      4546.30       1.0498999     0.012265482
      4550.85       1.0541621     0.010491695
      4555.40       1.0589345    0.0093347417
      4559.95       1.0618358    0.0083758111
      4564.51       1.0681915    0.0075207609
      4569.08       1.0720797    0.0069186032
      4573.65       1.0734310    0.0064382734
      4578.22       1.0740188    0.0059770601
      4582.80       1.0712283    0.0056673050
      4587.38       1.0702506    0.0053578537
      4591.97       1.0713316    0.0050812657
      4596.56       1.0709437    0.0049086258
      4601.16       1.0680999    0.0046951421
      4605.76       1.0673959    0.0044840143
      4610.37       1.0666462    0.0043357124
      4614.98       1.0609744    0.0041513902
      4619.59       1.0595146    0.0040239311
      4624.21       1.0578699    0.0038647164
      4628.84       1.0559701    0.0037175161
      4633.47       1.0541416    0.0036214443
      4638.10       1.0535073    0.0034965708
      4642.74       1.0500275    0.0033814308
      4647.38       1.0485014    0.0033152109
      4652.03       1.0479325    0.0032223815
      4656.68       1.0484406    0.0031400727
      4661.34       1.0473697    0.0030988187
      4666.00       1.0473553    0.0030342325
      4670.67       1.0482294    0.0029858862
      4675.33       1.0478648    0.0029609601
      4680.01       1.0472061    0.0029305036
      4684.69       1.0472577    0.0028994107
      4689.38       1.0485516    0.0029055824
      4694.07       1.0471498    0.0028889696
      4698.76       1.0476397    0.0028942164
      4703.46       1.0485679    0.0029238415
      4708.16       1.0468917    0.0029595895
      4712.87       1.0455296    0.0030407522
      4717.58       1.0446409    0.0031290608
      4722.30       1.0448024    0.0032532953
      4727.03       1.0400263    0.0032423291
      4731.75       1.0384853    0.0032171472
      4736.48       1.0344610    0.0032358533
      4741.22       1.0316290    0.0033202045
      4745.96       1.0305301    0.0034815551
      4750.71       1.0272973    0.0036653258
      4755.46       1.0264895    0.0038492633
      4760.22       1.0213115    0.0041108765
      4764.97       1.0216242    0.0043427228
      4769.74       1.0213666    0.0046381416
      4774.51       1.0177042    0.0049910006
      4779.29       1.0203835    0.0050791904
      4784.07       1.0162770    0.0051494945
      4788.85       1.0147455    0.0051533434
      4793.64       1.0168580    0.0050224487
      4798.43       1.0177933    0.0048862338
      4803.23       1.0205763    0.0047720710
      4808.03       1.0241227    0.0047248887
      4812.84       1.0261357    0.0056555075
      4817.66       1.0281509    0.0054990113
      4822.48       1.0296733    0.0050821641
      4827.30       1.0324820    0.0049386584
      4832.12       1.0355655    0.0049388865
      4836.96       1.0387676    0.0050618341
      4841.79       1.0424411    0.0053035021
      4846.63       1.0431408    0.0054947070
      4851.48       1.0419974    0.0056762872
      4856.33       1.0421513    0.0057701430
      4861.19       1.0415780    0.0058727062
      4866.05       1.0421082    0.0059298256
      4870.92       1.0373814    0.0058495355
      4875.79       1.0359536    0.0056882461
      4880.66       1.0354702    0.0055498080
      4885.55       1.0358957    0.0054079506
      4890.43       1.0345717    0.0052827680
      4895.32       1.0361819    0.0052051206
      4900.22       1.0381517    0.0052254298
      4905.12       1.0380357    0.0055896976
      4910.02       1.0380425    0.0053585677
      4914.94       1.0382044    0.0052078601
      4919.85       1.0397291    0.0051575413
      4924.77       1.0408526    0.0051062551
      4929.70       1.0400452    0.0050933136
      4934.62       1.0414529    0.0051166959
      4939.56       1.0420457    0.0051000727
      4944.50       1.0402965    0.0050384852
      4949.44       1.0388654    0.0050170286
      4954.39       1.0365374    0.0050303695
      4959.35       1.0325589    0.0049628309
      4964.31       1.0280711    0.0049352733
      4969.27       1.0274505    0.0049068538
      4974.24       1.0292232    0.0048689922
      4979.22       1.0288490    0.0048363618
      4984.20       1.0308042    0.0048030009
      4989.18       1.0315984    0.0047593068
      4994.17       1.0311061    0.0047222730
      4999.16       1.0312310    0.0046848227
      5004.16       1.0286461    0.0046063737
      5009.17       1.0276774    0.0045960874
      5014.18       1.0274671    0.0045553334
      5019.19       1.0273540    0.0044741532
      5024.21       1.0261644    0.0044598784
      5029.23       1.0240607    0.0043776759
      5034.26       1.0232666    0.0043364409
      5039.30       1.0198459    0.0042965385
      5044.34       1.0181470    0.0042386728
      5049.39       1.0168475    0.0041938252
      5054.43       1.0167374    0.0041517330
      5059.49       1.0177556    0.0040975927
      5064.55       1.0193869    0.0040590913
      5069.61       1.0189896    0.0039861934
      5074.68       1.0182714    0.0039735182
      5079.76       1.0174923    0.0039369842
      5084.84       1.0172944    0.0038635137
      5089.92       1.0162668    0.0038473001
      5095.01       1.0158917    0.0037700455
      5100.11       1.0129699    0.0037257746
      5105.21       1.0153578    0.0036663438
      5110.31       1.0174972    0.0036182283
      5115.42       1.0161588    0.0035702516
      5120.54       1.0148951    0.0035081643
      5125.66       1.0130518    0.0034615352
      5130.79       1.0128635    0.0034050590
      5135.92       1.0130441    0.0033626656
      5141.05       1.0168477    0.0032908015
      5146.20       1.0184177    0.0032681150
      5151.34       1.0203289    0.0032288117
      5156.49       1.0185962    0.0031623419
      5161.65       1.0185293    0.0031423844
      5166.81       1.0189612    0.0030787061
      5171.98       1.0208246    0.0030610501
      5177.15       1.0216169    0.0030002900
      5182.33       1.0224462    0.0029683643
      5187.51       1.0209302    0.0029269391
      5192.70       1.0224572    0.0028969423
      5197.89       1.0237432    0.0028585923
      5203.09       1.0252305    0.0028305050
      5208.29       1.0245641    0.0027785248
      5213.50       1.0218288    0.0027687329
      5218.72       1.0219356    0.0027204521
      5223.93       1.0210179    0.0027134406
      5229.16       1.0196754    0.0026695532
      5234.39       1.0183218    0.0026646200
      5239.62       1.0177596    0.0026219924
      5244.86       1.0179088    0.0026179683
      5250.11       1.0161525    0.0025775118
      5255.36       1.0128396    0.0025588691
      5260.61       1.0151477    0.0025359792
      5265.87       1.0151734    0.0025181005
      5271.14       1.0164130    0.0024965996
      5276.41       1.0182474    0.0024800945
      5281.69       1.0181385    0.0024611106
      5286.97       1.0193681    0.0024470725
      5292.26       1.0218127    0.0024315574
      5297.55       1.0220288    0.0024200216
      5302.85       1.0227990    0.0024071496
      5308.15       1.0231924    0.0023795759
      5313.46       1.0240460    0.0023865494
      5318.77       1.0254658    0.0023614819
      5324.09       1.0252984    0.0023709473
      5329.42       1.0233801    0.0023489412
      5334.75       1.0236473    0.0023606104
      5340.08       1.0240794    0.0023408754
      5345.42       1.0244990    0.0023391006
      5350.77       1.0215731    0.0023388819
      5356.12       1.0184018    0.0023407304
      5361.48       1.0182344    0.0023432126
      5366.83       1.0164067    0.0023482256
      5372.20       1.0163486    0.0023381389
      5377.58       1.0157246    0.0023616583
      5382.95       1.0131641    0.0023540545
      5388.34       1.0119636    0.0023805305
      5393.72       1.0096225    0.0023753542
      5399.12       1.0078192    0.0023908062
      5404.52       1.0069683    0.0024025115
      5409.92       1.0071813    0.0024210713
      5415.33       1.0089890    0.0024551727
      5420.75       1.0096508    0.0024565248
      5426.17       1.0082138    0.0024799001
      5431.60       1.0075014    0.0024972080
      5437.03       1.0086125    0.0025231672
      5442.47       1.0090751    0.0025290984
      5447.91       1.0093523    0.0025707104
      5453.36       1.0076337    0.0026004773
      5458.81       1.0073806    0.0026085720
      5464.27       1.0076515    0.0026539806
      5469.73       1.0093106    0.0026637194
      5475.20       1.0104467    0.0026964754
      5480.68       1.0127304    0.0027216364
      5486.16       1.0121371    0.0027555441
      5491.65       1.0107872    0.0027905667
      5497.14       1.0101184    0.0028170309
      5502.64       1.0094650    0.0028529619
      5508.14       1.0106004    0.0028934596
      5513.65       1.0103966    0.0029279175
      5519.16       1.0085681    0.0029696579
      5524.68       1.0023844    0.0029766144
      5530.20      0.99764676    0.0030339498
      5535.73      0.99484246    0.0030868634
      5541.27      0.99255620    0.0031244200
      5546.81      0.98905912    0.0032017188
      5552.36      0.98555715    0.0032965672
      5557.91      0.98306477    0.0033563893
      5563.47      0.98296215    0.0034486192
      5569.04      0.98312757    0.0035489164
      5574.60      0.98504904    0.0035876323
      5580.18      0.98807755    0.0036430842
      5585.76      0.99168629    0.0036750931
      5591.35      0.98999661    0.0036815456
      5596.94      0.99049761    0.0036748485
      5602.53      0.99276060    0.0036569968
      5608.14      0.99274170    0.0036181354
      5613.75      0.99476024    0.0036309074
      5619.36      0.99300627    0.0036366921
      5624.98      0.99264228    0.0036110077
      5630.60      0.99298274    0.0036010020
      5636.23      0.99319363    0.0036001446
      5641.87      0.99395359    0.0036030511
      5647.51      0.99555141    0.0036051772
      5653.16      0.99349788    0.0036076761
      5658.82      0.99431086    0.0036114024
      5664.47      0.99268413    0.0036146285
      5670.14      0.99325752    0.0036187772
      5675.81      0.99263827    0.0036218485
      5681.48      0.99067615    0.0035977456
      5687.17      0.99079370    0.0035949958
      5692.85      0.98770807    0.0036135857
      5698.55      0.98740874    0.0036026783
      5704.25      0.98829282    0.0035654537
      5709.95      0.99047723    0.0035498208
      5715.66      0.99081101    0.0035326837
      5721.38      0.99467260    0.0035132427
      5727.10      0.99654352    0.0034954087
      5732.83      0.99785266    0.0034714081
      5738.56       1.0007179    0.0034461210
      5744.30      0.99996250    0.0034197967
      5750.04       1.0020250    0.0033938217
      5755.79       1.0008201    0.0033500895
      5761.55       1.0007421    0.0033244537
      5767.31       1.0017916    0.0033214620
      5773.08       1.0006104    0.0032949811
      5778.85      0.99801889    0.0032529802
      5784.63      0.99409317    0.0032324400
      5790.41      0.99283217    0.0032181036
      5796.21      0.99184688    0.0032130900
      5802.00      0.99183297    0.0032148433
      5807.81      0.99450560    0.0031961683
      5813.61      0.99572927    0.0032121310
      5819.43      0.99587448    0.0031967014
      5825.25      0.99348780    0.0031720713
      5831.07      0.99232068    0.0031406423
      5836.90      0.98913820    0.0031048569
      5842.74      0.98831026    0.0030489230
      5848.58      0.98337339    0.0030076299
      5854.43      0.97810507    0.0029685625
      5860.29      0.97743664    0.0029340676
      5866.15      0.97131328    0.0029058391
      5872.01      0.97148939    0.0028811909
      5877.89      0.96910484    0.0028577358
      5883.76      0.96924605    0.0028388259
      5889.65      0.96889795    0.0028141135
      5895.54      0.96951147    0.0027871351
      5901.43      0.96976471    0.0027586210
      5907.34      0.97049066    0.0027325635
      5913.24      0.97282956    0.0027106920
      5919.16      0.97144968    0.0026916655
      5925.08      0.96983785    0.0026733954
      5931.00      0.96880999    0.0026430031
      5936.93      0.96990845    0.0026301633
      5942.87      0.97270498    0.0026221243
      5948.81      0.97387798    0.0026198757
      5954.76      0.97399717    0.0026229115
      5960.72      0.97009123    0.0026308632
      5966.68      0.97119054    0.0026453178
      5972.64      0.97303252    0.0026652534
      5978.62      0.97074068    0.0026903897
      5984.60      0.97346612    0.0027196428
      5990.58      0.97539862    0.0027527348
      5996.57      0.97803398    0.0027686385
      6002.57      0.98088560    0.0028112129
      6008.57      0.98090983    0.0028591969
      6014.58      0.97859734    0.0029128853
      6020.60      0.97964492    0.0029718350
      6026.62      0.97823718    0.0030358439
      6032.65      0.97548115    0.0031045315
      6038.68      0.97724992    0.0031783776
      6044.72      0.98153384    0.0032574234
      6050.76      0.98566977    0.0033409348
      6056.81      0.98744799    0.0034288159
      6062.87      0.98612709    0.0035107284
      6068.93      0.98527842    0.0036075114
      6075.00      0.98488260    0.0037083692
      6081.08      0.98620192    0.0038130429
      6087.16      0.98300546    0.0039231123
      6093.25      0.97908328    0.0040448240
      6099.34      0.97842364    0.0041815653
      6105.44      0.97792712    0.0043201835
      6111.54      0.97511420    0.0044442999
      6117.66      0.97169642    0.0045744386
      6123.78      0.96580358    0.0047545499
      6129.90      0.96374969    0.0049964420
      6136.03      0.96892352    0.0046846790
      6142.17      0.96337708    0.0049640635
      6148.31      0.96201779    0.0052706144
      6154.46      0.96212188    0.0056004676
      6160.61      0.96264403    0.0059495781
      6166.77      0.96773078    0.0063064516
      6172.94      0.97264733    0.0066539310
      6179.11      0.97303720    0.0069686679
      6185.29      0.97208769    0.0072238333
      6191.48      0.97013163    0.0073958691
      6197.67      0.97425576    0.0074165774
      6203.87      0.97072083    0.0073968065
      6210.07      0.95072803    0.0056099742
      6216.28      0.95038287    0.0056711720
      6222.50      0.94822052    0.0057210249
      6228.72      0.94666764    0.0057497021
      6234.95      0.94456678    0.0057607032
      6241.19      0.94158367    0.0057374323
      6247.42      0.94298766    0.0057293537
      6253.67      0.94512664    0.0057212047
      6259.93      0.94305369    0.0057214097
      6266.19      0.93978446    0.0057441254
      6272.46      0.94023767    0.0058089304
      6278.73      0.94110347    0.0059613260
      6285.01      0.93895654    0.0060968445
      6291.29      0.94117971    0.0061477355
      6297.58      0.94105431    0.0062091872
      6303.88      0.93862636    0.0062936724
      6310.19      0.93609003    0.0063654688
      6316.50      0.93274002    0.0064115070
      6322.81      0.93269820    0.0064616435
      6329.14      0.93456153    0.0065180058
      6335.47      0.93604665    0.0065815971
      6341.80      0.93633175    0.0066401273
      6348.14      0.94367446    0.0067142879
      6354.49      0.94924347    0.0068224633
      6360.85      0.95046159    0.0068886605
      6367.21      0.95672542    0.0069662279
      6373.57      0.96021829    0.0070429344
      6379.95      0.95329960    0.0071182935
      6386.33      0.94662238    0.0071778830
      6392.72      0.94628130    0.0072485162
      6399.11      0.94822753    0.0073486316
      6405.51      0.94866606    0.0073994198
      6411.92      0.94235441    0.0074624486
      6418.32      0.93811496    0.0075231938
      6424.74      0.93807991    0.0075652556
      6431.17      0.93441637    0.0076208238
      6437.60      0.93105620    0.0076863511
      6444.04      0.94118887    0.0077354839
      6450.48      0.94943109    0.0077820104
      6456.94      0.96892148     0.011152125
      6463.39      0.97636589     0.011207583
      6469.85      0.98669515     0.011334071
      6476.33      0.98220925     0.011322212
      6482.80      0.97226344     0.011363586
      6489.28      0.97230595     0.011399039
      6495.77      0.96577353     0.011439179
      6502.27      0.98237817     0.011463382
      6508.77       1.0198777     0.011485591
      6515.28       1.0608585     0.011440607
      6521.80       1.0979464     0.011519901
      6528.32       1.1467878     0.011468085
      6534.85       1.1892228     0.011479274
      6541.38       1.2109373     0.011557784
      6547.92       1.2269205     0.011513252
      6554.47       1.2460032     0.011533961
      6561.03       1.2511761     0.011495420
      6567.59       1.2470078     0.011602824
      6574.16       1.2362614     0.011653209
      6580.73       1.2115602     0.011656751
      6587.31       1.1820793     0.011790546
      6593.90       1.1459261     0.011801522
      6600.50       1.1093222     0.011868713
      6607.10       1.0673243     0.011989738
      6613.70       1.0320551     0.011891235
      6620.32      0.99791289     0.011833831
      6626.94      0.98608589     0.011755945
      6633.57      0.98450801     0.011678123
      6640.20      0.98173477     0.011518285
      6646.84      0.99259629     0.011471895
      6653.49       1.0018231     0.011284718
      6660.14       1.0052375     0.011216631
      6666.80       1.0029058     0.011100404
      6673.47      0.98111358    0.0094375212
      6680.14      0.96788330    0.0093456193
      6686.82      0.96159106    0.0092084570
      6693.51      0.96152189    0.0091529249
      6700.20      0.96076885    0.0090179121
      6706.90      0.95959348    0.0089298276
      6713.61      0.95839930    0.0088172732
      6720.32      0.96306274    0.0087276696
      6727.05      0.94773065    0.0086173075
      6733.77      0.94219970    0.0085307501
      6740.51      0.93470951    0.0084047102
      6747.25      0.93265658    0.0083660846
      6754.00      0.93257549    0.0082598132
      6760.75      0.93381856    0.0082124215
      6767.51      0.94028085    0.0080978622
      6774.28      0.94536383    0.0080643534
      6781.05      0.93794696    0.0079771208
      6787.84      0.93229978    0.0079033516
      6794.62      0.92991095    0.0079020050
      6801.42      0.92441326    0.0078458993
      6808.22      0.91973217    0.0078568515
      6815.03      0.91607543    0.0078173488
      6821.85      0.91128525    0.0078488503
      6828.67      0.90700265    0.0078310573
      6835.50      0.90660612    0.0078547074
      6842.33      0.90523925    0.0078809675
      6849.17      0.89733710    0.0079256061
      6856.02      0.90031124    0.0079711781
      6862.88      0.90799098    0.0080405403
      6869.74      0.91465893    0.0080825470
      6876.61      0.91949604    0.0081972640
      6883.49      0.92114215    0.0082597104
      6890.37      0.92232381    0.0083781296
      6897.27      0.92022503    0.0084806619
      6904.16      0.92356364    0.0086226062
      6911.07      0.94209464    0.0087429910
      6917.98      0.95375375    0.0089061908
      6924.89      0.97644060    0.0090249407
      6931.82      0.99621487    0.0092275642
      6938.75       1.0097286    0.0093611640
      6945.69       1.0206486    0.0095617410
      6952.64       1.0195055    0.0097289800
      6959.59       1.0170264    0.0099448776
      6966.55       1.0208598     0.010104645
      6973.52       1.0247068     0.010352881
      6980.49       1.0284551     0.010586715
      6987.47       1.0293803     0.010755700
      6994.46       1.0333245     0.010995340
      7001.46       1.0355920     0.011186377
      7008.46       1.0327483     0.011428019
      7015.46       1.0328272     0.011667915
      7022.48       1.0268578     0.011854451
      7029.51       1.0207066     0.012086466
      7036.53       1.0149927     0.012236807
      7043.57       1.0034938     0.012455155
      7050.62      0.98747768     0.012732936
      7057.66      0.97727800     0.013066285
      7064.72      0.95997401     0.013511574
      7071.79      0.95074722     0.013476897
      7078.86      0.96099945     0.013397152
      7085.94      0.98119978     0.013476211
      7093.03      0.98114736     0.013660881
      7100.12      0.97576104     0.013972853
      7107.22      0.98897013     0.014342870
      7114.33      0.98247069     0.014645894
      7121.44      0.98246831     0.014994567
      7128.56      0.96990181     0.015302048
      7135.69      0.95987278     0.015438678
      7142.83      0.94368477     0.015686801
      7149.97      0.92613106     0.015731310
      7157.12      0.91337838     0.015531875
      7164.28      0.90811479     0.015291522
      7171.44      0.89607485     0.014954820
      7178.62      0.88977919     0.014595484
      7185.80      0.87818104     0.014144044
      7192.98      0.87859825     0.013683241
      7200.17      0.88542707     0.013216562
      7207.38      0.89279776     0.012744930
      7214.58      0.89355223     0.012361837
      7221.80      0.89470363     0.012113076
      7229.02      0.90281351     0.011829231
      7236.25      0.90787623     0.011773480
      7243.49      0.91797360     0.011504340
      7250.73      0.92655113     0.011003990
      7257.98      0.93365416     0.010519775
      7265.24      0.93465231     0.010074951
      7272.51      0.94405792    0.0096077820
      7279.78      0.94812568    0.0092125373
      7287.06      0.95772133    0.0087114170
      7294.35      0.96985067    0.0082113757
      7301.64      0.96632718    0.0077367932
      7308.94      0.96133246    0.0072788513
      7316.25      0.95779300    0.0068224500
      7323.57      0.96380676    0.0063945997
      7330.89      0.96336554    0.0059878402
      7338.22      0.96097307    0.0056111889
      7345.56      0.95949234    0.0052629167
      7352.91      0.96412473    0.0049384491
      7360.26      0.96506922    0.0046626365
      7367.62      0.96552855    0.0044054004
      7374.99      0.96824266    0.0041815650
      7382.37      0.97139810    0.0040104740
      7389.75      0.97827993    0.0038381238
      7397.14      0.98340267    0.0036991751
      7404.53      0.98830562    0.0035711925
      7411.94      0.98978889    0.0035474705
      7419.35      0.99157627    0.0035553146
      7426.77      0.99279737    0.0036118366
      7434.20      0.99402665    0.0036761025
      7441.63      0.99466681    0.0038305449
      7449.07      0.99397069    0.0039968075
      7456.52      0.99207117    0.0043026884
      7463.98      0.99051075    0.0047912885
      7471.45      0.98526808    0.0053426036
      7478.92      0.97606703    0.0063495314
      7486.40      0.96233619    0.0075299540
      7493.88      0.94740816    0.0096028983
      7501.38      0.92902991     0.012057099
