# starting wavelength =        4501.6100
# ending wavelength =        7102.6000
# O2 telluric scale =        0
# O2 telluric shift =        0
# H2O telluric scale =        0
# H2O telluric shift =        0
      4505.58      0.41548780    0.0045264415
      4510.09      0.41559607    0.0038343146
      4514.60      0.41341848    0.0032707630
      4519.12      0.41171859    0.0028532756
      4523.63      0.41065382    0.0024995576
      4528.16      0.41038352    0.0022424619
      4532.69      0.41144955    0.0020275804
      4537.22      0.41443462    0.0018738868
      4541.76      0.41707637    0.0017466852
      4546.30      0.42035789    0.0016534331
      4550.85      0.42475471    0.0015838904
      4555.40      0.42904809    0.0015264083
      4559.95      0.43260449    0.0014849882
      4564.51      0.43633199    0.0014505832
      4569.08      0.44143455    0.0014239483
      4573.65      0.44767211    0.0014042629
      4578.22      0.45364945    0.0013884280
      4582.80      0.46072343    0.0013945484
      4587.38      0.46730678    0.0014076378
      4591.97      0.47514131    0.0014240223
      4596.56      0.48295821    0.0014418502
      4601.16      0.49035721    0.0014633987
      4605.76      0.49918973    0.0014845988
      4610.37      0.50767600    0.0015079805
      4614.98      0.51846738    0.0015306872
      4619.59      0.52898851    0.0015560986
      4624.21      0.53814823    0.0015807301
      4628.84      0.54775494    0.0016003249
      4633.47      0.55853479    0.0016221302
      4638.10      0.56926132    0.0016419003
      4642.74      0.57831344    0.0016562277
      4647.38      0.58907123    0.0016672982
      4652.03      0.59495856    0.0016767280
      4656.68      0.59994300    0.0016820378
      4661.34      0.60500986    0.0016776671
      4666.00      0.61076053    0.0016738108
      4670.67      0.61651075    0.0016653020
      4675.33      0.61957876    0.0016484681
      4680.01      0.62131602    0.0016307195
      4684.69      0.62084097    0.0016088495
      4689.38      0.62076244    0.0015789347
      4694.07      0.62228059    0.0015495980
      4698.76      0.62343562    0.0015132423
      4703.46      0.62710881    0.0014790139
      4708.16      0.63006660    0.0014429073
      4712.87      0.63332362    0.0014018672
      4717.58      0.63257077    0.0013650465
      4722.30      0.63381217    0.0013282636
      4727.03      0.63337442    0.0012890744
      4731.75      0.63275102    0.0012558873
      4736.48      0.63075160    0.0012215034
      4741.22      0.62850681    0.0011935437
      4745.96      0.62345792    0.0011664014
      4750.71      0.61752921    0.0011473287
      4755.46      0.61105697    0.0011322423
      4760.22      0.60343832    0.0011196100
      4764.97      0.59443153    0.0011093253
      4769.74      0.58559230    0.0011002139
      4774.51      0.57593203    0.0010987479
      4779.29      0.56728157    0.0011035792
      4784.07      0.55715699    0.0011147796
      4788.85      0.55049868    0.0011299258
      4793.64      0.54579525    0.0011539496
      4798.43      0.54402399    0.0011843364
      4803.23      0.54250873    0.0012224661
      4808.03      0.54274487    0.0012677316
      4812.84      0.54327868    0.0013200705
      4817.66      0.54259202    0.0013868442
      4822.48      0.54228961    0.0014392436
      4827.30      0.55004913    0.0021927779
      4832.12      0.54997706    0.0023164575
      4836.96      0.55189954    0.0024438185
      4841.79      0.54746453    0.0026718115
      4846.63      0.54539412    0.0026926801
      4851.48      0.54278410    0.0028957808
      4856.33      0.54542438    0.0031680389
      4861.19      0.55144346    0.0034326058
      4866.05      0.56074807    0.0035625243
      4870.92      0.56997840    0.0035101146
      4875.79      0.57616748    0.0033668649
      4880.66      0.58266865    0.0032440821
      4885.55      0.57888435    0.0034718518
      4890.43      0.58083893    0.0032301765
      4895.32      0.58340720    0.0031693320
      4900.22      0.58710519    0.0031161154
      4905.12      0.57155278    0.0030781686
      4910.02      0.56441511    0.0029807752
      4914.94      0.57442995    0.0029829978
      4919.85      0.59690834    0.0029842464
      4924.77      0.65673236    0.0019627538
      4929.70      0.66838534    0.0018912391
      4934.62      0.67816232    0.0018310024
      4939.56      0.68271874    0.0017643636
      4944.50      0.68339301    0.0017066431
      4949.44      0.68055541    0.0016499583
      4954.39      0.67536448    0.0016045698
      4959.35      0.66800296    0.0015624995
      4964.31      0.65718780    0.0015325361
      4969.27      0.64596158    0.0015405764
      4974.24      0.61779249    0.0015384075
      4979.22      0.59895433    0.0014739231
      4984.20      0.58900285    0.0014562793
      4989.18      0.58765794    0.0014567154
      4994.17      0.59449846    0.0014693454
      4999.16      0.60864907    0.0014875065
      5004.16      0.62891514    0.0015041981
      5009.17      0.65248620    0.0015251186
      5014.18      0.67841531    0.0015339731
      5019.19      0.70790829    0.0015404992
      5024.21      0.73503639    0.0015308755
      5029.23      0.75708229    0.0015110748
      5034.26      0.77469085    0.0014806149
      5039.30      0.78435476    0.0014399909
      5044.34      0.78752298    0.0013940827
      5049.39      0.78429207    0.0013437123
      5054.43      0.77856058    0.0012944951
      5059.49      0.76304110    0.0012444870
      5064.55      0.74448055    0.0012005988
      5069.61      0.72605645    0.0011483931
      5074.68      0.71242391    0.0010915896
      5079.76      0.69882613    0.0010431264
      5084.84      0.68554410   0.00099874901
      5089.92      0.67257030   0.00096008294
      5095.01      0.66037490   0.00092750183
      5100.11      0.64946674   0.00090333105
      5105.21      0.63938408   0.00088861975
      5110.31      0.62981267   0.00088743380
      5115.42      0.62196404   0.00090071511
      5120.54      0.61453808   0.00093045053
      5125.66      0.60665563   0.00096628684
      5130.79      0.60005093    0.0010217534
      5135.92      0.59426332    0.0010967812
      5141.05      0.58940410    0.0011893752
      5146.20      0.58635174    0.0012979574
      5151.34      0.58585055    0.0014153693
      5156.49      0.58311636    0.0015495979
      5161.65      0.58773694    0.0016919488
      5166.81      0.59324867    0.0018339701
      5171.98      0.60242278    0.0019690130
      5177.15      0.61662633    0.0020621885
      5182.33      0.62894072    0.0021069599
      5187.51      0.64110911    0.0021053081
      5192.70      0.64545883    0.0020586630
      5197.89      0.65046853    0.0019799038
      5203.09      0.65703543    0.0018779413
      5208.29      0.66257442    0.0017767563
      5213.50      0.66730391    0.0016797005
      5218.72      0.67394273    0.0015900233
      5223.93      0.67642739    0.0015134700
      5229.16      0.67763340    0.0014430518
      5234.39      0.67687158    0.0013827782
      5239.62      0.67468059    0.0013422680
      5244.86      0.67323411    0.0013185702
      5250.11      0.67417829    0.0013179001
      5255.36      0.67558372    0.0013371956
      5260.61      0.67998098    0.0013743969
      5265.87      0.68382680    0.0014331576
      5271.14      0.68809680    0.0014940419
      5276.41      0.69506125    0.0015689031
      5281.69      0.70073581    0.0016608611
      5286.97      0.70585203    0.0017609008
      5292.26      0.70650068    0.0018704367
      5297.55      0.71730259    0.0019673668
      5302.85      0.73243269    0.0020519573
      5308.15      0.74904684    0.0021131250
      5313.46      0.76590068    0.0021777771
      5318.77      0.78158110    0.0021120738
      5324.09      0.79521846    0.0020410115
      5329.42      0.80865992    0.0019661447
      5334.75      0.82158476    0.0018684169
      5340.08      0.83273766    0.0017632379
      5345.42      0.84486703    0.0016616612
      5350.77      0.85604721    0.0015576871
      5356.12      0.86442965    0.0014604044
      5361.48      0.87053837    0.0013744768
      5366.83      0.87445950    0.0013043813
      5372.20      0.87713930    0.0012466329
      5377.58      0.88038616    0.0011943820
      5382.95      0.88377718    0.0011578822
      5388.34      0.88639797    0.0011339223
      5393.72      0.88987897    0.0011213553
      5399.12      0.89562792    0.0011181867
      5404.52      0.90069822    0.0011221348
      5409.92      0.90619608    0.0011352060
      5415.33      0.91152996    0.0011559979
      5420.75      0.91578832    0.0011534942
      5426.17      0.92219713    0.0011624483
      5431.60      0.92611576    0.0011686798
      5437.03      0.92949729    0.0011740005
      5442.47      0.93105360    0.0011757195
      5447.91      0.93210761    0.0011721326
      5453.36      0.93211365    0.0011680411
      5458.81      0.92922200    0.0011626129
      5464.27      0.92482515    0.0011573999
      5469.73      0.92035179    0.0011527816
      5475.20      0.91781971    0.0011531351
      5480.68      0.91518271    0.0011586196
      5486.16      0.91375041    0.0011704075
      5491.65      0.91341268    0.0011892639
      5497.14      0.91947152    0.0012131084
      5502.64      0.92942806    0.0012456431
      5508.14      0.94130513    0.0012857101
      5513.65      0.95644444    0.0013311482
      5519.16      0.97347871    0.0013801768
      5524.68      0.99069900    0.0014298103
      5530.20       1.0093912    0.0014777032
      5535.73       1.0261448    0.0015200228
      5541.27       1.0426302    0.0015529255
      5546.81       1.0564303    0.0015699581
      5552.36       1.0649903    0.0015731428
      5557.91       1.0688873    0.0015584204
      5563.47       1.0659173    0.0015215349
      5569.04       1.0605459    0.0014731974
      5574.60       1.0535006    0.0014129694
      5580.18       1.0424564    0.0013404865
      5585.76       1.0329583    0.0012691503
      5591.35       1.0247404    0.0011931925
      5596.94       1.0176309    0.0011253058
      5602.53       1.0132083    0.0010625395
      5608.14       1.0099805    0.0010037395
      5613.75       1.0061752   0.00095506004
      5619.36       1.0050525   0.00091312077
      5624.98       1.0029766   0.00088189258
      5630.60       1.0023396   0.00085734226
      5636.23       1.0024194   0.00084165610
      5641.87       1.0021124   0.00083599838
      5647.51       1.0024571   0.00083556218
      5653.16       1.0023574   0.00084248962
      5658.82       1.0020755   0.00085458509
      5664.47       1.0010419   0.00087352517
      5670.14      0.99968276   0.00089609686
      5675.81      0.99835092   0.00092239492
      5681.48      0.99648845   0.00095521037
      5687.17      0.99404078   0.00098950790
      5692.85      0.99354024    0.0010288514
      5698.55      0.99311761    0.0010675686
      5704.25      0.99170786    0.0011070297
      5709.95      0.99090413    0.0011549935
      5715.66      0.98996038    0.0012130562
      5721.38      0.98681585    0.0012865323
      5727.10      0.98691347    0.0013742781
      5732.83      0.98391938    0.0014912795
      5738.56      0.98381467    0.0016572473
      5744.30      0.98214639    0.0019211758
      5750.04      0.97910940    0.0016370421
      5755.79      0.97759224    0.0017208626
      5761.55      0.97438340    0.0018605415
      5767.31      0.97038574    0.0020349879
      5773.08      0.96372464    0.0022351254
      5778.85      0.95773493    0.0024444467
      5784.63      0.95386825    0.0027353118
      5790.41      0.95059940    0.0027898583
      5796.21      0.94869691    0.0027739965
      5802.00      0.94580559    0.0026834399
      5807.81      0.94164835    0.0026143122
      5813.61      0.93467686    0.0025705919
      5819.43      0.92808057    0.0025411113
      5825.25      0.92317374    0.0031008427
      5831.07      0.91691801    0.0027742036
      5836.90      0.90964463    0.0026516204
      5842.74      0.90134324    0.0026571688
      5848.58      0.89201417    0.0027957383
      5854.43      0.88165979    0.0031501335
      5860.29      0.88294206    0.0029894385
      5866.15      0.88372237    0.0030273124
      5872.01      0.88123075    0.0033031022
      5877.89      0.87820772    0.0036770810
      5883.76      0.88346901    0.0041236615
      5889.65      0.89796990    0.0045879892
      5895.54      0.92633874    0.0049274448
      5901.43      0.95789770    0.0049083168
      5907.34      0.97803447    0.0044560851
      5913.24      0.98951268    0.0038400281
      5919.16      0.99124334    0.0031670682
      5925.08      0.99706593    0.0025812483
      5931.00       1.0037635    0.0021960803
      5936.93       1.0282674    0.0022802906
      5942.87       1.0300563    0.0017486576
      5948.81       1.0311779    0.0013682222
      5954.76       1.0367682    0.0010933431
      5960.72       1.0450300   0.00088558693
      5966.68       1.0528195   0.00073415481
      5972.64       1.0586151   0.00062823638
      5978.62       1.0614780   0.00054806861
      5984.60       1.0624105   0.00046258510
      5990.58       1.0620291   0.00041280395
      5996.57       1.0600777   0.00038953835
      6002.57       1.0563990   0.00038428124
      6008.57       1.0517155   0.00039234736
      6014.58       1.0464201   0.00040917683
      6020.60       1.0409985   0.00043327800
      6026.62       1.0358631   0.00046480547
      6032.65       1.0306542   0.00049833002
      6038.68       1.0255004   0.00053840237
      6044.72       1.0184264   0.00059412765
      6050.76       1.0099715   0.00066354325
      6056.81      0.99927413   0.00074465592
      6062.87       1.0019356   0.00082189824
      6068.93       1.0070042   0.00089225167
      6075.00       1.0114774   0.00093551241
      6081.08       1.0139576   0.00095721299
      6087.16       1.0156545   0.00096508517
      6093.25       1.0188792   0.00095964424
      6099.34       1.0190531   0.00094451937
      6105.44       1.0234391   0.00092794462
      6111.54       1.0287249   0.00091203765
      6117.66       1.0338938   0.00089955511
      6123.78       1.0394053   0.00089333689
      6129.90       1.0445839   0.00089407203
      6136.03       1.0496139   0.00090127474
      6142.17       1.0538162   0.00091810708
      6148.31       1.0561768   0.00094376770
      6154.46       1.0567129   0.00097597497
      6160.61       1.0577548    0.0010194593
      6166.77       1.0577991    0.0010720827
      6172.94       1.0571516    0.0011335813
      6179.11       1.0541027    0.0011999170
      6185.29       1.0513826    0.0012760187
      6191.48       1.0461923    0.0013565906
      6197.67       1.0392754    0.0014393482
      6203.87       1.0346774    0.0015201812
      6210.07       1.0347905    0.0015945046
      6216.28       1.0342521    0.0016544584
      6222.50       1.0539329    0.0016895668
      6228.72       1.0754591    0.0017030496
      6234.95       1.0949055    0.0016903938
      6241.19       1.1149312    0.0016489918
      6247.42       1.1309036    0.0015926496
      6253.67       1.1413307    0.0015195857
      6259.93       1.1482018    0.0014447297
      6266.19       1.1493211    0.0013691994
      6272.46       1.1470193    0.0012931053
      6278.73       1.1415478    0.0012293702
      6285.01       1.1328568    0.0011720853
      6291.29       1.1210725    0.0011488382
      6297.58       1.1032768    0.0011052065
      6303.88       1.0866131    0.0010856017
      6310.19       1.0695894    0.0010829343
      6316.50       1.0513274    0.0010960601
      6322.81       1.0381656    0.0011208511
      6329.14       1.0286805    0.0011510565
      6335.47       1.0227977    0.0011817113
      6341.80       1.0187519    0.0012107708
      6348.14       1.0174477    0.0012369904
      6354.49       1.0169532    0.0012535106
      6360.85       1.0177447    0.0012554724
      6367.21       1.0182600    0.0012507906
      6373.57       1.0232026    0.0012329902
      6379.95       1.0271531    0.0012073780
      6386.33       1.0327574    0.0011796619
      6392.72       1.0397632    0.0011538144
      6399.11       1.0446937    0.0011475883
      6405.51       1.0489106    0.0011246700
      6411.92       1.0541770    0.0011262166
      6418.32       1.0642367    0.0011188751
      6424.74       1.0762740    0.0011352487
      6431.17       1.0879649    0.0011614293
      6437.60       1.0978255    0.0011985126
      6444.04       1.1086264    0.0012399358
      6450.48       1.1218356    0.0012865728
      6456.94       1.1343868    0.0013426978
      6463.39       1.1434939    0.0013716808
      6469.85       1.1523746    0.0013985842
      6476.33       1.1589862    0.0014167968
      6482.80       1.1632650    0.0014275242
      6489.28       1.1644440    0.0014253447
      6495.77       1.1721242    0.0014246952
      6502.27       1.1801950    0.0014595379
      6508.77       1.1821452    0.0014607029
      6515.28       1.1746167    0.0013495862
      6521.80       1.2042987    0.0018392219
      6528.32       1.2284608    0.0017800509
      6534.85       1.2555101    0.0018209184
      6541.38       1.2797184    0.0017344366
      6547.92       1.3250212    0.0017125394
      6554.47       1.3906860    0.0018825548
      6561.03       1.4835161    0.0021166681
      6567.59       1.6041812    0.0023338390
      6574.16       1.6922507    0.0022790595
      6580.73       1.7148155    0.0021300875
      6587.31       1.6926355    0.0020171512
      6593.90       1.6019633    0.0022594457
      6600.50       1.5337376    0.0020664699
      6607.10       1.4695286    0.0019459238
      6613.70       1.4039647    0.0019121174
      6620.32       1.3534615    0.0018477225
      6626.94       1.3214233    0.0017571057
      6633.57       1.2903225    0.0011417599
      6640.20       1.2606424    0.0010929388
      6646.84       1.2351822    0.0010507700
      6653.49       1.2137622    0.0010146282
      6660.14       1.1972560   0.00098067829
      6666.80       1.1813598   0.00095374727
      6673.47       1.1660331   0.00093707902
      6680.14       1.1536009   0.00092131897
      6686.82       1.1420733   0.00090668993
      6693.51       1.1303432   0.00089584753
      6700.20       1.1189464   0.00089147080
      6706.90       1.1082279   0.00088780411
      6713.61       1.0982728   0.00088491736
      6720.32       1.0892822   0.00087957118
      6727.05       1.0812929   0.00086902717
      6733.77       1.0745673   0.00085350619
      6740.51       1.0686820   0.00083642420
      6747.25       1.0646413   0.00080896321
      6754.00       1.0653862   0.00076982512
      6760.75       1.0670933   0.00073124771
      6767.51       1.0697309   0.00069255867
      6774.28       1.0728085   0.00065630151
      6781.05       1.0772353   0.00062405486
      6787.84       1.0807730   0.00059721224
      6794.62       1.0858220   0.00057709388
      6801.42       1.0901510   0.00056348454
      6808.22       1.0942897   0.00055512182
      6815.03       1.0974393   0.00054928293
      6821.85       1.0998738   0.00054536170
      6828.67       1.1012343   0.00054265738
      6835.50       1.1025247   0.00053874135
      6842.33       1.1021378   0.00053240214
      6849.17       1.1015848   0.00051794044
      6856.02       1.1006715   0.00050189870
      6862.88       1.0998275   0.00048477807
      6869.74       1.0980855   0.00046793578
      6876.61       1.0962089   0.00045144555
      6883.49       1.0934923   0.00043668681
      6890.37       1.0900233   0.00042410349
      6897.27       1.0873740   0.00041431877
      6904.16       1.0845401   0.00040891346
      6911.07       1.0815286   0.00040674057
      6917.98       1.0794343   0.00040854813
      6924.89       1.0778167   0.00041230817
      6931.82       1.0771863   0.00041831474
      6938.75       1.0777197   0.00042513285
      6945.69       1.0780802   0.00043163953
      6952.64       1.0792512   0.00043772588
      6959.59       1.0812641   0.00044103060
      6966.55       1.0834522   0.00044233581
      6973.52       1.0860524   0.00044015245
      6980.49       1.0896555   0.00043628900
      6987.47       1.0946293   0.00043205721
      6994.46       1.0990633   0.00043991082
      7001.46       1.1010376   0.00043868101
      7008.46       1.1035985   0.00043886277
      7015.46       1.1063284   0.00043983845
      7022.48       1.1086857   0.00044136727
      7029.51       1.1118140   0.00044520012
      7036.53       1.1151177   0.00044981769
      7043.57       1.1183531   0.00045645507
      7050.62       1.1215163   0.00046639874
      7057.66       1.1245653   0.00047768040
      7064.72       1.1267391   0.00049224629
      7071.79       1.1279845   0.00051111260
      7078.86       1.1285484   0.00053830876
      7085.94       1.1279622   0.00057239399
      7093.03       1.1261814   0.00062079067
      7100.12       1.1234976   0.00069297652
