# starting wavelength =        2824.3667
# ending wavelength =        8489.3321
# O2 telluric scale =        0
# O2 telluric shift =        0
# H2O telluric scale =        0
# H2O telluric shift =        0
      2825.06      0.67598907      0.16823950
      2827.88      0.67688825      0.16688386
      2830.71      0.67140211      0.16482814
      2833.54      0.67651916      0.16334464
      2836.38      0.65826346      0.16173340
      2839.21      0.66386646      0.15949159
      2842.05      0.65682230      0.15786544
      2844.90      0.64135745      0.15560773
      2847.74      0.64948158      0.15400334
      2850.59      0.64037940      0.15187133
      2853.44      0.63837914      0.15036239
      2856.29      0.64382583      0.14833876
      2859.15      0.64868121      0.14704060
      2862.01      0.65085965      0.14575805
      2864.87      0.62911042      0.14410266
      2867.74      0.62739137      0.14294998
      2870.60      0.65613889      0.14144388
      2873.47      0.65066664      0.14031595
      2876.35      0.64647751      0.13875827
      2879.22      0.65550258      0.13778222
      2882.10      0.66137715      0.13641825
      2884.99      0.67987451      0.13550477
      2887.87      0.67252020      0.13426876
      2890.76      0.65423648      0.13336840
      2893.65      0.66420244      0.13211938
      2896.54      0.67844156      0.13129065
      2899.44      0.68207962      0.13018491
      2902.34      0.68038619      0.12934711
      2905.24      0.66641331      0.12808094
      2908.15      0.67359856      0.12724629
      2911.06      0.65542327      0.12591896
      2913.97      0.68714428      0.12502988
      2916.88      0.70726060      0.12388838
      2919.80      0.69690703      0.12304810
      2922.72      0.72439569      0.12180676
      2925.64      0.73327672      0.12106222
      2928.57      0.72725111      0.11987305
      2931.50      0.73795293      0.11906508
      2934.43      0.71282772      0.11801116
      2937.36      0.70544899      0.11726050
      2940.30      0.72496264      0.11619996
      2943.24      0.71996603      0.11563187
      2946.18      0.71920333      0.11469577
      2949.13      0.72526704      0.11438755
      2952.08      0.74660363      0.11353048
      2955.03      0.79098327      0.11286885
      2957.99      0.80488942      0.11189503
      2960.94      0.78488747      0.11135856
      2963.90      0.78286798      0.11038812
      2966.87      0.76695082      0.10973578
      2969.84      0.76765419      0.10896497
      2972.81      0.78513953      0.10818996
      2975.78      0.78042363      0.10770057
      2978.76      0.76364739      0.10705714
      2981.73      0.75926442      0.10659248
      2984.72      0.78181622      0.10589589
      2987.70      0.80441958      0.10535245
      2990.69      0.80006480      0.10453460
      2993.68      0.79936231      0.10414595
      2996.67      0.78818339      0.10332304
      2999.67      0.80131816      0.10251943
      3002.67      0.80837909      0.10208504
      3005.67      0.78898496      0.10128275
      3008.68      0.77030754      0.10086407
      3011.69      0.79553827      0.10010038
      3014.70      0.79296245     0.099597815
      3017.71      0.80847489     0.098908045
      3020.73      0.81105244     0.098129646
      3023.75      0.82453148     0.097726399
      3026.78      0.82283916     0.096942823
      3029.80      0.83657557     0.096441057
      3032.83      0.82419510     0.095787384
      3035.87      0.83191929     0.095289729
      3038.90      0.85065852     0.094888976
      3041.94      0.86701727     0.094135313
      3044.98      0.89542898     0.093655871
      3048.03      0.89823282     0.092991597
      3051.08      0.89258932     0.092295502
      3054.13      0.90472944     0.092005851
      3057.18      0.91008441     0.091293722
      3060.24      0.90214200     0.090519046
      3063.30      0.92666743     0.090086177
      3066.36      0.91930859     0.089324026
      3069.43      0.91432457     0.088839588
      3072.50      0.90847373     0.088035067
      3075.57      0.90325053     0.087286902
      3078.65      0.89484033     0.086756165
      3081.73      0.89011414     0.086073702
      3084.81      0.89336968     0.085300818
      3087.89      0.90736307     0.084797002
      3090.98      0.91082166     0.084153053
      3094.07      0.91111146     0.083442943
      3097.17      0.91451825     0.083046349
      3100.26      0.92500743     0.082378169
      3103.36      0.91790118     0.082017257
      3106.47      0.91938452     0.081396209
      3109.58      0.90523671     0.080866367
      3112.68      0.90848712     0.080497792
      3115.80      0.89456618     0.080035330
      3118.91      0.90198200     0.079482453
      3122.03      0.90141150     0.079100377
      3125.15      0.87766848     0.078514678
      3128.28      0.89119940     0.077849440
      3131.41      0.90135921     0.077225658
      3134.54      0.89654667     0.076741487
      3137.67      0.88961432     0.076136317
      3140.81      0.87616690     0.075563174
      3143.95      0.88041620     0.075273078
      3147.10      0.87927104     0.074715161
      3150.24      0.87109814     0.074226010
      3153.39      0.88004311     0.073856266
      3156.55      0.87063684     0.073329994
      3159.70      0.86391654     0.072703315
      3162.86      0.85026626     0.072122795
      3166.03      0.83530253     0.071739916
      3169.19      0.83106101     0.071309973
      3172.36      0.82813806     0.071012460
      3175.54      0.82848912     0.071294316
      3178.71      0.84166668     0.070831627
      3181.89      0.85466194     0.070232632
      3185.07      0.84973417     0.069596447
      3188.26      0.85488079     0.069274605
      3191.45      0.87104662     0.068690224
      3194.64      0.86672597     0.068146746
      3197.83      0.86572881     0.067609351
      3201.03      0.83638497     0.067329892
      3204.23      0.82115119     0.066874855
      3207.44      0.82722528     0.066380946
      3210.64      0.81997215     0.065979376
      3213.85      0.82767149     0.065705438
      3217.07      0.84524980     0.065354158
      3220.28      0.85400042     0.064977102
      3223.51      0.84439890     0.064677301
      3226.73      0.84893596     0.064473567
      3229.96      0.85499036     0.064175857
      3233.19      0.84919016     0.063823955
      3236.42      0.84532935     0.063576206
      3239.66      0.84525835     0.063484304
      3242.90      0.84782168     0.063213068
      3246.14      0.85941856     0.063011529
      3249.39      0.86293287     0.062749821
      3252.64      0.86464970     0.062581633
      3255.89      0.88699607     0.062475261
      3259.14      0.90644878     0.062314512
      3262.40      0.90675282     0.062153495
      3265.67      0.90759404     0.061910865
      3268.93      0.90095648     0.061719364
      3272.20      0.91479118     0.061625135
      3275.47      0.93948754     0.061519782
      3278.75      0.94483989     0.061436039
      3282.03      0.93453438     0.061261050
      3285.31      0.94082333     0.061190478
      3288.60      0.94694761     0.060944333
      3291.88      0.95269365     0.060974533
      3295.18      0.96215370     0.060866095
      3298.47      0.93875540     0.060669587
      3301.77      0.94221634     0.060620545
      3305.07      0.95106067     0.060398255
      3308.38      0.94561491     0.060236498
      3311.69      0.93999817     0.060201916
      3315.00      0.93998000     0.059971556
      3318.31      0.91716681     0.059818889
      3321.63      0.91620272     0.059574059
      3324.95      0.91782071     0.059388000
      3328.28      0.93165147     0.059162893
      3331.61      0.93483246     0.058868268
      3334.94      0.93490172     0.058794344
      3338.27      0.95078895     0.058578815
      3341.61      0.94860124     0.058296048
      3344.95      0.94604599     0.058085233
      3348.30      0.96091730     0.057866665
      3351.65      0.97547352     0.057599367
      3355.00      0.97947006     0.057423045
      3358.35      0.98039357     0.057237633
      3361.71      0.97979799     0.056962715
      3365.07      0.97600714     0.056882470
      3368.44      0.97958486     0.056657466
      3371.81      0.99147408     0.056362020
      3375.18      0.99886133     0.056128808
      3378.56       1.0009874     0.055880084
      3381.94      0.99527637     0.055587929
      3385.32       1.0059132     0.055372332
      3388.70      0.99610561     0.055160770
      3392.09      0.98942984     0.054897396
      3395.48      0.99221676     0.054726680
      3398.88       1.0010280     0.054570361
      3402.28      0.99986249     0.054318194
      3405.68      0.99829961     0.054217006
      3409.09       1.0014117     0.054025695
      3412.49       1.0020043     0.053778311
      3415.91       1.0042176     0.053598300
      3419.32       1.0147013     0.053428482
      3422.74      0.99914293     0.053305196
      3426.17       1.0037668     0.053118144
      3429.59      0.99880629     0.053031912
      3433.02      0.99314934     0.052947133
      3436.45      0.99280573     0.052776912
      3439.89      0.99520405     0.052375747
      3443.33      0.98661654     0.052276461
      3446.78      0.98337919     0.052549553
      3450.22      0.97536963     0.052175564
      3453.67      0.96407993     0.051893058
      3457.13      0.96186696     0.051617252
      3460.58      0.95987201     0.051349857
      3464.04      0.96156504     0.051068530
      3467.51      0.97620706     0.050853137
      3470.98      0.99383663     0.050657054
      3474.45      0.99449117     0.050807867
      3477.92       1.0010526     0.050737905
      3481.40       1.0096852     0.050449981
      3484.88       1.0127813     0.050186791
      3488.37       1.0083344     0.049962492
      3491.86       1.0272558     0.049702423
      3495.35       1.0307330     0.049507771
      3498.84       1.0396063     0.049354251
      3502.34       1.0435153     0.049235769
      3505.84       1.0465801     0.049077142
      3509.35       1.0522957     0.048986398
      3512.86       1.0503003     0.048913948
      3516.37       1.0591403     0.048856345
      3519.89       1.0606936     0.048799651
      3523.41       1.0682869     0.048698203
      3526.93       1.0588273     0.048648612
      3530.46       1.0586121     0.048599333
      3533.99       1.0495417     0.048457888
      3537.53       1.0545539     0.048427314
      3541.06       1.0598007     0.048362007
      3544.60       1.0589891     0.048367969
      3548.15       1.0269674     0.048356091
      3551.70       1.0171611     0.048340186
      3555.25       1.0120030     0.048329963
      3558.80       1.0124251     0.048256841
      3562.36       1.0128735     0.048258873
      3565.92      0.99563900     0.048269631
      3569.49      0.98676741     0.048283420
      3573.06      0.99139625     0.048291116
      3576.64      0.98185932     0.048235088
      3580.21      0.97160722     0.048174427
      3583.79      0.96680499     0.048198173
      3587.38      0.96342090     0.048271034
      3590.96      0.96447657     0.048273208
      3594.55      0.96656553     0.048261719
      3598.15      0.96774159     0.048230395
      3601.75      0.97267663     0.048196592
      3605.35      0.98406839     0.048021126
      3608.96      0.97823265     0.047996431
      3612.56      0.99124494     0.047956938
      3616.18      0.98207911     0.047919580
      3619.79      0.99065090     0.047873733
      3623.41      0.99186442     0.047825170
      3627.04      0.98757697     0.047773707
      3630.66      0.97174521     0.047625137
      3634.29      0.97373009     0.047481363
      3637.93      0.95971956     0.047402495
      3641.57      0.97084358     0.047329130
      3645.21      0.98956863     0.047253435
      3648.86       1.0020220     0.047192616
      3652.50       1.0113657     0.047039962
      3656.16       1.0125494     0.046964398
      3659.81       1.0104898     0.046890860
      3663.47       1.0118112     0.046809475
      3667.14       1.0222329     0.046723046
      3670.80       1.0340577     0.046569146
      3674.48       1.0356275     0.046415492
      3678.15       1.0476825     0.046335905
      3681.83       1.0505698     0.046253022
      3685.51       1.0596878     0.046173743
      3689.20       1.0750273     0.046041383
      3692.88       1.0793960     0.045975328
      3696.58       1.0769077     0.045907678
      3700.27       1.0684517     0.045851752
      3703.98       1.0587014     0.045734938
      3707.68       1.0661064     0.045700651
      3711.39       1.0637777     0.045695868
      3715.10       1.0704881     0.045727324
      3718.81       1.0744728     0.045700889
      3722.53       1.0647470     0.045751995
      3726.26       1.0707831     0.045796164
      3729.98       1.0932720     0.045754825
      3733.71       1.1103868     0.045379770
      3737.45       1.1228383     0.045366100
      3741.18       1.1456628     0.045357585
      3744.93       1.1582149     0.045363350
      3748.67       1.1740487     0.045317130
      3752.42       1.1876118     0.045339410
      3756.17       1.2016060     0.045378712
      3759.93       1.2025225     0.045360510
      3763.69       1.2120603     0.045151828
      3767.45       1.2230968     0.044988948
      3771.22       1.2363884     0.044885501
      3774.99       1.2414687     0.044865181
      3778.77       1.2520494     0.044897612
      3782.54       1.2683432     0.044903573
      3786.33       1.2871408     0.044801347
      3790.11       1.2881601     0.044773334
      3793.90       1.3099814     0.044749556
      3797.70       1.3224805     0.044652005
      3801.50       1.3334884     0.044630750
      3805.30       1.3550607     0.044607085
      3809.10       1.3621458     0.044507610
      3812.91       1.3870932     0.044476740
      3816.73       1.3924385     0.044374795
      3820.54       1.3983068     0.044343236
      3824.36       1.4063462     0.044309774
      3828.19       1.4192958     0.044217851
      3832.02       1.4228041     0.044189591
      3835.85       1.4217993     0.044162807
      3839.68       1.4140815     0.044074801
      3843.52       1.4166633     0.044054164
      3847.37       1.4154552     0.044033645
      3851.22       1.4223931     0.044023787
      3855.07       1.4276137     0.044009256
      3858.92       1.4305447     0.043923454
      3862.78       1.4352104     0.043902265
      3866.64       1.4270772     0.043806371
      3870.51       1.4312045     0.043773616
      3874.38       1.4368571     0.043740606
      3878.26       1.4536523     0.043647193
      3882.13       1.4671158     0.043625678
      3886.02       1.4623880     0.043631221
      3889.90       1.4680664     0.043609879
      3893.79       1.4784984     0.043518518
      3897.69       1.4898085     0.043488648
      3901.59       1.5011934     0.043453125
      3905.49       1.5039662     0.043359775
      3909.39       1.5107069     0.043349233
      3913.30       1.5070886     0.043267116
      3917.22       1.5237419     0.043305455
      3921.13       1.5373753     0.043192676
      3925.06       1.5532881     0.043162280
      3928.98       1.5734126     0.043085405
      3932.91       1.5934901     0.043070206
      3936.84       1.6099777     0.042988023
      3940.78       1.6488350     0.043035160
      3944.72       1.6579290     0.042955761
      3948.67       1.6655498     0.042936551
      3952.61       1.6790817     0.042844176
      3956.57       1.6770718     0.042823291
      3960.52       1.6843857     0.042736966
      3964.48       1.6883978     0.042769749
      3968.45       1.7002726     0.042681804
      3972.42       1.6950348     0.042652954
      3976.39       1.6875127     0.042567354
      3980.37       1.7013266     0.042544009
      3984.35       1.6937963     0.042513240
      3988.33       1.6977542     0.042419309
      3992.32       1.6961931     0.042389412
      3996.31       1.6786890     0.042289673
      4000.31       1.6698973     0.042312843
      4004.31       1.6731574     0.042219187
      4008.31       1.6715804     0.042189944
      4012.32       1.6737375     0.042105262
      4016.33       1.6826126     0.042081010
      4020.35       1.6733008     0.042047026
      4024.37       1.6704606     0.041957245
      4028.40       1.6771094     0.041934189
      4032.42       1.6771049     0.041858799
      4036.46       1.6811340     0.041889748
      4040.50       1.6744146     0.041806432
      4044.54       1.6589726     0.041723882
      4048.58       1.6571489     0.041756686
      4052.63       1.6551716     0.041677811
      4056.68       1.6507748     0.041608414
      4060.74       1.6548291     0.041599836
      4064.80       1.6486458     0.041587456
      4068.86       1.6405726     0.041758693
      4072.93       1.6390585     0.041762453
      4077.01       1.6397584     0.041681876
      4081.08       1.6341041     0.041639937
      4085.17       1.6323760     0.041774097
      4089.25       1.6323538     0.041762361
      4093.34       1.6346872     0.041677720
      4097.43       1.6125934     0.041483281
      4101.53       1.6014195     0.041354124
      4105.63       1.5996148     0.041367499
      4109.74       1.5774981     0.041278237
      4113.85       1.5647284     0.041212032
      4117.96       1.5651414     0.041197964
      4122.08       1.5552134     0.041203001
      4126.20       1.5431660     0.041168518
      4130.33       1.5171799     0.041200906
      4134.46       1.5125723     0.041250341
      4138.59       1.4952110     0.041311735
      4142.73       1.4805257     0.041342200
      4146.88       1.4737988     0.041364958
      4151.02       1.4541007     0.041496724
      4155.18       1.4388890     0.041515038
      4159.33       1.4332434     0.041543363
      4163.49       1.4284343     0.041621537
      4167.65       1.4319168     0.041687366
      4171.82       1.4319000     0.041759116
      4175.99       1.4231079     0.041771822
      4180.17       1.4213432     0.041785400
      4184.35       1.4186999     0.041898704
      4188.54       1.4196359     0.041914508
      4192.72       1.4141291     0.041988296
      4196.92       1.4120263     0.041983578
      4201.11       1.4105062     0.041993556
      4205.31       1.3979079     0.042115673
      4209.52       1.4022898     0.042098281
      4213.73       1.4095729     0.042140265
      4217.94       1.4156304     0.042123648
      4222.16       1.4250578     0.042169670
      4226.38       1.4259646     0.042165190
      4230.61       1.4248647     0.042268623
      4234.84       1.4330348     0.042242923
      4239.08       1.4502370     0.042264044
      4243.32       1.4609231     0.042218998
      4247.56       1.4646019     0.042155494
      4251.81       1.4742505     0.042188826
      4256.06       1.4678604     0.042135961
      4260.32       1.4649817     0.042192343
      4264.58       1.4713382     0.042143033
      4268.84       1.4515930     0.042147935
      4273.11       1.4507547     0.042077811
      4277.38       1.4466974     0.042072250
      4281.66       1.4325517     0.042012870
      4285.94       1.4306005     0.042006658
      4290.23       1.4311530     0.041931345
      4294.52       1.4320670     0.041918429
      4298.81       1.4213325     0.041850161
      4303.11       1.4705884     0.072404538
      4307.42       1.4569975     0.070928815
      4311.72       1.4479392     0.070801441
      4316.04       1.4102904     0.071029005
      4320.35       1.4190566     0.071496255
      4324.67       1.4331516     0.071349546
      4329.00       1.4477476     0.071486702
      4333.33       1.4552539     0.071530628
      4337.66       1.4623801     0.071249656
      4342.00       1.4402472     0.071318107
      4346.34       1.4255086     0.071670323
      4350.69       1.4197222     0.071714933
      4355.04       1.4354783     0.071548911
      4359.39       1.4147676     0.071677680
      4363.75       1.4218475     0.071881848
      4368.12       1.3978279     0.071707434
      4372.48       1.3818898     0.071858848
      4376.86       1.4001223     0.072349137
      4381.23       1.3912153     0.072592555
      4385.61       1.3997191     0.072492265
      4390.00       1.3815603     0.072704501
      4394.39       1.3549811     0.072975009
      4398.79       1.3713622     0.073226337
      4403.18       1.3757887     0.073420561
      4407.59       1.3565815     0.073306898
      4412.00       1.3334893     0.073474748
      4416.41       1.3386418     0.073555768
      4420.82       1.3724816     0.073656472
      4425.25       1.3639406     0.073770486
      4429.67       1.3757735     0.074072328
      4434.10       1.4070408     0.074077937
      4438.54       1.4491794     0.074092722
      4442.97       1.4666701     0.074211473
      4447.42       1.4656204     0.074404149
      4451.86       1.4677341     0.074309314
      4456.32       1.4804055     0.074485639
      4460.77       1.4883634     0.074627857
      4465.24       1.5191292     0.074782990
      4469.70       1.5360289     0.074914348
      4474.17       1.5003006     0.075056050
      4478.65       1.5043195     0.074910496
      4483.12       1.5098771     0.075071781
      4487.61       1.5306006     0.075274137
      4492.09       1.5331259     0.075473234
      4496.59       1.5273162     0.075673543
      4501.08       1.5506924     0.075844035
      4505.58       1.5542224     0.076050225
      4510.09       1.5602525     0.076263881
      4514.60       1.5776848     0.076476394
      4519.12       1.5889970     0.076355660
      4523.63       1.5546481     0.076318835
      4528.16       1.5547990     0.076563059
      4532.69       1.5700025     0.076880378
      4537.22       1.5648716     0.077236354
      4541.76       1.5682541     0.077673718
      4546.30       1.5948837     0.077810860
      4550.85       1.6099486     0.078135755
      4555.40       1.6023977     0.078575116
      4559.95       1.5977413     0.079780117
      4564.51       1.6093402     0.080518299
      4569.08       1.6180374     0.080245062
      4573.65       1.6107218     0.080548103
      4578.22       1.6423320     0.081354565
      4582.80       1.6486490     0.082542747
      4587.38       1.6517605     0.083922966
      4591.97       1.6743993     0.085472864
      4596.56       1.6636909     0.087131706
      4601.16       1.6870539     0.088817057
      4605.76       1.6894118     0.090424103
      4610.37       1.7093224     0.091894398
      4614.98       1.7324799     0.093125494
      4619.59       1.7691506     0.094029607
      4624.21       1.7603438     0.094599862
      4628.84       1.7451166     0.094766339
      4633.47       1.7050505     0.094618759
      4638.10       1.6473565     0.094152283
      4642.74       1.6087260     0.093459717
      4647.38       1.6108086     0.092565294
      4652.03       1.6039638     0.091548628
      4656.68       1.5582265     0.090879751
      4661.34       1.5242215     0.089861107
      4666.00       1.4963676     0.089021782
      4670.67       1.4360455     0.088486824
      4675.33       1.4043758     0.088465113
      4680.01       1.3794395     0.088549181
      4684.69       1.3390864     0.086940649
      4689.38       1.3102842     0.085648030
      4694.07       1.3054408     0.084629865
      4698.76       1.2997198     0.083572859
      4703.46       1.2604960     0.082492655
      4708.16       1.2850905     0.081403782
      4712.87       1.2701387     0.080306742
      4717.58       1.2538809     0.079228594
      4722.30       1.2877196     0.078160058
      4727.03       1.2963370     0.077071585
      4731.75       1.3081694     0.075990850
      4736.48       1.2986334     0.074947788
      4741.22       1.2628106     0.073977220
      4745.96       1.2160468     0.073024914
      4750.71       1.1674749     0.071773115
      4755.46       1.1275195     0.071010300
      4760.22       1.1448451     0.070252472
      4764.97       1.1232898     0.069512303
      4769.74       1.1058252     0.068796641
      4774.51       1.1011972     0.068149381
      4779.29       1.1205490     0.067537689
      4784.07       1.1376578     0.066936125
      4788.85       1.1579413     0.066381892
      4793.64       1.1772288     0.065866255
      4798.43       1.2034716     0.065526988
      4803.23       1.2352654     0.065129070
      4808.03       1.2672116     0.064620401
      4812.84       1.2952264     0.064158763
      4817.66       1.3295572     0.064107984
      4822.48       1.3483376     0.064146499
      4827.30       1.3702621     0.063505296
      4832.12       1.4025577     0.062861294
      4836.96       1.4290041     0.062717382
      4841.79       1.4411823     0.062881073
      4846.63       1.4308827     0.063176685
      4851.48       1.4306567     0.063610599
      4856.33       1.3804389     0.064118272
      4861.19       1.3716181     0.064389529
      4866.05       1.3152830     0.064851596
      4870.92       1.2640456     0.065341050
      4875.79       1.2224611     0.065575381
      4880.66       1.2204320     0.065696378
      4885.55       1.1983526     0.065686873
      4890.43       1.1566683     0.065281714
      4895.32       1.1572026     0.064923951
      4900.22       1.1590232     0.064432882
      4905.12       1.1422851     0.063866298
      4910.02       1.1477059     0.063265309
      4914.94       1.1561445     0.062758967
      4919.85       1.1531047     0.061859082
      4924.77       1.1870082     0.061335459
      4929.70       1.1983424     0.060810482
      4934.62       1.2079746     0.061742643
      4939.56       1.2095539     0.060873804
      4944.50       1.2571841     0.060390235
      4949.44       1.2620925     0.059906595
      4954.39       1.2751622     0.059493462
      4959.35       1.3055552     0.059380204
      4964.31       1.3281197     0.059506462
      4969.27       1.3251317     0.059592524
      4974.24       1.3379021     0.059732627
      4979.22       1.3497820     0.059918347
      4984.20       1.3316972     0.059986746
      4989.18       1.3331970     0.059782082
      4994.17       1.2961436     0.059814174
      4999.16       1.3012063     0.059760806
      5004.16       1.3192066     0.059664384
      5009.17       1.3161648     0.059136471
      5014.18       1.3290410     0.058819590
      5019.19       1.3062884     0.058427709
      5024.21       1.2800401     0.057757390
      5029.23       1.2566215     0.057288239
      5034.26       1.2366019     0.056964699
      5039.30       1.2438842     0.056496292
      5044.34       1.2430144     0.055921370
      5049.39       1.2362945     0.055723834
      5054.43       1.2524199     0.055656903
      5059.49       1.2551085     0.055675300
      5064.55       1.2497676     0.055878753
      5069.61       1.2567488     0.055146919
      5074.68       1.2708601     0.054823844
      5079.76       1.2369718     0.054647544
      5084.84       1.2409428     0.054503781
      5089.92       1.2591139     0.054360835
      5095.01       1.2550029     0.054146339
      5100.11       1.2583109     0.054110638
      5105.21       1.2631533     0.053813083
      5110.31       1.2631129     0.053693259
      5115.42       1.2714831     0.053408432
      5120.54       1.2829456     0.053197582
      5125.66       1.2854458     0.053028933
      5130.79       1.2752643     0.053017176
      5135.92       1.2956183     0.052770456
      5141.05       1.2922608     0.052965956
      5146.20       1.2852030     0.053277416
      5151.34       1.2494317     0.053432601
      5156.49       1.2381321     0.053839517
      5161.65       1.2040675     0.053141146
      5166.81       1.1962666     0.052894408
      5171.98       1.2114469     0.053214137
      5177.15       1.1984662     0.053790640
      5182.33       1.1971405     0.054352349
      5187.51       1.1817258     0.054816745
      5192.70       1.1768463     0.055329218
      5197.89       1.1731651     0.055588567
      5203.09       1.1655100     0.056276275
      5208.29       1.1528254     0.056369848
      5213.50       1.1758318     0.055725222
      5218.72       1.2100415     0.055409561
      5223.93       1.2140135     0.054692442
      5229.16       1.2159704     0.054042196
      5234.39       1.2199938     0.053384675
      5239.62       1.2328406     0.052499125
      5244.86       1.2561401     0.051345061
      5250.11       1.2585594     0.050732561
      5255.36       1.2630698     0.049753283
      5260.61       1.3000684     0.048931543
      5265.87       1.3128461     0.048198021
      5271.14       1.3202024     0.047855052
      5276.41       1.2931750     0.047636427
      5281.69       1.2949471     0.047397348
      5286.97       1.2876466     0.046833895
      5292.26       1.2877668     0.046554522
      5297.55       1.3034479     0.045564520
      5302.85       1.2632898     0.051715244
      5308.15       1.2843925     0.051044801
      5313.46       1.3184437     0.050864187
      5318.77       1.3250229     0.050382246
      5324.09       1.3385669     0.050402020
      5329.42       1.3651893     0.050134221
      5334.75       1.3767669     0.050308734
      5340.08       1.3334913     0.050455660
      5345.42       1.3227775     0.050473424
      5350.77       1.3149720     0.050611464
      5356.12       1.3216213     0.050843987
      5361.48       1.3282813     0.051187279
      5366.83       1.3160810     0.051302131
      5372.20       1.2854964     0.051349248
      5377.58       1.2726608     0.051180092
      5382.95       1.2432004     0.051116842
      5388.34       1.1633925     0.051040223
      5393.72       1.1325551     0.050912947
      5399.12       1.1175373     0.051032220
      5404.52       1.1361064     0.051097864
      5409.92       1.1446031     0.051427654
      5415.33       1.1614578     0.051112108
      5420.75       1.1631364     0.051642231
      5426.17       1.1803835     0.052034642
      5431.60       1.2043167     0.051430472
      5437.03       1.1897667     0.052032569
      5442.47       1.1771936     0.051949742
      5447.91       1.1886007     0.051993756
      5453.36       1.2064940     0.051992664
      5458.81       1.2117349     0.051935779
      5464.27       1.2055258     0.051739028
      5469.73       1.2052110     0.051231541
      5475.20       1.1869869     0.050321109
      5480.68       1.1820116     0.049803514
      5486.16       1.1685861     0.048930724
      5491.65       1.1287693     0.048136191
      5497.14       1.1423684     0.047477983
      5502.64       1.1316707     0.046389562
      5508.14       1.1403243     0.045857117
      5513.65       1.1517492     0.045531403
      5519.16       1.1654626     0.045406628
      5524.68       1.1507744     0.045839534
      5530.20       1.1687815     0.045962276
      5535.73       1.1746633     0.045864093
      5541.27       1.1662237     0.046068991
      5546.81       1.1608263     0.045955925
      5552.36       1.1799826     0.046125909
      5557.91       1.1780020     0.045663632
      5563.47       1.1754294     0.045286509
      5569.04       1.1911619     0.044804149
      5574.60       1.1804264     0.044324901
      5580.18       1.1767104     0.043718962
      5585.76       1.1752727     0.043122277
      5591.35       1.1506856     0.042505479
      5596.94       1.1528767     0.042475125
      5602.53       1.1683368     0.042358781
      5608.14       1.1572112     0.042072485
      5613.75       1.1473183     0.041675481
      5619.36       1.1523692     0.041371303
      5624.98       1.1375303     0.041202493
      5630.60       1.1295306     0.041447883
      5636.23       1.1548792     0.042045016
      5641.87       1.1694726     0.042427605
      5647.51       1.1633512     0.042489462
      5653.16       1.1741793     0.043148378
      5658.82       1.1955811     0.043851162
      5664.47       1.1791222     0.044410507
      5670.14       1.1730988     0.045114307
      5675.81       1.1709234     0.045835399
      5681.48       1.1435638     0.046508881
      5687.17       1.1312481     0.046659353
      5692.85       1.1151534     0.046673155
      5698.55       1.0902882     0.046746663
      5704.25       1.0886690     0.046936800
      5709.95       1.0794490     0.046487002
      5715.66       1.0499073     0.046354169
      5721.38       1.0458987     0.045807181
      5727.10       1.0394537     0.045274525
      5732.83       1.0362905     0.044758615
      5738.56       1.0474410     0.044103864
      5744.30       1.0779228     0.044036555
      5750.04       1.0743918     0.043526565
      5755.79       1.0276434     0.042965186
      5761.55       1.0232405     0.042272640
      5767.31       1.0285499     0.041594311
      5773.08       1.0096342     0.041017697
      5778.85      0.99227842     0.040465044
      5784.63      0.98037438     0.040117841
      5790.41       1.0044836     0.039536160
      5796.21       1.0068441     0.038910645
      5802.00       1.0271447     0.038299317
      5807.81       1.0263216     0.038285221
      5813.61       1.0403684     0.038101300
      5819.43       1.0604485     0.037734634
      5825.25       1.0765742     0.037492761
      5831.07       1.1142757     0.037499253
      5836.90       1.1443051     0.037496372
      5842.74       1.1663487     0.037208405
      5848.58       1.1663081     0.037043567
      5854.43       1.1659261     0.036981562
      5860.29       1.1403032     0.036890602
      5866.15       1.1144460     0.036763209
      5872.01       1.1280633     0.036383935
      5877.89       1.1315703     0.036131618
      5883.76       1.1060597     0.035931850
      5889.65       1.0928479     0.035823802
      5895.54       1.0822437     0.035773800
      5901.43       1.0963819     0.035640033
      5907.34       1.0613487     0.035409632
      5913.24       1.0501069     0.035293938
      5919.16       1.0449414     0.035304284
      5925.08       1.0651828     0.035659227
      5931.00       1.0756776     0.035892282
      5936.93       1.0763138     0.035717024
      5942.87       1.0995381     0.036191453
      5948.81       1.1108855     0.036542577
      5954.76       1.1190094     0.036583225
      5960.72       1.1119720     0.036703440
      5966.68       1.1090642     0.037322875
      5972.64       1.1063221     0.038820190
      5978.62       1.1090970     0.040391045
      5984.60       1.1174995     0.041850300
      5990.58       1.1173468     0.043694229
      5996.57       1.0879013     0.045644966
      6002.57       1.0943146     0.047538657
      6008.57       1.0887136     0.048798794
      6014.58       1.0641953     0.048798553
      6020.60       1.0458928     0.048306899
      6026.62       1.0512011     0.047768018
      6032.65       1.0562002     0.046197793
      6038.68       1.0639346     0.045573794
      6044.72       1.0387782     0.044923518
      6050.76       1.0501355     0.044493416
      6056.81       1.0663677     0.044592170
      6062.87       1.0915000     0.044249303
      6068.93       1.0836545     0.043656335
      6075.00       1.0831144     0.043557042
      6081.08       1.0903403     0.042524788
      6087.16       1.1097961     0.042494208
      6093.25       1.1108056     0.041603711
      6099.34       1.1109525     0.040926535
      6105.44       1.1305161     0.040548258
      6111.54       1.1012627     0.039602774
      6117.66       1.0853578     0.038533973
      6123.78       1.0697853     0.038051527
      6129.90       1.0398742     0.037437102
      6136.03       1.0276725     0.037130938
      6142.17       1.0091763     0.036694812
      6148.31       1.0119416     0.035738603
      6154.46       1.0156785     0.035483140
      6160.61       1.0005059     0.035462530
      6166.77      0.99871154     0.035478449
      6172.94      0.98626734     0.035458637
      6179.11      0.98880461     0.035726980
      6185.29      0.99019076     0.035780247
      6191.48      0.99532766     0.035700228
      6197.67      0.99505030     0.035489713
      6203.87      0.99299478     0.035399982
      6210.07      0.99164789     0.035456060
      6216.28       1.0032575     0.036021082
      6222.50       1.0113612     0.035523610
      6228.72      0.98427858     0.035219436
      6234.95      0.98973025     0.035269555
      6241.19      0.99585618     0.035887893
      6247.42       1.0009186     0.036209847
      6253.67       1.0175834     0.036117083
      6259.93       1.0164139     0.036230702
      6266.19       1.0479705     0.036563549
      6272.46       1.0537347     0.037162835
      6278.73       1.0427693     0.038132856
      6285.01       1.0524716     0.039734127
      6291.29       1.0697098     0.042064275
      6297.58       1.0733499     0.044089582
      6303.88       1.0629363     0.044876739
      6310.19       1.0490047     0.046399316
      6316.50       1.0397555     0.047555334
      6322.81       1.0259617     0.048174432
      6329.14       1.0246146     0.048832353
      6335.47       1.0166042     0.049089127
      6341.80       1.0056515     0.046756804
      6348.14      0.99820386     0.043949795
      6354.49       1.0060422     0.042524617
      6360.85      0.98791768     0.042828602
      6367.21      0.99310324     0.041829844
      6373.57      0.99164102     0.040526162
      6379.95      0.99921620     0.039934745
      6386.33       1.0168128     0.040048890
      6392.72       1.0086168     0.039782251
      6399.11       1.0300256     0.040290143
      6405.51       1.0244066     0.040960566
      6411.92       1.0482029     0.040783597
      6418.32       1.0558821     0.041075365
      6424.74       1.0746211     0.040842747
      6431.17       1.1135690     0.039675079
      6437.60       1.1302858     0.039964728
      6444.04       1.1615526     0.040230930
      6450.48       1.1751811     0.041078692
      6456.94       1.2028282     0.041365174
      6463.39       1.2423860     0.040885436
      6469.85       1.2824118     0.040833696
      6476.33       1.3212297     0.041195688
      6482.80       1.3384409     0.042068572
      6489.28       1.3740140     0.042790482
      6495.77       1.4072417     0.043338998
      6502.27       1.4340345     0.043483175
      6508.77       1.4424205     0.043607850
      6515.28       1.4485716     0.043081076
      6521.80       1.4332294     0.043489893
      6528.32       1.4205817     0.042579953
      6534.85       1.4170119     0.043089440
      6541.38       1.3635935     0.042611640
      6547.92       1.3426729     0.042012351
      6554.47       1.3076376     0.040565685
      6561.03       1.2607083     0.040698045
      6567.59       1.2379465     0.039486380
      6574.16       1.1790552     0.040101555
      6580.73       1.1309922     0.039332819
      6587.31       1.1091972     0.039499809
      6593.90       1.0697719     0.038857600
      6600.50       1.0381576     0.038430940
      6607.10       1.0040099     0.038549254
      6613.70       1.0066542     0.038895125
      6620.32       1.0281905     0.040209369
      6626.94       1.0000521     0.039415633
      6633.57       1.0082426     0.038648679
      6640.20       1.0027436     0.038175989
      6646.84      0.97605954     0.037385138
      6653.49      0.98564415     0.036554055
      6660.14      0.95596984     0.035631566
      6666.80      0.94740061     0.034771232
      6673.47      0.94151563     0.033799138
      6680.14      0.93070095     0.033143488
      6686.82      0.92713574     0.032709403
      6693.51      0.91559397     0.031984289
      6700.20      0.90269296     0.031654897
      6706.90      0.88376193     0.031427369
      6713.61      0.88580010     0.031146299
      6720.32      0.87587597     0.030629377
      6727.05      0.86524516     0.030335793
      6733.77      0.85851421     0.030231503
      6740.51      0.86195166     0.030214284
      6747.25      0.86394279     0.030046815
      6754.00      0.85528271     0.029724426
      6760.75      0.85944320     0.029615106
      6767.51      0.85013203     0.029568831
      6774.28      0.83995245     0.029503742
      6781.05      0.84380229     0.029362473
      6787.84      0.85008253     0.029053563
      6794.62      0.84887361     0.029156313
      6801.42      0.84314829     0.029418381
      6808.22      0.83576244     0.029445074
      6815.03      0.85050957     0.029116975
      6821.85      0.84899498     0.029071156
      6828.67      0.85311894     0.029296290
      6835.50      0.84860249     0.030012107
      6842.33      0.85491496     0.031034093
      6849.17      0.85027767     0.032486153
      6856.02      0.83325207     0.033655846
      6862.88      0.83321263     0.034259972
      6869.74      0.84821395     0.034316765
      6876.61      0.86214410     0.034949495
      6883.49      0.84575549     0.035651748
      6890.37      0.84833956     0.036128251
      6897.27      0.85763188     0.036807726
      6904.16      0.87759943     0.036763597
      6911.07      0.89356868     0.035930257
      6917.98      0.90629866     0.036213755
      6924.89      0.87342552     0.036517099
      6931.82      0.87346365     0.038019468
      6938.75      0.88763184     0.039031534
      6945.69      0.90683986     0.039399685
      6952.64      0.89077737     0.038982740
      6959.59      0.89864269     0.037848173
      6966.55      0.87363448     0.037098838
      6973.52      0.86592300     0.037029845
      6980.49      0.86641543     0.038619557
      6987.47      0.85698710     0.036572550
      6994.46      0.83261876     0.035076501
      7001.46      0.82092706     0.033710005
      7008.46      0.82804688     0.033019531
      7015.46      0.81259779     0.032580597
      7022.48      0.81058749     0.031557464
      7029.51      0.82024255     0.031434567
      7036.53      0.81691382     0.030636034
      7043.57      0.81743928     0.029878381
      7050.62      0.81917026     0.029516724
      7057.66      0.81729747     0.028781870
      7064.72      0.81551008     0.028022262
      7071.79      0.83175033     0.028166851
      7078.86      0.83015086     0.027996111
      7085.94      0.83992866     0.027837357
      7093.03      0.84370849     0.027051538
      7100.12      0.85106242     0.027069951
      7107.22      0.85687576     0.028062210
      7114.33      0.86389076     0.028551868
      7121.44      0.85315565     0.028750726
      7128.56      0.84566944     0.029659237
      7135.69      0.83847551     0.031053427
      7142.83      0.83583867     0.033059417
      7149.97      0.81438936     0.034966905
      7157.12      0.78752052     0.035965319
      7164.28      0.78520928     0.036669315
      7171.44      0.75108505     0.037148894
      7178.62      0.76288484     0.036886030
      7185.80      0.76650332     0.036117519
      7192.98      0.75622964     0.035669006
      7200.17      0.74456358     0.034241989
      7207.38      0.73306994     0.033977804
      7214.58      0.73730652     0.030475597
      7221.80      0.74590682     0.028650142
      7229.02      0.73748842     0.028486255
      7236.25      0.75480216     0.029069785
      7243.49      0.75497032     0.030587804
      7250.73      0.75784023     0.031677462
      7257.98      0.75004126     0.031192649
      7265.24      0.74943099     0.032056180
      7272.51      0.73511691     0.031986293
      7279.78      0.72938479     0.033539191
      7287.06      0.72352584     0.033241555
      7294.35      0.71694947     0.033858542
      7301.64      0.72749862     0.033365551
      7308.94      0.72458692     0.033942819
      7316.25      0.74383915     0.034237047
      7323.57      0.75746689     0.035850660
      7330.89      0.77193233     0.036317282
      7338.22      0.78234763     0.037793317
      7345.56      0.78994100     0.038668756
      7352.91      0.78591248     0.038750377
      7360.26      0.78618561     0.037890938
      7367.62      0.78118830     0.036802162
      7374.99      0.79463747     0.036518663
      7382.37      0.79109835     0.036092800
      7389.75      0.78541157     0.036604096
      7397.14      0.77184969     0.033642743
      7404.53      0.75993057     0.033005660
      7411.94      0.75648502     0.031765202
      7419.35      0.76584704     0.031463338
      7426.77      0.75399576     0.030359387
      7434.20      0.72857577     0.029697646
      7441.63      0.72574443     0.028344571
      7449.07      0.72073810     0.028050445
      7456.52      0.72679860     0.027372138
      7463.98      0.71449549     0.027376859
      7471.45      0.71816801     0.026682286
      7478.92      0.71656880     0.025991086
      7486.40      0.69871990     0.025785014
      7493.88      0.69253897     0.025510074
      7501.38      0.70634036     0.025020044
      7508.88      0.70916332     0.024849121
      7516.39      0.71492240     0.024917795
      7523.91      0.72271147     0.024619585
      7531.43      0.72637859     0.024108460
      7538.96      0.71509408     0.023400468
      7546.50      0.71126011     0.023215585
      7554.05      0.71182832     0.023044596
      7561.60      0.69731708     0.023222432
      7569.16      0.67117291     0.023187511
      7576.73      0.66334136     0.022871499
      7584.31      0.66533726     0.022529940
      7591.89      0.65829410     0.022483818
      7599.49      0.64585634     0.022445804
      7607.09      0.62063496     0.022586479
      7614.70      0.62760607     0.022559164
      7622.31      0.61830830     0.022484249
      7629.93      0.62121553     0.022427207
      7637.56      0.63037004     0.022574642
      7645.20      0.64574309     0.022979724
      7652.85      0.65113909     0.023516648
      7660.50      0.67094507     0.023035771
      7668.16      0.67455945     0.022816208
      7675.83      0.66154343     0.023099067
      7683.50      0.63986110     0.023876636
      7691.19      0.63555044     0.024939456
      7698.88      0.62117699     0.026267067
      7706.58      0.58197269     0.027210571
      7714.29      0.54564337     0.028458366
      7722.00      0.52913805     0.029187594
      7729.73      0.50748623     0.030783108
      7737.45      0.48647931     0.030864210
      7745.19      0.46095366     0.031433158
      7752.94      0.43648810     0.031767154
      7760.69      0.43114404     0.031656207
      7768.45      0.43086264     0.031338355
      7776.22      0.44602371     0.031433908
      7784.00      0.45825042     0.032500388
      7791.78      0.46595644     0.034162885
      7799.57      0.47732797     0.034236928
      7807.37      0.48058489     0.032897419
      7815.18      0.48397570     0.033076978
      7822.99      0.47586235     0.031824485
      7830.82      0.49395954     0.031153067
      7838.65      0.50889356     0.031823142
      7846.49      0.49369884     0.032346857
      7854.34      0.49439160     0.031636582
      7862.19      0.50597255     0.030671627
      7870.05      0.50974897     0.030698795
      7877.93      0.51524190     0.030991565
      7885.80      0.51219592     0.030701980
      7893.69      0.50051294     0.030433732
      7901.58      0.49909880     0.030300182
      7909.49      0.50150057     0.028718510
      7917.40      0.50455226     0.028272293
      7925.31      0.51437263     0.027597583
      7933.24      0.50919686     0.027573558
      7941.17      0.50243961     0.027093580
      7949.11      0.49186947     0.026405456
      7957.06      0.49492846     0.026205531
      7965.02      0.49774535     0.026364452
      7972.98      0.49628115     0.026363074
      7980.96      0.50066862     0.027038405
      7988.94      0.49714544     0.026821643
      7996.93      0.51022576     0.027489384
      8004.93      0.51506819     0.028580447
      8012.93      0.51354145     0.029721092
      8020.95      0.52480764     0.030778998
      8028.97      0.52937706     0.030864352
      8036.99      0.53581746     0.030490772
      8045.03      0.54061620     0.030066590
      8053.08      0.54792757     0.029876257
      8061.13      0.56614557     0.030345005
      8069.20      0.57831573     0.029784803
      8077.26      0.58010290     0.030033747
      8085.34      0.57530915     0.029388216
      8093.43      0.58086801     0.029088442
      8101.52      0.58003016     0.028624172
      8109.62      0.58108027     0.028825723
      8117.73      0.56711508     0.028612689
      8125.85      0.55993735     0.029027627
      8133.98      0.55740720     0.029664064
      8142.11      0.55188657     0.029904375
      8150.25      0.55827457     0.030288243
      8158.41      0.55279025     0.030060620
      8166.56      0.52940055     0.030737600
      8174.73      0.51888238     0.031254022
      8182.91      0.50867655     0.031671484
      8191.09      0.49884925     0.032175808
      8199.28      0.48619933     0.032070548
      8207.48      0.49242541     0.032293950
      8215.69      0.48663363     0.032951589
      8223.91      0.49102334     0.033817134
      8232.13      0.48734500     0.035267757
      8240.36      0.50667106     0.037776262
      8248.60      0.50274856     0.037658962
      8256.85      0.49800202     0.037657640
      8265.11      0.50074476     0.037775028
      8273.37      0.49580759     0.037913833
      8281.65      0.49674634     0.038481964
      8289.93      0.50633143     0.039028188
      8298.22      0.50956508     0.039855466
      8306.52      0.50239356     0.039814214
      8314.83      0.49904602     0.040676437
      8323.14      0.49315857     0.041481112
      8331.46      0.50746736     0.041530682
      8339.80      0.49594544     0.042296616
      8348.13      0.49628523     0.042771767
      8356.48      0.48256643     0.043769410
      8364.84      0.49106353     0.045086153
      8373.21      0.48298057     0.045870023
      8381.58      0.49357297     0.048213806
      8389.96      0.50046636     0.052541318
      8398.35      0.48452526     0.054439658
      8406.75      0.47382480     0.057003138
      8415.16      0.46279750     0.059788465
      8423.57      0.45951733     0.063573665
      8432.00      0.44783865     0.068678753
      8440.43      0.42917342     0.077045687
      8448.87      0.42997319     0.089351960
      8457.32      0.42474834      0.10595354
      8465.78      0.42149709      0.11867455
      8474.25      0.42175716      0.13431258
      8482.72      0.41095000      0.15365831
