# starting wavelength =        3018.6368
# ending wavelength =        7394.3477
# O2 telluric scale =        0
# O2 telluric shift =        0
# H2O telluric scale =        0
# H2O telluric shift =        0
      3020.73       2.0103072     0.078621239
      3023.75       2.0155570     0.062539753
      3026.78       2.0096802     0.057270558
      3029.80       2.0101975     0.049681609
      3032.83       2.0141890     0.041873706
      3035.87       2.0160429     0.039465456
      3038.90       2.0234328     0.034664261
      3041.94       2.0336590     0.033186138
      3044.98       2.0294199     0.030308619
      3048.03       2.0309260     0.029361671
      3051.08       2.0424346     0.027645690
      3054.13       2.0624885     0.026991496
      3057.18       2.0678776     0.025943322
      3060.24       2.0915764     0.025071520
      3063.30       2.0985804     0.024628888
      3066.36       2.1132047     0.024050003
      3069.43       2.1236180     0.023682304
      3072.50       2.1268845     0.023291127
      3075.57       2.1297330     0.022971411
      3078.65       2.1357609     0.023141142
      3081.73       2.1558447     0.023068906
      3084.81       2.1710652     0.022998553
      3087.89       2.1687488     0.022625993
      3090.98       2.1657445     0.022548925
      3094.07       2.1670545     0.022710997
      3097.17       2.1787078     0.022636598
      3100.26       2.1809944     0.022564195
      3103.36       2.1794926     0.022493821
      3106.47       2.1765860     0.022645912
      3109.58       2.1726949     0.022566604
      3112.68       2.1696852     0.022489556
      3115.80       2.1588363     0.022127000
      3118.91       2.1548445     0.022288434
      3122.03       2.1492920     0.022205387
      3125.15       2.1421262     0.022124682
      3128.28       2.1357716     0.022046359
      3131.41       2.1249356     0.022213574
      3134.54       2.1179378     0.022139141
      3137.67       2.1219662     0.021761463
      3140.81       2.1101700     0.021679912
      3143.95       2.0966473     0.021839323
      3147.10       2.0842114     0.021761736
      3150.24       2.0780684     0.021686943
      3153.39       2.0657631     0.021845053
      3156.55       2.0686610     0.021760402
      3159.70       2.0625054     0.021678782
      3162.86       2.0515610     0.021309117
      3166.03       2.0381801     0.021473348
      3169.19       2.0313663     0.021385884
      3172.36       2.0264248     0.021301569
      3175.54       2.0160633     0.021220389
      3178.71       1.9926597     0.021388266
      3181.89       1.9869314     0.021312477
      3185.07       1.9878060     0.020926271
      3188.26       1.9807814     0.021085136
      3191.45       1.9659350     0.021003812
      3194.64       1.9533082     0.020925967
      3197.83       1.9486584     0.020851648
      3201.03       1.9542444     0.021002222
      3204.23       1.9469379     0.020917812
      3207.44       1.9336893     0.020542576
      3210.64       1.9319471     0.020709986
      3213.85       1.9229857     0.020619944
      3217.07       1.9077070     0.020533877
      3220.28       1.8949980     0.020451826
      3223.51       1.8793520     0.020624380
      3226.73       1.8789094     0.020239920
      3229.96       1.8876111     0.020152809
      3233.19       1.8893701     0.020316554
      3236.42       1.8919947     0.020236536
      3239.66       1.8860542     0.020160979
      3242.90       1.8800405     0.020319764
      3246.14       1.8799495     0.020233129
      3249.39       1.8697490     0.019852806
      3252.64       1.8682898     0.019776992
      3255.89       1.8562397     0.019935002
      3259.14       1.8539751     0.019848316
      3262.40       1.8588242     0.019766621
      3265.67       1.8702297     0.019947690
      3268.93       1.8736898     0.019554111
      3272.20       1.8678086     0.019467798
      3275.47       1.8735962     0.019640315
      3278.75       1.8759045     0.019563263
      3282.03       1.8798619     0.019491740
      3285.31       1.8740990     0.019647765
      3288.60       1.8782939     0.019260681
      3291.88       1.8844444     0.019184900
      3295.18       1.8818100     0.019354275
      3298.47       1.8744744     0.019266691
      3301.77       1.8744912     0.019185356
      3305.07       1.8634510     0.019069195
      3308.38       1.8541471     0.018977354
      3311.69       1.8506687     0.018891961
      3315.00       1.8593286     0.019076666
      3318.31       1.8661699     0.019003007
      3321.63       1.8667797     0.018936162
      3324.95       1.8626947     0.018784360
      3328.28       1.8593461     0.018706944
      3331.61       1.8547417     0.018636461
      3334.94       1.8504583     0.018807968
      3338.27       1.8490962     0.018725145
      3341.61       1.8589546     0.018346194
      3344.95       1.8635373     0.018528479
      3348.30       1.8685989     0.018442244
      3351.65       1.8648436     0.018641504
      3355.00       1.8613351     0.018569821
      3358.35       1.8633430     0.018167885
      3361.71       1.8617662     0.018360477
      3365.07       1.8563976     0.018285832
      3368.44       1.8543410     0.018219567
      3371.81       1.8528507     0.018403952
      3375.18       1.8552197     0.018011025
      3378.56       1.8564432     0.017942352
      3381.94       1.8567217     0.018135961
      3385.32       1.8477597     0.018053937
      3388.70       1.8414546     0.018276744
      3392.09       1.8489322     0.017876628
      3395.48       1.8533144     0.017792427
      3398.88       1.8628290     0.018009453
      3402.28       1.8733464     0.017943443
      3405.68       1.8810328     0.017888798
      3409.09       1.8874982     0.017751745
      3412.49       1.8931879     0.017684586
      3415.91       1.8990668     0.017906150
      3419.32       1.8994730     0.017823932
      3422.74       1.8944629     0.017753691
      3426.17       1.8896973     0.017663568
      3429.59       1.8953065     0.017580304
      3433.02       1.8936186     0.017824334
      3436.45       1.8889267     0.017764351
      3439.89       1.8830157     0.017346196
      3443.33       1.8786343     0.017586441
      3446.78       1.8862317     0.017526171
      3450.22       1.8933342     0.017770582
      3453.67       1.8978746     0.017693774
      3457.13       1.9087785     0.017298888
      3460.58       1.9247856     0.017548078
      3464.04       1.9329436     0.017471643
      3467.51       1.9514380     0.017082629
      3470.98       1.9712284     0.017335627
      3474.45       1.9830134     0.017260195
      3477.92       1.9833304     0.016877537
      3481.40       1.9836186     0.017133521
      3484.88       1.9860384     0.017059691
      3488.37       1.9860347     0.016683816
      3491.86       1.9829953     0.016641848
      3495.35       1.9794343     0.016870375
      3498.84       1.9733275     0.016501752
      3502.34       1.9648667     0.016462484
      3505.84       1.9553724     0.016692568
      3509.35       1.9431263     0.016331670
      3512.86       1.9473675     0.016295705
      3516.37       1.9694889     0.016220664
      3519.89       1.9717880     0.016173941
      3523.41       1.9717874     0.016141818
      3526.93       1.9818583     0.016071453
      3530.46       1.9853382     0.016028919
      3533.99       1.9931619     0.016001215
      3537.53       1.9941274     0.015934699
      3541.06       1.9992164     0.015896919
      3544.60       1.9984268     0.015874138
      3548.15       1.9975906     0.015810627
      3551.70       1.9990426     0.015778028
      3555.25       1.9950767     0.015760626
      3558.80       1.9843539     0.015699170
      3562.36       1.9761489     0.015672127
      3565.92       1.9716987     0.015345550
      3569.49       1.9659470     0.015600059
      3573.06       1.9594856     0.015579037
      3576.64       1.9524319     0.015253033
      3580.21       1.9669308     0.015513188
      3583.79       1.9760846     0.015498587
      3587.38       1.9725627     0.015462113
      3590.96       1.9734428     0.015438382
      3594.55       1.9708223     0.015134043
      3598.15       1.9551169     0.015392195
      3601.75       1.9428059     0.015375508
      3605.35       1.9248924     0.015068570
      3608.96       1.9203460     0.015333665
      3612.56       1.9147255     0.015046947
      3616.18       1.9113744     0.015013868
      3619.79       1.9018141     0.015286523
      3623.41       1.8930074     0.014995349
      3627.04       1.8892570     0.014969853
      3630.66       1.8867103     0.015250757
      3634.29       1.8748748     0.014954049
      3637.93       1.8714665     0.015227478
      3641.57       1.8742491     0.014948415
      3645.21       1.8792144     0.014923063
      3648.86       1.8988305     0.015205544
      3652.50       1.8981852     0.014919143
      3656.16       1.8953724     0.014902502
      3659.81       1.8856468     0.014924208
      3663.47       1.8748205     0.014899962
      3667.14       1.8637786     0.014938023
      3670.80       1.8540336     0.014905790
      3674.48       1.8500942     0.014890975
      3678.15       1.8495817     0.014919547
      3681.83       1.8415177     0.014897379
      3685.51       1.8357626     0.014940817
      3689.20       1.8211661     0.014911058
      3692.88       1.8087058     0.014899168
      3696.58       1.7959755     0.014931648
      3700.27       1.7802848     0.014912598
      3703.98       1.7667254     0.014671996
      3707.68       1.7625552     0.014932326
      3711.39       1.7554667     0.014685222
      3715.10       1.7519644     0.014957922
      3718.81       1.7441305     0.014943260
      3722.53       1.7396846     0.014707871
      3726.26       1.7332006     0.014967412
      3729.98       1.7205145     0.014725795
      3733.71       1.7178386     0.014996441
      3737.45       1.7145059     0.014748250
      3741.18       1.7169371     0.015029834
      3744.93       1.7220665     0.015014402
      3748.67       1.7341819     0.014779136
      3752.42       1.7352071     0.015045418
      3756.17       1.7396193     0.014804073
      3759.93       1.7380627     0.015079914
      3763.69       1.7314567     0.014832275
      3767.45       1.7316282     0.014843888
      3771.22       1.7380314     0.014863367
      3774.99       1.7432688     0.014870044
      3778.77       1.7414877     0.015138028
      3782.54       1.7436638     0.014898725
      3786.33       1.7435474     0.015174699
      3790.11       1.7321263     0.014929538
      3793.90       1.7290484     0.014945266
      3797.70       1.7236814     0.014962133
      3801.50       1.7136437     0.014973419
      3805.30       1.7057301     0.014996108
      3809.10       1.7095184     0.015003041
      3812.91       1.7278956     0.015031068
      3816.73       1.7366688     0.015033773
      3820.54       1.7446644     0.014790260
      3824.36       1.7449673     0.015065234
      3828.19       1.7551329     0.015083696
      3832.02       1.7517748     0.015097086
      3835.85       1.7619673     0.015111786
      3839.68       1.7816382     0.015128983
      3843.52       1.8009551     0.015140080
      3847.37       1.8177689     0.015160588
      3851.22       1.8227871     0.015168214
      3855.07       1.8296821     0.014913600
      3858.92       1.8276905     0.015195859
      3862.78       1.8237627     0.014943166
      3866.64       1.8289984     0.015222717
      3870.51       1.8389537     0.014971570
      3874.38       1.8342069     0.015248479
      3878.26       1.8375891     0.014998477
      3882.13       1.8395448     0.015272850
      3886.02       1.8394579     0.015023573
      3889.90       1.8356565     0.015295538
      3893.79       1.8300008     0.015046600
      3897.69       1.8280877     0.015316082
      3901.59       1.8351790     0.015067347
      3905.49       1.8300523     0.015056143
      3909.39       1.8289738     0.015085514
      3913.30       1.8207627     0.015072272
      3917.22       1.8205037     0.015100808
      3921.13       1.8166574     0.015085749
      3925.06       1.8051179     0.015113026
      3928.98       1.7880581     0.015096364
      3932.91       1.7632922     0.015122020
      3936.84       1.7527106     0.015103816
      3940.78       1.7441845     0.015127435
      3944.72       1.7306356     0.015108036
      3948.67       1.7107827     0.015129078
      3952.61       1.6991132     0.015108725
      3956.57       1.6789751     0.015126844
      3960.52       1.6687039     0.015105673
      3964.48       1.6631554     0.015120440
      3968.45       1.6587954     0.015098733
      3972.42       1.6561592     0.015109806
      3976.39       1.6519183     0.014855340
      3980.37       1.6400215     0.015094655
      3984.35       1.6251269     0.014839647
      3988.33       1.6179591     0.015074944
      3992.32       1.6113588     0.014819598
      3996.31       1.6155622     0.015050438
      4000.31       1.6199118     0.014795082
      4004.31       1.6076588     0.015021111
      4008.31       1.6075016     0.014765985
      4012.32       1.6152730     0.014986815
      4016.33       1.6114575     0.014732266
      4020.35       1.6125629     0.014947620
      4024.37       1.6112474     0.014693967
      4028.40       1.6192864     0.014668416
      4032.42       1.6276157     0.014651185
      4036.46       1.6334735     0.014619786
      4040.50       1.6406622     0.014604157
      4044.54       1.6549555     0.014566802
      4048.58       1.6575421     0.014553070
      4052.63       1.6560719     0.014509737
      4056.68       1.6501267     0.014716932
      4060.74       1.6479440     0.014448849
      4064.80       1.6375500     0.014414078
      4068.86       1.6364111     0.014384412
      4072.93       1.6453382     0.014343358
      4077.01       1.6459813     0.014316813
      4081.08       1.6378564     0.014269439
      4085.17       1.6311667     0.014246278
      4089.25       1.6196705     0.014192584
      4093.34       1.6109336     0.013927113
      4097.43       1.6079430     0.014113136
      4101.53       1.6087831     0.013843370
      4105.63       1.6086793     0.014031407
      4109.74       1.6011857     0.013978455
      4113.85       1.5909778     0.013947697
      4117.96       1.5909888     0.013888285
      4122.08       1.5915017     0.013623266
      4126.20       1.5828797     0.013796518
      4130.33       1.5673662     0.013527253
      4134.46       1.5577217     0.013703454
      4138.59       1.5548113     0.013429969
      4142.73       1.5363928     0.013382892
      4146.88       1.5357562     0.013543325
      4151.02       1.5246018     0.013278220
      4155.18       1.5168122     0.013442374
      4159.33       1.5132975     0.013173057
      4163.49       1.4994852     0.013124276
      4167.65       1.4888927     0.013067702
      4171.82       1.4827983     0.013012466
      4175.99       1.4758729     0.013166509
      4180.17       1.4659175     0.012900929
      4184.35       1.4561566     0.012849878
      4188.54       1.4475953     0.012790020
      4192.72       1.4444793     0.012732556
      4196.92       1.4336906     0.012680104
      4201.11       1.4318087     0.012616319
      4205.31       1.4134338     0.012562681
      4209.52       1.4042650     0.012501567
      4213.73       1.3998503     0.012441515
      4217.94       1.3949816     0.012388587
      4222.16       1.3858885     0.012322387
      4226.38       1.3843180     0.012265799
      4230.61       1.3755028     0.012205519
      4234.84       1.3731040     0.012142707
      4239.08       1.3750839     0.011898975
      4243.32       1.3673225     0.012022496
      4247.56       1.3654640     0.011789201
      4251.81       1.3602886     0.011905421
      4256.06       1.3567186     0.011839810
      4260.32       1.3533744     0.011603780
      4264.58       1.3574868     0.011720418
      4268.84       1.3545905     0.011657776
      4273.11       1.3561915     0.011419800
      4277.38       1.3535167     0.011536688
      4281.66       1.3569827     0.011310382
      4285.94       1.3528222     0.011237659
      4290.23       1.3561780     0.011354634
      4294.52       1.3554481     0.011127738
      4298.81       1.3503650     0.011057826
      4303.11       1.3484646     0.011022699
      4307.42       1.3405617     0.010948029
      4311.72       1.3378787     0.010880834
      4316.04       1.3338714     0.010843627
      4320.35       1.3270129     0.010771807
      4324.67       1.3162952     0.010707272
      4329.00       1.3100520     0.010668649
      4333.33       1.3042817     0.010599636
      4337.66       1.3068503     0.010388196
      4342.00       1.3062742     0.010498380
      4346.34       1.3084181     0.010432137
      4350.69       1.3066297     0.010225375
      4355.04       1.3107455     0.010333460
      4359.39       1.3189178     0.010269991
      4363.75       1.3230160     0.010067802
      4368.12       1.3255561     0.010174573
      4372.48       1.3299818     0.010113905
      4376.86       1.3351629    0.0099161743
      4381.23       1.3425486     0.010022425
      4385.61       1.3466478    0.0099646106
      4390.00       1.3525240    0.0097712478
      4394.39       1.3638417    0.0098777868
      4398.79       1.3718570    0.0098228707
      4403.18       1.3834901    0.0096337720
      4407.59       1.3930477    0.0097414139
      4412.00       1.4073607    0.0096895040
      4416.41       1.4153904    0.0095046041
      4420.82       1.4214949    0.0094651001
      4425.25       1.4237179    0.0095653464
      4429.67       1.4182028    0.0093845113
      4434.10       1.4151772    0.0093479204
      4438.54       1.4196494    0.0094512381
      4442.97       1.4243205    0.0092743954
      4447.42       1.4207221    0.0092408717
      4451.86       1.4174327    0.0093480598
      4456.32       1.4148061    0.0091751004
      4460.77       1.4190693    0.0091447904
      4465.24       1.4174411    0.0091202613
      4469.70       1.4120340    0.0090875065
      4474.17       1.4091747    0.0090605860
      4478.65       1.4145862    0.0090393775
      4483.12       1.4092978    0.0088840979
      4487.61       1.4147804    0.0089890983
      4492.09       1.4200088    0.0089713211
      4496.59       1.4193551    0.0088245531
      4501.08       1.4111584    0.0089309837
      4505.58       1.4023698    0.0089166270
      4510.09       1.3911725    0.0089077236
      4514.60       1.3834837    0.0087629035
      4519.12       1.3790596    0.0088754300
      4523.63       1.3762203    0.0088695683
      4528.16       1.3748799    0.0087337588
      4532.69       1.3642890    0.0087261091
      4537.22       1.3607305    0.0088444768
      4541.76       1.3598568    0.0087177221
      4546.30       1.3604768    0.0087127675
      4550.85       1.3588139    0.0087123499
      4555.40       1.3520736    0.0088361634
      4559.95       1.3419732    0.0087119483
      4564.51       1.3441487    0.0087137141
      4569.08       1.3435050    0.0087197228
      4573.65       1.3455855    0.0087233654
      4578.22       1.3520771    0.0087269962
      4582.80       1.3432595    0.0087346875
      4587.38       1.3355096    0.0087463664
      4591.97       1.3316318    0.0087519942
      4596.56       1.3224516    0.0087610462
      4601.16       1.3189892    0.0087738840
      4605.76       1.3130191    0.0087904290
      4610.37       1.3116915    0.0087986280
      4614.98       1.3115115    0.0088123275
      4619.59       1.3058088    0.0088295583
      4624.21       1.3085837    0.0088502495
      4628.84       1.3068476    0.0087382437
      4633.47       1.3035398    0.0088791937
      4638.10       1.3031766    0.0089000777
      4642.74       1.2966288    0.0089240946
      4647.38       1.2913102    0.0088132525
      4652.03       1.2961968    0.0089600820
      4656.68       1.2941395    0.0089839043
      4661.34       1.2911858    0.0090106838
      4666.00       1.2815605    0.0089000788
      4670.67       1.2683858    0.0089317026
      4675.33       1.2615536    0.0090795732
      4680.01       1.2587297    0.0091083313
      4684.69       1.2539348    0.0089973158
      4689.38       1.2525813    0.0090304823
      4694.07       1.2447893    0.0090660779
      4698.76       1.2408719    0.0092157983
      4703.46       1.2369114    0.0091036598
      4708.16       1.2323686    0.0091376977
      4712.87       1.2242892    0.0091739667
      4717.58       1.2209341    0.0092123257
      4722.30       1.2152484    0.0092528057
      4727.03       1.2095860    0.0092521747
      4731.75       1.2004145    0.0092883923
      4736.48       1.1912555    0.0093265143
      4741.22       1.1847887    0.0093664882
      4745.96       1.1771913    0.0092607351
      4750.71       1.1694517    0.0094084412
      4755.46       1.1562471    0.0094456851
      4760.22       1.1496893    0.0094845261
      4764.97       1.1488649    0.0095249469
      4769.74       1.1400482    0.0094190783
      4774.51       1.1340158    0.0094543959
      4779.29       1.1270885    0.0096060615
      4784.07       1.1204273    0.0096444925
      4788.85       1.1177181    0.0096841875
      4793.64       1.1176109    0.0095792176
      4798.43       1.1140485    0.0096136312
      4803.23       1.1114261    0.0096490218
      4808.03       1.1084117    0.0096853144
      4812.84       1.1002340    0.0098411046
      4817.66       1.0927312    0.0098798871
      4822.48       1.0884985    0.0097706165
      4827.30       1.0826822    0.0098038013
      4832.12       1.0793372    0.0098376131
      4836.96       1.0769576    0.0098720060
      4841.79       1.0710043    0.0099069185
      4846.63       1.0644088    0.0099225503
      4851.48       1.0556753    0.0099525829
      4856.33       1.0501826    0.0099829530
      4861.19       1.0390014     0.010013631
      4866.05       1.0378971     0.010044538
      4870.92       1.0388116     0.010075616
      4875.79       1.0446037    0.0099582054
      4880.66       1.0505070     0.010119038
      4885.55       1.0517673     0.010145017
      4890.43       1.0503136     0.010171020
      4895.32       1.0534993     0.010196936
      4900.22       1.0539208     0.010222691
      4905.12       1.0510814     0.010098855
      4910.02       1.0498229     0.010123910
      4914.94       1.0457984     0.010148606
      4919.85       1.0475531     0.010172917
      4924.77       1.0440984     0.010323810
      4929.70       1.0376141     0.010342831
      4934.62       1.0330211     0.010361315
      4939.56       1.0311243     0.010229727
      4944.50       1.0260151     0.010246956
      4949.44       1.0240402     0.010263456
      4954.39       1.0235796     0.010279194
      4959.35       1.0271698     0.010294079
      4964.31       1.0342301     0.010308074
      4969.27       1.0395680     0.010321133
      4974.24       1.0403654     0.010459236
      4979.22       1.0360355     0.010318404
      4984.20       1.0332054     0.010325105
      4989.18       1.0334911     0.010330821
      4994.17       1.0299803     0.010335522
      4999.16       1.0260513     0.010339201
      5004.16       1.0215281     0.010341841
      5009.17       1.0180350     0.010343460
      5014.18       1.0159559     0.010481267
      5019.19       1.0095548     0.010359467
      5024.21       1.0086621     0.010199521
      5029.23       1.0115470     0.010215348
      5034.26       1.0159163     0.010256386
      5039.30       1.0153998     0.010308776
      5044.34       1.0156827     0.010478776
      5049.39       1.0183223     0.010528566
      5054.43       1.0193807     0.010564805
      5059.49       1.0202227     0.010581049
      5064.55       1.0155486     0.010575110
      5069.61       1.0153925     0.010541264
      5074.68       1.0145665     0.010336276
      5079.76       1.0187487     0.010271613
      5084.84       1.0184887     0.010197553
      5089.92       1.0227984     0.010122179
      5095.01       1.0237033     0.010055200
      5100.11       1.0305269     0.010008381
      5105.21       1.0323702    0.0099971972
      5110.31       1.0337990     0.010044966
      5115.42       1.0401320    0.0099480049
      5120.54       1.0408856    0.0099250819
      5125.66       1.0414632    0.0099014225
      5130.79       1.0464082    0.0098770179
      5135.92       1.0437539    0.0098518906
      5141.05       1.0423923    0.0097022130
      5146.20       1.0393410    0.0096761874
      5151.34       1.0332447    0.0096494959
      5156.49       1.0300203    0.0096221345
      5161.65       1.0293055    0.0095941241
      5166.81       1.0241424    0.0095654950
      5171.98       1.0215798    0.0095362286
      5177.15       1.0265160    0.0095063637
      5182.33       1.0221613    0.0094759422
      5187.51       1.0250391    0.0094449187
      5192.70       1.0225456    0.0094133473
      5197.89       1.0214339    0.0093812514
      5203.09       1.0144272    0.0093486358
      5208.29       1.0105228    0.0093155578
      5213.50       1.0013041    0.0092819897
      5218.72      0.99169901    0.0092479432
      5223.93      0.98942440    0.0092135037
      5229.16      0.98543893    0.0091786207
      5234.39      0.97837407    0.0091433386
      5239.62      0.97600683    0.0091076915
      5244.86      0.97204727    0.0090716987
      5250.11      0.97046579    0.0090354034
      5255.36      0.96933407    0.0089987779
      5260.61      0.96617883    0.0089618677
      5265.87      0.96883329    0.0089247287
      5271.14      0.97673733    0.0088873140
      5276.41      0.98165548    0.0088497103
      5281.69      0.97934496    0.0088119367
      5286.97      0.97736834    0.0087740556
      5292.26      0.98057105    0.0087358742
      5297.55      0.98470375    0.0086976608
      5302.85      0.98431695    0.0086593672
      5308.15      0.98161198    0.0086210370
      5313.46      0.97702241    0.0085826452
      5318.77      0.97839869    0.0085442569
      5324.09      0.98125781    0.0085059121
      5329.42      0.97700259    0.0084675900
      5334.75      0.97621233    0.0084293491
      5340.08      0.97411591    0.0083912039
      5345.42      0.96731591    0.0083531962
      5350.77      0.96679551    0.0083153548
      5356.12      0.96328331    0.0082776908
      5361.48      0.95968810    0.0082402445
      5366.83      0.95783711    0.0080980646
      5372.20      0.95599294    0.0080616622
      5377.58      0.94822315    0.0080255684
      5382.95      0.94485001    0.0079898117
      5388.34      0.94147227    0.0079543966
      5393.72      0.94202914    0.0079193790
      5399.12      0.93861318    0.0078847771
      5404.52      0.92831183    0.0078506263
      5409.92      0.92064377    0.0078170340
      5415.33      0.91657907    0.0077837888
      5420.75      0.91025686    0.0077511618
      5426.17      0.90287372    0.0077190952
      5431.60      0.89308243    0.0076876233
      5437.03      0.88496816    0.0075569156
      5442.47      0.88064420    0.0076265764
      5447.91      0.87711733    0.0078327291
      5453.36      0.87914882    0.0081028155
      5458.81      0.88409053    0.0075303383
      5464.27      0.88944139    0.0074716611
      5469.73      0.89104946    0.0075590963
      5475.20      0.89518860    0.0078094120
      5480.68      0.89307232    0.0080110077
      5486.16      0.89900321    0.0082112448
      5491.65      0.89778766    0.0082389644
      5497.14      0.88964217    0.0083293940
      5502.64      0.88368172    0.0083507923
      5508.14      0.86543527    0.0082232402
      5513.65      0.85779430    0.0080374106
      5519.16      0.85005507    0.0078173422
      5524.68      0.83978196    0.0075849839
      5530.20      0.83237464    0.0073642728
      5535.73      0.82816191    0.0071058478
      5541.27      0.81952163    0.0070018612
      5546.81      0.82009934    0.0072661921
      5552.36      0.82188235    0.0074593863
      5557.91      0.82151959    0.0071868958
      5563.47      0.81669090    0.0069761347
      5569.04      0.81998931    0.0069573080
      5574.60      0.81570255    0.0069392423
      5580.18      0.81298530    0.0068407522
      5585.76      0.80793591    0.0068245358
      5591.35      0.80767892    0.0068090838
      5596.94      0.80383535    0.0067944005
      5602.53      0.79771693    0.0068558335
      5608.14      0.79166722    0.0068399096
      5613.75      0.78401776    0.0067453194
      5619.36      0.78448564    0.0067313015
      5624.98      0.78004638    0.0067180621
      5630.60      0.77713030    0.0067056114
      5636.23      0.77605226    0.0066939263
      5641.87      0.77139525    0.0066831182
      5647.51      0.76666403    0.0065903198
      5653.16      0.76439647    0.0066553894
      5658.82      0.76192046    0.0066442730
      5664.47      0.76204757    0.0066339794
      5670.14      0.76164146    0.0066245144
      5675.81      0.76303694    0.0066158939
      5681.48      0.76319841    0.0065277785
      5687.17      0.76018095    0.0065179860
      5692.85      0.75358779    0.0065857073
      5698.55      0.75607497    0.0065775317
      5704.25      0.75845554    0.0065702353
      5709.95      0.75829394    0.0064872799
      5715.66      0.75801137    0.0064786712
      5721.38      0.75875122    0.0064709141
      5727.10      0.75581455    0.0065406787
      5732.83      0.75170153    0.0065346439
      5738.56      0.75436498    0.0064556255
      5744.30      0.75296027    0.0064481762
      5750.04      0.75069128    0.0064416004
      5755.79      0.75032376    0.0064359244
      5761.55      0.74995364    0.0065078632
      5767.31      0.75027878    0.0064316208
      5773.08      0.75640034    0.0064253094
      5778.85      0.75948300    0.0064199105
      5784.63      0.75990040    0.0064154579
      5790.41      0.76030029    0.0063428577
      5796.21      0.75415935    0.0064142136
      5802.00      0.74676992    0.0064090411
      5807.81      0.74734532    0.0064048520
      5813.61      0.74519366    0.0064016570
      5819.43      0.73798852    0.0063307663
      5825.25      0.73456486    0.0064024795
      5831.07      0.72937541    0.0063985266
      5836.90      0.72308384    0.0063956168
      5842.74      0.72115362    0.0063252877
      5848.58      0.72005811    0.0063245244
      5854.43      0.71888207    0.0063957356
      5860.29      0.71977076    0.0063930793
      5866.15      0.72276407    0.0063232356
      5872.01      0.72267673    0.0063228289
      5877.89      0.72347773    0.0063235063
      5883.76      0.72882785    0.0063933688
      5889.65      0.72750554    0.0063239706
      5895.54      0.72876134    0.0063239483
      5901.43      0.72866739    0.0063250359
      5907.34      0.71994455    0.0062552322
      5913.24      0.71197446    0.0063269251
      5919.16      0.70866327    0.0063273212
      5925.08      0.70544792    0.0063288863
      5931.00      0.69892864    0.0062593733
      5936.93      0.69394426    0.0063316740
      5942.87      0.68854476    0.0063325736
      5948.81      0.68253188    0.0063347116
      5954.76      0.67530923    0.0062650522
      5960.72      0.67135555    0.0063380801
      5966.68      0.67223541    0.0063396625
      5972.64      0.67645546    0.0062725902
      5978.62      0.67409487    0.0062723767
      5984.60      0.66910622    0.0063464061
      5990.58      0.66941478    0.0062816668
      5996.57      0.66613221    0.0062810554
      6002.57      0.66213515    0.0062818249
      6008.57      0.66374669    0.0063572020
      6014.58      0.65812347    0.0062914021
      6020.60      0.65239779    0.0062919392
      6026.62      0.64998831    0.0062939818
      6032.65      0.64533995    0.0063034354
      6038.68      0.64365091    0.0063038624
      6044.72      0.63862828    0.0063058799
      6050.76      0.63161707    0.0063172521
      6056.81      0.62223614    0.0063176826
      6062.87      0.61528855    0.0063197924
      6068.93      0.60870125    0.0062599713
      6075.00      0.60648369    0.0063334794
      6081.08      0.60254524    0.0063358123
      6087.16      0.60086300    0.0062763100
      6093.25      0.59285018    0.0063513711
      6099.34      0.58675468    0.0063540691
      6105.44      0.58471491    0.0062950093
      6111.54      0.58477991    0.0063714733
      6117.66      0.58559139    0.0063746882
      6123.78      0.58734505    0.0063162091
      6129.90      0.58760502    0.0063233588
      6136.03      0.59386442    0.0063978242
      6142.17      0.59594160    0.0063400720
      6148.31      0.60066590    0.0063480902
      6154.46      0.61062677    0.0063598259
      6160.61      0.61418831    0.0063667859
      6166.77      0.61670679    0.0063758339
      6172.94      0.61669368    0.0063884921
      6179.11      0.62223868    0.0063965580
      6185.29      0.62529760    0.0064068118
      6191.48      0.62852258    0.0064202627
      6197.67      0.62822352    0.0064296093
      6203.87      0.63056665    0.0063740105
      6210.07      0.62964427    0.0064553667
      6216.28      0.62956135    0.0064661891
      6222.50      0.63509255    0.0064105227
      6228.72      0.64314853    0.0064940688
      6234.95      0.63990828    0.0064414920
      6241.19      0.63846664    0.0064506554
      6247.42      0.63679656    0.0065366560
      6253.67      0.63781036    0.0064837230
      6259.93      0.63576457    0.0064947066
      6266.19      0.63626187    0.0065195746
      6272.46      0.63644737    0.0065299612
      6278.73      0.63584761    0.0066187566
      6285.01      0.63250106    0.0065680223
      6291.29      0.62767553    0.0065805509
      6297.58      0.62314251    0.0066088741
      6303.88      0.61946515    0.0066209325
      6310.19      0.61719027    0.0065747316
      6316.50      0.61211438    0.0066640931
      6322.81      0.60677701    0.0066786751
      6329.14      0.60365911    0.0067100922
      6335.47      0.59958963    0.0067243497
      6341.80      0.59893514    0.0066800710
      6348.14      0.59595055    0.0067728576
      6354.49      0.59116689    0.0067281518
      6360.85      0.59170962    0.0068241758
      6367.21      0.59231378    0.0068411964
      6373.57      0.59566646    0.0067993036
      6379.95      0.59773952    0.0068952537
      6386.33      0.59951222    0.0068531084
      6392.72      0.60170083    0.0069521919
      6399.11      0.59988766    0.0069098078
      6405.51      0.59660853    0.0069336112
      6411.92      0.59899447    0.0069694147
      6418.32      0.59947917    0.0069934971
      6424.74      0.59975981    0.0070319627
      6431.17      0.60186267    0.0070563886
      6437.60      0.60326142    0.0070167328
      6444.04      0.60607032    0.0071223164
      6450.48      0.61090588    0.0071509137
      6456.94      0.61481403    0.0071913281
      6463.39      0.62669677    0.0072205317
      6469.85      0.63604405    0.0072634762
      6476.33      0.64514871    0.0072933660
      6482.80      0.65596762    0.0073388140
      6489.28      0.66240516    0.0073694815
      6495.77      0.67142488    0.0073319826
      6502.27      0.67663834    0.0074489482
      6508.77      0.68097942    0.0074126861
      6515.28      0.67957190    0.0075318301
      6521.80      0.67805111    0.0074967405
      6528.32      0.67255346    0.0076181934
      6534.85      0.67122138    0.0075841917
      6541.38      0.66304915    0.0077081169
      6547.92      0.65984651    0.0076751404
      6554.47      0.65630229    0.0077374739
      6561.03      0.65185267    0.0077696356
      6567.59      0.64752913    0.0078341701
      6574.16      0.64179081    0.0078677921
      6580.73      0.63670292    0.0078414241
      6587.31      0.63497246    0.0079696743
      6593.90      0.63084501    0.0079443377
      6600.50      0.62832410    0.0080753961
      6607.10      0.62988974    0.0080511715
      6613.70      0.63080223    0.0081850457
      6620.32      0.62915654    0.0081620623
      6626.94      0.62575874    0.0084492583
      6633.57      0.62447344    0.0087050934
      6640.20      0.61513739    0.0085280580
      6646.84      0.61188372    0.0084215402
      6653.49      0.60223329    0.0085917666
      6660.14      0.59841692    0.0087931702
      6666.80      0.59392957    0.0090827072
      6673.47      0.59592972    0.0093210339
      6680.14      0.59444581    0.0096109998
      6686.82      0.59142242    0.0098108214
      6693.51      0.58699342    0.0099713550
      6700.20      0.58789111     0.010031733
      6706.90      0.58340430    0.0099487828
      6713.61      0.57848656    0.0098599582
      6720.32      0.57859999    0.0097059701
      6727.05      0.57481431    0.0095757522
      6733.77      0.57266726    0.0094397139
      6740.51      0.57047708    0.0094283950
      6747.25      0.56699872    0.0094240535
      6754.00      0.56215935     0.010249785
      6760.75      0.55977549    0.0098882420
      6767.51      0.55675442    0.0097039403
      6774.28      0.55784374    0.0096884567
      6781.05      0.54829235    0.0097921494
      6787.84      0.55017515    0.0099731042
      6794.62      0.54529489    0.0099611521
      6801.42      0.55274494     0.010071984
      6808.22      0.55287318     0.010135843
      6815.03      0.55847813     0.010248301
      6821.85      0.55576252     0.010316473
      6828.67      0.55688398     0.010430539
      6835.50      0.55102747     0.010550064
      6842.33      0.54304479     0.010618915
      6849.17      0.53509128     0.010739993
      6856.02      0.52664629     0.010734263
      6862.88      0.51610903     0.010936316
      6869.74      0.51412526     0.010934555
      6876.61      0.50673851     0.011139400
      6883.49      0.49510724     0.011269027
      6890.37      0.49171428     0.011266881
      6897.27      0.49064831     0.011480971
      6904.16      0.49276895     0.011483697
      6911.07      0.49082121     0.011616112
      6917.98      0.49720480     0.011840150
      6924.89      0.50112439     0.011843970
      6931.82      0.50777670     0.011984806
      6938.75      0.51020783     0.012082028
      6945.69      0.51780118     0.012226005
      6952.64      0.51209485     0.012376556
      6959.59      0.50876062     0.012387059
      6966.55      0.50465901     0.012400908
      6973.52      0.49275826     0.012559513
      6980.49      0.47986765     0.012579644
      6987.47      0.47873668     0.012602328
      6994.46      0.48096684     0.012627579
      7001.46      0.47493937     0.012662179
      7008.46      0.47089667     0.012832780
      7015.46      0.45805103     0.012868374
      7022.48      0.45866898     0.012837906
      7029.51      0.46276693     0.012883887
      7036.53      0.46772337     0.012932921
      7043.57      0.47125161     0.013124054
      7050.62      0.47457469     0.013181290
      7057.66      0.48111866     0.013241233
      7064.72      0.48237782     0.013310638
      7071.79      0.49143748     0.013451921
      7078.86      0.49529102     0.013523059
      7085.94      0.49488188     0.013601530
      7093.03      0.49257883     0.013685138
      7100.12      0.49620860     0.013769899
      7107.22      0.49233044     0.013997535
      7114.33      0.49261508     0.014037279
      7121.44      0.48679350     0.014136269
      7128.56      0.48407507     0.014239887
      7135.69      0.48040516     0.014487791
      7142.83      0.46794575     0.014600933
      7149.97      0.46533200     0.014912076
      7157.12      0.46537295     0.014947716
      7164.28      0.45765629     0.015076261
      7171.44      0.45534108     0.015188714
      7178.62      0.44289055     0.015317739
      7185.80      0.42918830     0.015529085
      7192.98      0.42505850     0.015919671
      7200.17      0.41376081     0.016208113
      7207.38      0.40549347     0.016476958
      7214.58      0.39779722     0.016727603
      7221.80      0.38522658     0.017182384
      7229.02      0.37357523     0.017483407
      7236.25      0.36564527     0.017748492
      7243.49      0.36226297     0.017959919
      7250.73      0.35499950     0.018424942
      7257.98      0.35030516     0.018621548
      7265.24      0.35170809     0.018764023
      7272.51      0.35646166     0.018962438
      7279.78      0.35746416     0.019460140
      7287.06      0.35677249     0.019812328
      7294.35      0.36270644     0.020221039
      7301.64      0.36395625     0.020700216
      7308.94      0.36950806     0.021297014
      7316.25      0.37288978     0.021946803
      7323.57      0.38568997     0.022756863
      7330.89      0.39345514     0.024009671
      7338.22      0.39744433     0.025356441
      7345.56      0.39283114     0.027120638
      7352.91      0.39162813     0.029441061
      7360.26      0.39172151     0.032053563
      7367.62      0.39171190     0.036030226
      7374.99      0.39413798     0.041430491
      7382.37      0.40066155     0.049072892
      7389.75      0.36533721     0.066838785
