# starting wavelength =        3315.3763
# ending wavelength =        9521.4179
# O2 telluric scale =        0
# O2 telluric shift =        0
# H2O telluric scale =        0
# H2O telluric shift =        0
      3318.31      0.71599671     0.082028881
      3321.63      0.70692725     0.081558558
      3324.95      0.67541551     0.081289490
      3328.28      0.66738641     0.081666272
      3331.61      0.61696107     0.081837122
      3334.94      0.62551071     0.082526919
      3338.27      0.61853508     0.083847942
      3341.61      0.65106267     0.084204733
      3344.95      0.65904599     0.084936020
      3348.30      0.61893731     0.085221302
      3351.65      0.63809348     0.085808106
      3355.00      0.59853157     0.085611295
      3358.35      0.58629122     0.084949060
      3361.71      0.60175909     0.083976573
      3365.07      0.60650290     0.083239951
      3368.44      0.60371448     0.082240167
      3371.81      0.64950574     0.080185587
      3375.18      0.65351798     0.078229259
      3378.56      0.65426946     0.076160543
      3381.94      0.69848866     0.074250453
      3385.32      0.75522708     0.072241840
      3388.70      0.80480591     0.070983648
      3392.09      0.84551818     0.069818391
      3395.48      0.87182512     0.069299744
      3398.88      0.87553965     0.068567684
      3402.28      0.88206895     0.068897427
      3405.68      0.87834485     0.069828999
      3409.09      0.87069048     0.070102749
      3412.49      0.86680272     0.069513466
      3415.91      0.83481135     0.070459358
      3419.32      0.83082341     0.071376673
      3422.74      0.79468989     0.072981092
      3426.17      0.77536025     0.075149409
      3429.59      0.80273352     0.076993226
      3433.02      0.79557073     0.079081395
      3436.45      0.79990571     0.080658948
      3439.89      0.76577877     0.083093754
      3443.33      0.72629211     0.083960922
      3446.78      0.72352435     0.084351237
      3450.22      0.72336886     0.084587833
      3453.67      0.73436375     0.082944520
      3457.13      0.79291466     0.080705371
      3460.58      0.81812737     0.078559680
      3464.04      0.83544753     0.075835577
      3467.51      0.84480584     0.072654864
      3470.98      0.84652491     0.070412490
      3474.45      0.87944758     0.068602665
      3477.92      0.89383383     0.066509063
      3481.40      0.91030049     0.065798008
      3484.88      0.91655625     0.066445742
      3488.37      0.89823289     0.064955113
      3491.86      0.91378789     0.065752714
      3495.35      0.92491188     0.066231994
      3498.84      0.93063365     0.064980473
      3502.34      0.91118688     0.065314991
      3505.84      0.90291323     0.065898368
      3509.35      0.90133245     0.065846661
      3512.86      0.93621677     0.066298783
      3516.37      0.93820633     0.066245703
      3519.89      0.93303145     0.065812295
      3523.41      0.93533976     0.065795579
      3526.93      0.95415143     0.064622031
      3530.46      0.92754596     0.063822290
      3533.99      0.89617439     0.062965124
      3537.53      0.93873993     0.061231752
      3541.06      0.93036793     0.060136275
      3544.60      0.91853915     0.059057499
      3548.15      0.87034449     0.057117807
      3551.70      0.85865379     0.056213069
      3555.25      0.84952707     0.056607135
      3558.80      0.83783808     0.055197382
      3562.36      0.83025759     0.054609803
      3565.92      0.85081231     0.054947908
      3569.49      0.87938586     0.054766117
      3573.06      0.90556404     0.054569220
      3576.64      0.91855170     0.055069839
      3580.21      0.93651549     0.056076466
      3583.79      0.92897001     0.056264629
      3587.38      0.91762703     0.057192554
      3590.96      0.93781343     0.058747427
      3594.55      0.97841126     0.059319252
      3598.15      0.98197645     0.058284263
      3601.75       1.0117827     0.058328394
      3605.35       1.0169258     0.060022375
      3608.96       1.0113992     0.061436079
      3612.56      0.97520459     0.059030885
      3616.18      0.97913623     0.059153661
      3619.79      0.92400294     0.059843364
      3623.41      0.91133690     0.061000103
      3627.04      0.88572697     0.062411594
      3630.66      0.89958986     0.064714114
      3634.29      0.89714722     0.067032142
      3637.93      0.87148673     0.065405524
      3641.57      0.88908135     0.065263416
      3645.21      0.89614940     0.061936001
      3648.86      0.88633059     0.060358626
      3652.50      0.85745367     0.057995708
      3656.16      0.86776103     0.056911487
      3659.81      0.85772103     0.056042194
      3663.47      0.85539633     0.055757307
      3667.14      0.88736455     0.056311024
      3670.80      0.86841873     0.053587887
      3674.48      0.86013032     0.054425740
      3678.15      0.82344249     0.059644630
      3681.83      0.82309023     0.058497772
      3685.51      0.82465452     0.057595714
      3689.20      0.82377228     0.058027269
      3692.88      0.84207358     0.058914428
      3696.58      0.86239155     0.059249767
      3700.27      0.91818598     0.058818098
      3703.98      0.90455932     0.057533187
      3707.68      0.87635930     0.057363059
      3711.39      0.87817432     0.056366643
      3715.10      0.88838410     0.054614718
      3718.81      0.91866385     0.054018661
      3722.53      0.92052187     0.053247487
      3726.26      0.96391519     0.052624930
      3729.98       1.0040923     0.052719036
      3733.71       1.0087050     0.052827231
      3737.45      0.99919158     0.051804018
      3741.18       1.0035978     0.051142819
      3744.93      0.99270989     0.050917777
      3748.67      0.96004674     0.049738846
      3752.42      0.99863375     0.049464482
      3756.17       1.0354690     0.049494306
      3759.93       1.0526932     0.049660527
      3763.69       1.0590935     0.050558051
      3767.45       1.0485156     0.051308701
      3771.22       1.0512252     0.051320802
      3774.99       1.0146833     0.052306186
      3778.77       1.0112018     0.053530409
      3782.54       1.0246594     0.054292323
      3786.33       1.0236798     0.055836641
      3790.11       1.0223662     0.058335287
      3793.90       1.0243045     0.058546630
      3797.70       1.0347520     0.059261359
      3801.50      0.99045695     0.060499667
      3805.30      0.95747599     0.062301566
      3809.10      0.89637284     0.064002039
      3812.91      0.86589057     0.066120432
      3816.73      0.80615342     0.067859323
      3820.54      0.81158484     0.068018055
      3824.36      0.87528759     0.068284150
      3828.19      0.91173707     0.066238041
      3832.02      0.89114599     0.067491320
      3835.85      0.86598994     0.064156911
      3839.68      0.87806849     0.062918616
      3843.52      0.90609069     0.062429456
      3847.37      0.93875619     0.062622836
      3851.22      0.95278509     0.062421628
      3855.07      0.98735107     0.060685140
      3858.92       1.0106805     0.063739866
      3862.78       1.0490229     0.062219193
      3866.64       1.0646547     0.062911218
      3870.51       1.0635796     0.066593943
      3874.38       1.0368901     0.063356497
      3878.26       1.0272477     0.060962913
      3882.13       1.0455024     0.060565721
      3886.02       1.0335700     0.060833138
      3889.90       1.0674792     0.062283949
      3893.79       1.1154192     0.063017185
      3897.69       1.1477000     0.062623441
      3901.59       1.1490886     0.063370873
      3905.49       1.1284180     0.063549711
      3909.39       1.1385207     0.058657598
      3913.30       1.1800051     0.057013580
      3917.22       1.2179997     0.055980745
      3921.13       1.3051509     0.055517048
      3925.06       1.3283624     0.055215302
      3928.98       1.3828050     0.053357007
      3932.91       1.4412214     0.055379504
      3936.84       1.4755518     0.054584498
      3940.78       1.5180734     0.053281142
      3944.72       1.5433336     0.053216006
      3948.67       1.5686111     0.051956202
      3952.61       1.5661334     0.052084627
      3956.57       1.5878063     0.052591911
      3960.52       1.5947513     0.053003236
      3964.48       1.6433004     0.053583249
      3968.45       1.6552574     0.053499348
      3972.42       1.6437767     0.053562494
      3976.39       1.6232379     0.054260170
      3980.37       1.6099271     0.053547382
      3984.35       1.6164919     0.052832297
      3988.33       1.6360491     0.052339188
      3992.32       1.6748062     0.051700524
      3996.31       1.7167525     0.050897969
      4000.31       1.7241257     0.050547371
      4004.31       1.7485961     0.050393768
      4008.31       1.7549656     0.050650023
      4012.32       1.7637955     0.051731980
      4016.33       1.7924770     0.049852568
      4020.35       1.8009047     0.049397077
      4024.37       1.8102314     0.048803868
      4028.40       1.7836372     0.048154572
      4032.42       1.7958273     0.047429090
      4036.46       1.8099108     0.047005772
      4040.50       1.8022889     0.046829951
      4044.54       1.7810829     0.046418730
      4048.58       1.7788178     0.046099808
      4052.63       1.7584692     0.045990166
      4056.68       1.7095850     0.045990308
      4060.74       1.6877253     0.047089428
      4064.80       1.6732959     0.046273980
      4068.86       1.6625349     0.046530499
      4072.93       1.6209282     0.047430599
      4077.01       1.5693036     0.048721667
      4081.08       1.5296644     0.050892743
      4085.17       1.4564532     0.052637815
      4089.25       1.3881466     0.053734029
      4093.34       1.3608893     0.054677724
      4097.43       1.3325692     0.056594340
      4101.53       1.3041325     0.058871812
      4105.63       1.2801708     0.060142539
      4109.74       1.2826753     0.061367362
      4113.85       1.2981800     0.062170439
      4117.96       1.2959361     0.062508066
      4122.08       1.3190912     0.061565848
      4126.20       1.3755960     0.060036121
      4130.33       1.3902308     0.057998489
      4134.46       1.4302546     0.056336871
      4138.59       1.4801922     0.055103636
      4142.73       1.4901439     0.052607924
      4146.88       1.5072869     0.050818340
      4151.02       1.4824793     0.049516751
      4155.18       1.4825113     0.048634539
      4159.33       1.4733055     0.048794081
      4163.49       1.4563895     0.048265986
      4167.65       1.4725725     0.047236960
      4171.82       1.4574409     0.046910962
      4175.99       1.4615037     0.046674128
      4180.17       1.4715205     0.046179826
      4184.35       1.4688722     0.045713619
      4188.54       1.4520807     0.045312999
      4192.72       1.4318202     0.045242109
      4196.92       1.4078597     0.044989600
      4201.11       1.3850863     0.044839359
      4205.31       1.3655698     0.044306063
      4209.52       1.3716060     0.044233183
      4213.73       1.3623488     0.044252520
      4217.94       1.3815039     0.044119359
      4222.16       1.3782215     0.044058747
      4226.38       1.3621846     0.044103113
      4230.61       1.3563733     0.044182945
      4234.84       1.3744699     0.043974749
      4239.08       1.3846655     0.044034060
      4243.32       1.4013431     0.044078771
      4247.56       1.4134027     0.044054381
      4251.81       1.4056824     0.044263246
      4256.06       1.4268144     0.044176364
      4260.32       1.4493429     0.043598409
      4264.58       1.4227623     0.043319551
      4268.84       1.4064595     0.043089241
      4273.11       1.3820125     0.042854697
      4277.38       1.3581559     0.042684094
      4281.66       1.3685137     0.042366112
      4285.94       1.3667568     0.042290945
      4290.23       1.3753321     0.042458170
      4294.52       1.3804338     0.042376885
      4298.81       1.4025244     0.042318776
      4303.11       1.3696105     0.041961680
      4307.42       1.3870598     0.041753307
      4311.72       1.3994458     0.041528985
      4316.04       1.3905575     0.041325339
      4320.35       1.3789633     0.041011414
      4324.67       1.3920575     0.040766063
      4329.00       1.4003317     0.040556171
      4333.33       1.3875184     0.040671357
      4337.66       1.4031006     0.040995934
      4342.00       1.4025026     0.039958569
      4346.34       1.3995468     0.039870320
      4350.69       1.3801289     0.039976242
      4355.04       1.3696705     0.040099527
      4359.39       1.3653846     0.040486500
      4363.75       1.3972991     0.040976325
      4368.12       1.3775274     0.041669049
      4372.48       1.3917811     0.041808347
      4376.86       1.3933939     0.041945711
      4381.23       1.3890410     0.041799819
      4385.61       1.3767258     0.041591118
      4390.00       1.3863068     0.041848041
      4394.39       1.3724011     0.041883135
      4398.79       1.3566569     0.041779011
      4403.18       1.3409300     0.041793576
      4407.59       1.3397521     0.042116590
      4412.00       1.3294013     0.042338074
      4416.41       1.3222699     0.042630720
      4420.82       1.3244443     0.043225080
      4425.25       1.3224509     0.042188953
      4429.67       1.3159977     0.041769195
      4434.10       1.2896191     0.041445587
      4438.54       1.2935368     0.041150336
      4442.97       1.2993514     0.040779115
      4447.42       1.3165123     0.040576796
      4451.86       1.3299229     0.040763038
      4456.32       1.3671637     0.041355541
      4460.77       1.3737995     0.042404225
      4465.24       1.3951456     0.042920985
      4469.70       1.4056276     0.043604828
      4474.17       1.4219455     0.044308594
      4478.65       1.4401179     0.043923061
      4483.12       1.4530792     0.043555206
      4487.61       1.4791287     0.043867286
      4492.09       1.4939583     0.043216518
      4496.59       1.5053021     0.041601866
      4501.08       1.5416588     0.040425280
      4505.58       1.5679472     0.039976543
      4510.09       1.5832274     0.039398260
      4514.60       1.5868987     0.039415104
      4519.12       1.6059268     0.039762732
      4523.63       1.6174027     0.039652827
      4528.16       1.6490328     0.039632824
      4532.69       1.6757207     0.039267458
      4537.22       1.6963773     0.038937313
      4541.76       1.7226758     0.038270522
      4546.30       1.7525097     0.038192071
      4550.85       1.7767230     0.038122765
      4555.40       1.7849546     0.038394948
      4559.95       1.7987257     0.038407955
      4564.51       1.8230767     0.038497544
      4569.08       1.8473411     0.039254275
      4573.65       1.8824924     0.040272410
      4578.22       1.8953706     0.040579938
      4582.80       1.9270320     0.040070163
      4587.38       1.9514388     0.040255501
      4591.97       1.9610546     0.040367039
      4596.56       1.9632252     0.040403032
      4601.16       1.9725465     0.040397651
      4605.76       1.9756827     0.040334463
      4610.37       1.9444474     0.039962046
      4614.98       1.9459481     0.040049142
      4619.59       1.9170747     0.039746418
      4624.21       1.8724321     0.039836619
      4628.84       1.8478989     0.039526015
      4633.47       1.8366079     0.039526152
      4638.10       1.7755908     0.039252068
      4642.74       1.7187072     0.039145743
      4647.38       1.6868865     0.038958394
      4652.03       1.6678418     0.038662127
      4656.68       1.6298514     0.038877091
      4661.34       1.6014928     0.038703867
      4666.00       1.5656419     0.038874547
      4670.67       1.5451531     0.038595027
      4675.33       1.5067551     0.038718774
      4680.01       1.4783020     0.038778699
      4684.69       1.4665212     0.039637666
      4689.38       1.4466064     0.040504841
      4694.07       1.4118052     0.041682619
      4698.76       1.3936211     0.042577944
      4703.46       1.4005451     0.043321319
      4708.16       1.3996322     0.043316736
      4712.87       1.3790173     0.043580047
      4717.58       1.3911142     0.042551590
      4722.30       1.3976127     0.041868758
      4727.03       1.3623410     0.040511624
      4731.75       1.3642330     0.039175744
      4736.48       1.3827957     0.038089974
      4741.22       1.3788470     0.037066198
      4745.96       1.3664241     0.036464107
      4750.71       1.3728801     0.036047481
      4755.46       1.3548895     0.035766148
      4760.22       1.3496343     0.035806315
      4764.97       1.3315970     0.035615719
      4769.74       1.3073073     0.035081835
      4774.51       1.2942632     0.035594522
      4779.29       1.2609225     0.035935171
      4784.07       1.2361973     0.036864376
      4788.85       1.2242486     0.038186666
      4793.64       1.1942792     0.039130629
      4798.43       1.1823657     0.040037730
      4803.23       1.1662062     0.040519505
      4808.03       1.1550530     0.041748985
      4812.84       1.1643334     0.041336048
      4817.66       1.1756751     0.040065181
      4822.48       1.1769100     0.039724205
      4827.30       1.1871171     0.039077756
      4832.12       1.1902694     0.038071114
      4836.96       1.1974033     0.038205247
      4841.79       1.2059147     0.037773386
      4846.63       1.1991458     0.037029350
      4851.48       1.2410692     0.037356392
      4856.33       1.2591950     0.037595207
      4861.19       1.2668685     0.038498148
      4866.05       1.3020086     0.039207000
      4870.92       1.2855677     0.039061797
      4875.79       1.3131501     0.038513073
      4880.66       1.2987674     0.038467026
      4885.55       1.3001131     0.037396527
      4890.43       1.3132147     0.036830338
      4895.32       1.3105337     0.036605888
      4900.22       1.2842296     0.037110383
      4905.12       1.2859204     0.036528762
      4910.02       1.2768562     0.035998898
      4914.94       1.2527702     0.036122931
      4919.85       1.2524562     0.036043982
      4924.77       1.2404017     0.036043722
      4929.70       1.2372101     0.036444977
      4934.62       1.2377736     0.036014637
      4939.56       1.2587617     0.035281166
      4944.50       1.2829213     0.034992630
      4949.44       1.3285485     0.034759735
      4954.39       1.3563443     0.035659932
      4959.35       1.4040691     0.036787934
      4964.31       1.4563314     0.035465690
      4969.27       1.5177326     0.035557079
      4974.24       1.5459810     0.035527405
      4979.22       1.5836298     0.035680846
      4984.20       1.6093815     0.036714115
      4989.18       1.6134939     0.038070186
      4994.17       1.6105190     0.039956788
      4999.16       1.6490421     0.042444447
      5004.16       1.6353066     0.043523564
      5009.17       1.6268114     0.044517117
      5014.18       1.6037945     0.045486483
      5019.19       1.5281348     0.045487537
      5024.21       1.4836752     0.045054306
      5029.23       1.4340834     0.044526998
      5034.26       1.3880199     0.044313030
      5039.30       1.3204837     0.044891903
      5044.34       1.3275678     0.045682158
      5049.39       1.2980983     0.050954365
      5054.43       1.2917314     0.048328398
      5059.49       1.3018012     0.046213662
      5064.55       1.2840883     0.046284903
      5069.61       1.2797433     0.046228869
      5074.68       1.2711817     0.045615417
      5079.76       1.2504797     0.045584872
      5084.84       1.2419140     0.045985215
      5089.92       1.2340969     0.047246232
      5095.01       1.2550079     0.049520645
      5100.11       1.2519488     0.049342116
      5105.21       1.2544307     0.050611212
      5110.31       1.2346459     0.052514541
      5115.42       1.2094898     0.054242544
      5120.54       1.2104337     0.055366747
      5125.66       1.2046647     0.056958662
      5130.79       1.1872633     0.058983400
      5135.92       1.1895867     0.060728408
      5141.05       1.2592697     0.062345105
      5146.20       1.2557971     0.064037638
      5151.34       1.3101339     0.065113225
      5156.49       1.3694694     0.065868950
      5161.65       1.3815831     0.066431940
      5166.81       1.4352207     0.066696095
      5171.98       1.4669125     0.066240910
      5177.15       1.5054819     0.064999978
      5182.33       1.5497378     0.064064538
      5187.51       1.5777712     0.062723589
      5192.70       1.6114297     0.061539759
      5197.89       1.6550352     0.060903831
      5203.09       1.6456295     0.060257553
      5208.29       1.6205493     0.060262643
      5213.50       1.6168006     0.060917382
      5218.72       1.5805326     0.060629330
      5223.93       1.5753819     0.061108472
      5229.16       1.5198132     0.061215826
      5234.39       1.5017326     0.060913070
      5239.62       1.4657763     0.061183211
      5244.86       1.4481512     0.061734026
      5250.11       1.4600321     0.062256367
      5255.36       1.4571898     0.063180180
      5260.61       1.4576058     0.064134852
      5265.87       1.4618674     0.065208662
      5271.14       1.4651900     0.065826879
      5276.41       1.4913600     0.066130509
      5281.69       1.5249149     0.066156928
      5286.97       1.5453746     0.065743920
      5292.26       1.5737733     0.065425077
      5297.55       1.6120703     0.065010266
      5302.85       1.6102977     0.064408164
      5308.15       1.6246328     0.064213296
      5313.46       1.6576579     0.064436839
      5318.77       1.6421752     0.064929366
      5324.09       1.6450811     0.065978046
      5329.42       1.6160046     0.066629107
      5334.75       1.5992275     0.067236225
      5340.08       1.5612173     0.068267715
      5345.42       1.5581524     0.069204431
      5350.77       1.5453688     0.070423327
      5356.12       1.5182289     0.071922312
      5361.48       1.5109984     0.073774756
      5366.83       1.4999445     0.074803230
      5372.20       1.4812577     0.075458417
      5377.58       1.4715291     0.075671018
      5382.95       1.4670148     0.076094377
      5388.34       1.4514034     0.075525344
      5393.72       1.4451740     0.074553044
      5399.12       1.4564284     0.073480249
      5404.52       1.4691215     0.072177565
      5409.92       1.4424731     0.071388202
      5415.33       1.4539691     0.070197696
      5420.75       1.4086529     0.069699813
      5426.17       1.3775089     0.069602827
      5431.60       1.3656999     0.069576745
      5437.03       1.3624477     0.069613337
      5442.47       1.3711882     0.069729061
      5447.91       1.3590284     0.070127038
      5453.36       1.3454106     0.070565839
      5458.81       1.3421254     0.070909645
      5464.27       1.3410858     0.070516343
      5469.73       1.3473127     0.070439739
      5475.20       1.3412570     0.070151130
      5480.68       1.3246949     0.070172296
      5486.16       1.3142566     0.069630765
      5491.65       1.2993146     0.068790143
      5497.14       1.2853069     0.068379547
      5502.64       1.2742363     0.068154539
      5508.14       1.2709807     0.068107006
      5513.65       1.2594470     0.068588942
      5519.16       1.3038870     0.068529701
      5524.68       1.3158801     0.069345596
      5530.20       1.3071161     0.069333789
      5535.73       1.3167561     0.069818346
      5541.27       1.3087491     0.071143665
      5546.81       1.3032907     0.072945929
      5552.36       1.2835720     0.074191928
      5557.91       1.2896712     0.075899165
      5563.47       1.3002774     0.077242287
      5569.04       1.3005337     0.078025573
      5574.60       1.3088040     0.078180113
      5580.18       1.2586424     0.077669596
      5585.76       1.2366902     0.077342459
      5591.35       1.2256638     0.075448137
      5596.94       1.2002585     0.073790533
      5602.53       1.1705727     0.072058091
      5608.14       1.1426184     0.070473881
      5613.75       1.1506170     0.069377468
      5619.36       1.1490239     0.069310499
      5624.98       1.1530373     0.069085591
      5630.60       1.1011908     0.068338789
      5636.23       1.0524007     0.067097757
      5641.87       1.0270326     0.066273623
      5647.51      0.99711221     0.065798129
      5653.16      0.97177147     0.065346903
      5658.82      0.92216822     0.064902210
      5664.47      0.90530363     0.064447428
      5670.14      0.89362231     0.063962222
      5675.81      0.87116443     0.063459483
      5681.48      0.85404690     0.062964604
      5687.17      0.83760789     0.062462559
      5692.85      0.83590739     0.061963487
      5698.55      0.81752712     0.061145969
      5704.25      0.80491465     0.060694031
      5709.95      0.79464105     0.060274009
      5715.66      0.79969874     0.059906957
      5721.38      0.81271141     0.059641303
      5727.10      0.79725433     0.059364647
      5732.83      0.80206754     0.058988651
      5738.56      0.76983287     0.058625956
      5744.30      0.74499886     0.058483860
      5750.04      0.70298353     0.058564170
      5755.79      0.68886005     0.058769723
      5761.55      0.67463614     0.059037565
      5767.31      0.64775250     0.059313046
      5773.08      0.66684756     0.059488453
      5778.85      0.65386301     0.059526035
      5784.63      0.63683323     0.059048291
      5790.41      0.63687184     0.058908784
      5796.21      0.64123708     0.058685732
      5802.00      0.65299892     0.058338272
      5807.81      0.67001822     0.057892331
      5813.61      0.66370469     0.057400142
      5819.43      0.69310533     0.056894145
      5825.25      0.73279820     0.056439518
      5831.07      0.77332745     0.056093144
      5836.90      0.78988178     0.055800665
      5842.74      0.82012035     0.055452198
      5848.58      0.82611986     0.055032287
      5854.43      0.83620551     0.054292903
      5860.29      0.84382027     0.054125365
      5866.15      0.86641431     0.054044183
      5872.01      0.88421274     0.053996321
      5877.89      0.90156086     0.054002182
      5883.76      0.92371331     0.054150395
      5889.65      0.90815016     0.054074948
      5895.54      0.90504798     0.054083025
      5901.43      0.91121820     0.054172677
      5907.34      0.93108057     0.054366092
      5913.24      0.94123750     0.053983632
      5919.16      0.94308174     0.054095607
      5925.08      0.93782121     0.054549672
      5931.00      0.96545538     0.055152215
      5936.93      0.97527948     0.055425826
      5942.87      0.98927632     0.055874000
      5948.81      0.99037856     0.056207853
      5954.76       1.0015767     0.056375419
      5960.72      0.97269876     0.056361781
      5966.68      0.94979056     0.055759008
      5972.64      0.92875598     0.054468187
      5978.62      0.91833982     0.053550424
      5984.60      0.92135333     0.052683018
      5990.58      0.89148178     0.051970145
      5996.57      0.86708113     0.051561861
      6002.57      0.86208583     0.050985697
      6008.57      0.84499283     0.051107856
      6014.58      0.84474146     0.051683011
      6020.60      0.84480594     0.051791452
      6026.62      0.84695220     0.051076082
      6032.65      0.83401466     0.050865022
      6038.68      0.83283166     0.050652980
      6044.72      0.83755343     0.050395685
      6050.76      0.84809042     0.050085638
      6056.81      0.88107770     0.049742792
      6062.87      0.89478694     0.049516431
      6068.93      0.89694701     0.049413412
      6075.00      0.88813261     0.049162235
      6081.08      0.90955763     0.049024495
      6087.16      0.93306562     0.048864495
      6093.25      0.95335139     0.049090461
      6099.34      0.96913050     0.048651208
      6105.44      0.97418205     0.048509570
      6111.54      0.99452838     0.048417269
      6117.66       1.0017868     0.048400141
      6123.78      0.98248343     0.048272482
      6129.90      0.99410771     0.048054749
      6136.03      0.98965404     0.047820227
      6142.17      0.97547934     0.047232650
      6148.31      0.97309399     0.047178594
      6154.46      0.98216777     0.046870454
      6160.61      0.99098381     0.046328227
      6166.77       1.0112049     0.046106248
      6172.94       1.0347897     0.045915901
      6179.11       1.0497387     0.045722638
      6185.29       1.0802737     0.045548796
      6191.48       1.1119000     0.045383812
      6197.67       1.1667200     0.044986288
      6203.87       1.2147545     0.045195482
      6210.07       1.2477328     0.045091653
      6216.28       1.2784419     0.044653860
      6222.50       1.3091280     0.044704552
      6228.72       1.3371912     0.044560909
      6234.95       1.3473727     0.044281263
      6241.19       1.3697237     0.044270054
      6247.42       1.4089998     0.044471611
      6253.67       1.4216715     0.044256122
      6259.93       1.4490985     0.044315069
      6266.19       1.4787059     0.044379139
      6272.46       1.4995696     0.044455695
      6278.73       1.5199037     0.044570510
      6285.01       1.5528239     0.044711106
      6291.29       1.5757804     0.044776827
      6297.58       1.6056297     0.044622412
      6303.88       1.6351738     0.044714394
      6310.19       1.6617799     0.045061743
      6316.50       1.6803981     0.044881657
      6322.81       1.6870577     0.045209706
      6329.14       1.6805949     0.044991087
      6335.47       1.6665143     0.044970690
      6341.80       1.6422859     0.044898739
      6348.14       1.6250154     0.044787156
      6354.49       1.5990203     0.044646322
      6360.85       1.5698956     0.044431805
      6367.21       1.5334909     0.044200715
      6373.57       1.4954662     0.043679005
      6379.95       1.4594032     0.043632459
      6386.33       1.4152076     0.043100162
      6392.72       1.3869431     0.043126631
      6399.11       1.3561898     0.042952305
      6405.51       1.3290158     0.042537062
      6411.92       1.3007716     0.042191635
      6418.32       1.2863446     0.042132959
      6424.74       1.2581721     0.042299329
      6431.17       1.2481360     0.042656369
      6437.60       1.2326725     0.043133384
      6444.04       1.2392704     0.043473445
      6450.48       1.2400943     0.043255690
      6456.94       1.2433279     0.043965156
      6463.39       1.2464530     0.044358046
      6469.85       1.2503450     0.045015074
      6476.33       1.2611186     0.046073815
      6482.80       1.2444985     0.046972092
      6489.28       1.2415260     0.048140924
      6495.77       1.2427982     0.048969244
      6502.27       1.2256640     0.049992095
      6508.77       1.2117931     0.050668515
      6515.28       1.2037605     0.051413993
      6521.80       1.1730912     0.051868836
      6528.32       1.1722619     0.050825781
      6534.85       1.1645173     0.049906753
      6541.38       1.1474514     0.049316743
      6547.92       1.1269018     0.048309405
      6554.47       1.1137729     0.048219284
      6561.03       1.0962817     0.047957830
      6567.59       1.0837712     0.047142685
      6574.16       1.0726051     0.046589361
      6580.73       1.0609316     0.046333354
      6587.31       1.0353973     0.046020176
      6593.90       1.0052331     0.045560568
      6600.50      0.97003885     0.044975125
      6607.10      0.93519757     0.044872581
      6613.70      0.90848474     0.044355211
      6620.32      0.88025495     0.044320203
      6626.94      0.84465893     0.043905811
      6633.57      0.81789379     0.043672801
      6640.20      0.79600281     0.043474772
      6646.84      0.78338074     0.043144990
      6653.49      0.79887051     0.042719781
      6660.14      0.79841627     0.042773494
      6666.80      0.79378832     0.042569683
      6673.47      0.79144525     0.042123858
      6680.14      0.78989025     0.042154848
      6686.82      0.79114317     0.041735989
      6693.51      0.79381837     0.041545184
      6700.20      0.80727180     0.041376110
      6706.90      0.80690765     0.041194722
      6713.61      0.79565777     0.041155727
      6720.32      0.78212652     0.041209103
      6727.05      0.76918868     0.041196616
      6733.77      0.76722155     0.041048146
      6740.51      0.76337215     0.041331119
      6747.25      0.75837752     0.041575806
      6754.00      0.75972999     0.041673583
      6760.75      0.75764082     0.042382711
      6767.51      0.75047163     0.043225917
      6774.28      0.75841862     0.043953861
      6781.05      0.76258561     0.045091508
      6787.84      0.75906432     0.046343893
      6794.62      0.76408755     0.047202131
      6801.42      0.76672449     0.048548019
      6808.22      0.79435726     0.047982690
      6815.03      0.80830322     0.049134637
      6821.85      0.81620049     0.050325194
      6828.67      0.82363136     0.051208630
      6835.50      0.80979732     0.052594366
      6842.33      0.78849558     0.054380904
      6849.17      0.76740326     0.056129044
      6856.02      0.75466407     0.057071571
      6862.88      0.74527950     0.057603367
      6869.74      0.74140218     0.057435405
      6876.61      0.72085178     0.057066048
      6883.49      0.73121868     0.055483964
      6890.37      0.72043389     0.053641532
      6897.27      0.73342722     0.051830003
      6904.16      0.72648360     0.050445859
      6911.07      0.72169012     0.049325944
      6917.98      0.71339952     0.048306630
      6924.89      0.73535210     0.047296582
      6931.82      0.75208631     0.046611277
      6938.75      0.77160021     0.045087484
      6945.69      0.77141570     0.044412359
      6952.64      0.77101635     0.043937606
      6959.59      0.75372916     0.043268460
      6966.55      0.74030027     0.042807931
      6973.52      0.74370869     0.042416745
      6980.49      0.72975494     0.041852416
      6987.47      0.72404484     0.041676785
      6994.46      0.71841956     0.041344669
      7001.46      0.70795256     0.041519157
      7008.46      0.69910132     0.041404947
      7015.46      0.71046763     0.040992087
      7022.48      0.70633882     0.040847728
      7029.51      0.71170853     0.041049143
      7036.53      0.70396932     0.041345011
      7043.57      0.70061412     0.041570284
      7050.62      0.69808289     0.041858330
      7057.66      0.70786667     0.042146808
      7064.72      0.70786541     0.042535231
      7071.79      0.69701104     0.042951999
      7078.86      0.69879232     0.043440002
      7085.94      0.70690696     0.043858315
      7093.03      0.69759139     0.044100577
      7100.12      0.71144650     0.044426891
      7107.22      0.71802276     0.044699001
      7114.33      0.71207808     0.045134338
      7121.44      0.72393078     0.046177937
      7128.56      0.72622514     0.047075969
      7135.69      0.72459199     0.046926260
      7142.83      0.74381052     0.046847717
      7149.97      0.75810907     0.047664710
      7157.12      0.77391334     0.049027919
      7164.28      0.79911229     0.051541543
      7171.44      0.82992877     0.055214277
      7178.62      0.84433832     0.059998234
      7185.80      0.86807086     0.066014797
      7192.98      0.91560762     0.071292195
      7200.17      0.94506722     0.076620343
      7207.38       1.0036260     0.080646827
      7214.58       1.1542106     0.081189330
      7221.80       1.1823688     0.079483000
      7229.02       1.2057418     0.076814901
      7236.25       1.2367167     0.070313342
      7243.49       1.3073511     0.063816361
      7250.73       1.3667889     0.058701256
      7257.98       1.4079750     0.055821550
      7265.24       1.4565742     0.051743079
      7272.51       1.4982657     0.049069125
      7279.78       1.5334051     0.047681066
      7287.06       1.5543491     0.047641655
      7294.35       1.5627166     0.047945305
      7301.64       1.5743789     0.048674279
      7308.94       1.5701851     0.047528809
      7316.25       1.5698928     0.048725844
      7323.57       1.5470707     0.048443325
      7330.89       1.5407387     0.048124266
      7338.22       1.4855609     0.048341044
      7345.56       1.4419748     0.049188996
      7352.91       1.3884493     0.050097766
      7360.26       1.3005000     0.051065276
      7367.62       1.2178331     0.052099345
      7374.99       1.1421804     0.052436572
      7382.37       1.0757798     0.052578192
      7389.75       1.0097627     0.053054499
      7397.14      0.93492548     0.054002565
      7404.53      0.88636647     0.052392510
      7411.94      0.83106728     0.051409507
      7419.35      0.78516504     0.050575845
      7426.77      0.75097886     0.049805149
      7434.20      0.73219526     0.049870230
      7441.63      0.73011262     0.050724539
      7449.07      0.71439299     0.049824630
      7456.52      0.72772940     0.051133366
      7463.98      0.73468816     0.050709670
      7471.45      0.73722451     0.049876891
      7478.92      0.71702213     0.049425672
      7486.40      0.72122858     0.049315904
      7493.88      0.71465053     0.048900793
      7501.38      0.70956474     0.048824219
      7508.88      0.70173320     0.048603309
      7516.39      0.68932960     0.048677102
      7523.91      0.68392368     0.048397187
      7531.43      0.66358579     0.047669726
      7538.96      0.64587817     0.047364605
      7546.50      0.63204610     0.047113920
      7554.05      0.60224832     0.047187777
      7561.60      0.59398899     0.046647049
      7569.16      0.59088162     0.046156617
      7576.73      0.56320255     0.045660316
      7584.31      0.55155451     0.045074969
      7591.89      0.53690098     0.044412603
      7599.49      0.53341482     0.043778438
      7607.09      0.53538935     0.043613587
      7614.70      0.51060902     0.042695532
      7622.31      0.50406993     0.042388507
      7629.93      0.50836692     0.042007859
      7637.56      0.51138693     0.041512218
      7645.20      0.52225476     0.041422047
      7652.85      0.51769437     0.041429321
      7660.50      0.52877278     0.041201546
      7668.16      0.55123549     0.041324567
      7675.83      0.56528788     0.041116959
      7683.50      0.59558922     0.041232747
      7691.19      0.64395767     0.041572630
      7698.88      0.68819579     0.042185740
      7706.58      0.75113197     0.042917593
      7714.29      0.79677947     0.044201273
      7722.00      0.84809398     0.045060346
      7729.73      0.91475782     0.045832663
      7737.45      0.96858912     0.046655846
      7745.19       1.0334563     0.047524074
      7752.94       1.0822121     0.047608460
      7760.69       1.1125555     0.047787918
      7768.45       1.1510783     0.047326277
      7776.22       1.1774499     0.046793156
      7784.00       1.1580584     0.045776833
      7791.78       1.1370796     0.044944222
      7799.57       1.0952153     0.044977891
      7807.37       1.0653565     0.044904101
      7815.18       1.0390362     0.046160451
      7822.99      0.99886283     0.046264743
      7830.82      0.96344721     0.045836577
      7838.65      0.95087374     0.045782538
      7846.49      0.91536853     0.046076240
      7854.34      0.89235883     0.046926980
      7862.19      0.86539281     0.047361238
      7870.05      0.83997650     0.047818449
      7877.93      0.82002610     0.047140502
      7885.80      0.79850778     0.047317017
      7893.69      0.78042784     0.046594810
      7901.58      0.77831923     0.046505066
      7909.49      0.75898841     0.046210246
      7917.40      0.75953665     0.045951689
      7925.31      0.74312372     0.045312234
      7933.24      0.71383800     0.044790397
      7941.17      0.68788089     0.043907755
      7949.11      0.66474256     0.043601272
      7957.06      0.65448516     0.043525914
      7965.02      0.63515482     0.044832757
      7972.98      0.63565547     0.044291779
      7980.96      0.62934077     0.043037182
      7988.94      0.62227999     0.042435647
      7996.93      0.61369137     0.042249883
      8004.93      0.61014246     0.042271238
      8012.93      0.60666635     0.041982424
      8020.95      0.58775200     0.042174886
      8028.97      0.58457699     0.041638404
      8036.99      0.56339427     0.041791670
      8045.03      0.55860288     0.041407248
      8053.08      0.55023312     0.041594925
      8061.13      0.53446897     0.040635704
      8069.20      0.52958272     0.040469017
      8077.26      0.49977434     0.040182368
      8085.34      0.48686192     0.040134848
      8093.43      0.48844298     0.039341077
      8101.52      0.47763850     0.039333426
      8109.62      0.46683989     0.039504985
      8117.73      0.46257354     0.040311659
      8125.85      0.46941992     0.040920485
      8133.98      0.46938860     0.040471199
      8142.11      0.47098188     0.040958496
      8150.25      0.47622649     0.041664596
      8158.41      0.47688792     0.042148385
      8166.56      0.48047357     0.042868055
      8174.73      0.47283994     0.043036158
      8182.91      0.46834233     0.042923853
      8191.09      0.46177920     0.043056176
      8199.28      0.45650805     0.042597396
      8207.48      0.45521882     0.042542019
      8215.69      0.45681175     0.042285680
      8223.91      0.45780074     0.042749484
      8232.13      0.44214897     0.040922283
      8240.36      0.44294035     0.040409134
      8248.60      0.43833975     0.040678428
      8256.85      0.41472985     0.041042847
      8265.11      0.41464504     0.042094788
      8273.37      0.40245008     0.043658299
      8281.65      0.41702756     0.043893298
      8289.93      0.42964195     0.043810228
      8298.22      0.41945530     0.043897144
      8306.52      0.42150677     0.044437194
      8314.83      0.41629078     0.044555499
      8323.14      0.41123097     0.045506233
      8331.46      0.40067720     0.044511482
      8339.80      0.40388165     0.043513421
      8348.13      0.40259277     0.042943183
      8356.48      0.41135613     0.044131338
      8364.84      0.42995584     0.043388441
      8373.21      0.44899824     0.043709989
      8381.58      0.48554557     0.044603490
      8389.96      0.50242054     0.045084565
      8398.35      0.52235114     0.045936541
      8406.75      0.54773892     0.045019164
      8415.16      0.58865309     0.044991704
      8423.57      0.64936730     0.046235430
      8432.00      0.71068218     0.048047040
      8440.43      0.78806570     0.046954022
      8448.87      0.84069803     0.046530635
      8457.32      0.89941139     0.046527001
      8465.78      0.96677776     0.047069426
      8474.25       1.0271809     0.047342193
      8482.72       1.0739555     0.048076075
      8491.20       1.1203917     0.047501588
      8499.69       1.1366508     0.045824152
      8508.19       1.1669103     0.045671858
      8516.70       1.2114579     0.046565997
      8525.22       1.2519946     0.045367903
      8533.75       1.3159158     0.045244010
      8542.28       1.3861931     0.046321810
      8550.82       1.4110012     0.048258710
      8559.37       1.4540837     0.048796724
      8567.93       1.5504561     0.047959193
      8576.50       1.6223762     0.048839094
      8585.08       1.7179893     0.049786579
      8593.66       1.7890100     0.049186797
      8602.26       1.8456226     0.048716045
      8610.86       1.8853246     0.047759901
      8619.47       1.8974325     0.046830826
      8628.09       1.8849177     0.046156198
      8636.72       1.8580999     0.046097591
      8645.36       1.8047808     0.046398633
      8654.00       1.7196421     0.045905546
      8662.66       1.6581355     0.044539084
      8671.32       1.5835501     0.043521132
      8679.99       1.5000693     0.042530282
      8688.67       1.4268566     0.041457183
      8697.36       1.3511781     0.040332472
      8706.06       1.2834561     0.039312545
      8714.76       1.1951058     0.038878593
      8723.48       1.1301880     0.038998440
      8732.21       1.0809455     0.038732233
      8740.93       1.0207191     0.038551269
      8749.68      0.96681883     0.038341450
      8758.43      0.92100212     0.038296706
      8767.19      0.87946132     0.039314338
      8775.96      0.84646148     0.040922570
      8784.73      0.81306526     0.043058874
      8793.52      0.78017288     0.046166702
      8802.31      0.77429160     0.050167692
      8811.11      0.78114462     0.054823407
      8819.92      0.76296620     0.059588271
      8828.75      0.78499712     0.064676907
      8837.57      0.78377475     0.069559835
      8846.41      0.79725449     0.074370770
      8855.26      0.76435207     0.070386909
      8864.12      0.75968148     0.069537951
      8872.98      0.72050988     0.067789562
      8881.85      0.70718866     0.064911562
      8890.73      0.66522632     0.062148313
      8899.63      0.61547018     0.063121834
      8908.52      0.59058592     0.063568836
      8917.43      0.55021933     0.066155709
      8926.35      0.54093980     0.068912581
      8935.28      0.52000681     0.073878011
      8944.22      0.47957009     0.078020860
      8953.16      0.46743698     0.081938350
      8962.11      0.47469390     0.079447557
      8971.08      0.48803898     0.076161953
      8980.05      0.47241900     0.074275711
      8989.03      0.42765261     0.073247137
      8998.02      0.41215078     0.072931673
      9007.02      0.42827884     0.033490538
      9016.02      0.42924675     0.033595880
      9025.04      0.44479527     0.033590224
      9034.07      0.44577329     0.033459373
      9043.10      0.44880438     0.033359665
      9052.14      0.45948131     0.033309391
      9061.20      0.46317391     0.033310086
      9070.26      0.46639668     0.033243355
      9079.33      0.47228348     0.033018359
      9088.41      0.47143556     0.032803010
      9097.50      0.46891192     0.032573327
      9106.60      0.47317868     0.032441616
      9115.70      0.47334629     0.032306816
      9124.82      0.47010196     0.032152940
      9133.94      0.46574024     0.032016839
      9143.08      0.45891327     0.031890287
      9152.22      0.45151898     0.031930776
      9161.37      0.44281977     0.032130450
      9170.54      0.44015181     0.032262537
      9179.71      0.43331271     0.032097278
      9188.89      0.42893642     0.031896202
      9198.08      0.42918846     0.031738920
      9207.28      0.42968362     0.031534776
      9216.48      0.42886019     0.031464464
      9225.70      0.42781950     0.031327322
      9234.92      0.42684548     0.031219491
      9244.16      0.42120357     0.031034552
      9253.40      0.41923360     0.030977027
      9262.66      0.42023966     0.031259003
      9271.92      0.41211049     0.031485307
      9281.20      0.41452580     0.031885736
      9290.48      0.40685848     0.032085900
      9299.77      0.39898687     0.032110988
      9309.07      0.39221660     0.032100808
      9318.38      0.38941960     0.032435011
      9327.69      0.37768738     0.032587122
      9337.02      0.37459215     0.032702072
      9346.36      0.35987966     0.032862589
      9355.71      0.35159606     0.033436501
      9365.07      0.34402150     0.033559848
      9374.43      0.33410797     0.034015175
      9383.80      0.31834194     0.034279307
      9393.19      0.30634284     0.034702626
      9402.58      0.29568856     0.035369099
      9411.98      0.28750112     0.035965248
      9421.40      0.27542085     0.036500735
      9430.82      0.26020184     0.037021161
      9440.25      0.24015635     0.038010147
      9449.69      0.23091525     0.038955142
      9459.14      0.22049072     0.040020096
      9468.60      0.21187158     0.041352496
      9478.07      0.19832322     0.043036129
      9487.55      0.17710922     0.043956597
      9497.04      0.15953641     0.044918859
      9506.53      0.14053588     0.045972150
      9516.04      0.11911221     0.047907146
