# starting wavelength =        2821.5910
# ending wavelength =        9270.1418
# O2 telluric scale =        0
# O2 telluric shift =        0
# H2O telluric scale =        0
# H2O telluric shift =        0
      2822.24       3.0128237      0.21985985
      2825.06       2.9988239      0.21514021
      2827.88       2.9714968      0.20676762
      2830.71       3.0205444      0.20274225
      2833.54       3.1036707      0.19447786
      2836.38       2.9874376      0.18658268
      2839.21       2.9785557      0.18270533
      2842.05       2.9954933      0.17495784
      2844.90       2.9695884      0.17156400
      2847.74       2.9140025      0.16533589
      2850.59       2.9200152      0.16262778
      2853.44       2.9012162      0.15613568
      2856.29       2.8822258      0.15260496
      2859.15       2.8794626      0.14551819
      2862.01       2.9184705      0.14182228
      2864.87       2.9040227      0.13645011
      2867.74       2.9385269      0.13148509
      2870.60       2.9444210      0.12915849
      2873.47       2.9410073      0.12527297
      2876.35       2.9267809      0.12356321
      2879.22       2.9573805      0.12053927
      2882.10       2.9504387      0.11903689
      2884.99       2.9546449      0.11648705
      2887.87       2.9828301      0.11560375
      2890.76       3.0048016      0.11326367
      2893.65       3.0292212      0.11140307
      2896.54       3.0439611      0.11066261
      2899.44       3.0718065      0.10774517
      2902.34       3.0373896      0.10687964
      2905.24       2.9980977      0.10428343
      2908.15       3.0167082      0.10280825
      2911.06       3.0478439     0.099686001
      2913.97       3.0796117     0.098530496
      2916.88       3.1322347     0.095807012
      2919.80       3.1290219     0.093828278
      2922.72       3.1213650     0.093122869
      2925.64       3.1171307     0.091125246
      2928.57       3.1408949     0.090500201
      2931.50       3.1301610     0.088590624
      2934.43       3.0976434     0.087494601
      2937.36       3.1376272     0.085459220
      2940.30       3.1580532     0.083824340
      2943.24       3.1304192     0.083695765
      2946.18       3.1333865     0.082215289
      2949.13       3.1134133     0.082094375
      2952.08       3.1033720     0.080924247
      2955.03       3.0907756     0.080301393
      2957.99       3.0646929     0.079034745
      2960.94       3.0238962     0.077839042
      2963.90       3.0240624     0.077269048
      2966.87       2.9913127     0.076175879
      2969.84       2.9416546     0.076147636
      2972.81       2.9253924     0.074547879
      2975.78       2.8857160     0.074402228
      2978.76       2.8518800     0.073187159
      2981.73       2.8508361     0.072005141
      2984.72       2.8137731     0.071341134
      2987.70       2.7828886     0.069940728
      2990.69       2.7611210     0.069446153
      2993.68       2.7647402     0.067511331
      2996.67       2.7445458     0.066237521
      2999.67       2.7404131     0.065752279
      3002.67       2.7553482     0.063387363
      3005.67       2.7654270     0.062520296
      3008.68       2.7512111     0.060286799
      3011.69       2.7408567     0.059376853
      3014.70       2.7635219     0.057667774
      3017.71       2.7690722     0.056468392
      3020.73       2.7739619     0.056308304
      3023.75       2.7673777     0.055268611
      3026.78       2.7666518     0.055314272
      3029.80       2.7421832     0.054956992
      3032.83       2.7483875     0.054816500
      3035.87       2.7385531     0.054746001
      3038.90       2.7377077     0.054720116
      3041.94       2.7323249     0.055122458
      3044.98       2.7321637     0.054460913
      3048.03       2.7503705     0.054088849
      3051.08       2.7598277     0.054116905
      3054.13       2.7857716     0.053007708
      3057.18       2.7845733     0.052419278
      3060.24       2.7940311     0.051329402
      3063.30       2.8246140     0.050232153
      3066.36       2.8346996     0.049859935
      3069.43       2.8392034     0.048707532
      3072.50       2.8335795     0.048494572
      3075.57       2.8600247     0.047903905
      3078.65       2.8832165     0.047089073
      3081.73       2.8862894     0.047221923
      3084.81       2.9004634     0.047062830
      3087.89       2.9281796     0.046773979
      3090.98       2.9160809     0.046542383
      3094.07       2.9146270     0.046209218
      3097.17       2.9421409     0.046459660
      3100.26       2.9483214     0.046417678
      3103.36       2.9365680     0.045842594
      3106.47       2.9179475     0.046082047
      3109.58       2.9177695     0.045458046
      3112.68       2.9009067     0.045400668
      3115.80       2.8805073     0.044452791
      3118.91       2.8832625     0.043916632
      3122.03       2.8589201     0.044088778
      3125.15       2.8525915     0.043967176
      3128.28       2.8290960     0.043471242
      3131.41       2.8273286     0.043978216
      3134.54       2.8274558     0.043783499
      3137.67       2.8083275     0.043962253
      3140.81       2.8081995     0.043157408
      3143.95       2.7943759     0.042774296
      3147.10       2.7769674     0.042924300
      3150.24       2.7580597     0.042403083
      3153.39       2.7564955     0.041917463
      3156.55       2.7474454     0.041766183
      3159.70       2.7461578     0.041414032
      3162.86       2.7271841     0.040701265
      3166.03       2.7176621     0.040330479
      3169.19       2.6989722     0.039332801
      3172.36       2.6808469     0.039019853
      3175.54       2.6910726     0.038417202
      3178.71       2.6857734     0.038260586
      3181.89       2.6768236     0.038770131
      3185.07       2.6819536     0.038645064
      3188.26       2.6800675     0.039019503
      3191.45       2.6641537     0.039644884
      3194.64       2.6455854     0.040843016
      3197.83       2.6243062     0.041689534
      3201.03       2.6212387     0.043367989
      3204.23       2.5831162     0.041102843
      3207.44       2.5686112     0.041357005
      3210.64       2.5721606     0.042235184
      3213.85       2.5771026     0.042403236
      3217.07       2.5766939     0.043260288
      3220.28       2.5866590     0.043390702
      3223.51       2.5659522     0.043296588
      3226.73       2.5649266     0.043822614
      3229.96       2.5607644     0.043191858
      3233.19       2.5715624     0.042249023
      3236.42       2.5774344     0.041074321
      3239.66       2.5748771     0.039803573
      3242.90       2.5868113     0.038623385
      3246.14       2.6009766     0.037595321
      3249.39       2.6184224     0.036610387
      3252.64       2.6031030     0.035825774
      3255.89       2.6107142     0.035417818
      3259.14       2.6242476     0.035211546
      3262.40       2.6052483     0.034948188
      3265.67       2.5812836     0.035869838
      3268.93       2.5549304     0.039533525
      3272.20       2.5686618     0.038273520
      3275.47       2.5693803     0.037623389
      3278.75       2.5663311     0.036539823
      3282.03       2.5932843     0.036583759
      3285.31       2.5799946     0.036963410
      3288.60       2.5534041     0.036550844
      3291.88       2.5323984     0.036018987
      3295.18       2.5313175     0.036044188
      3298.47       2.5415952     0.035226461
      3301.77       2.5446718     0.034752394
      3305.07       2.5510720     0.034657154
      3308.38       2.5624453     0.034067214
      3311.69       2.5904440     0.033456767
      3315.00       2.6076887     0.033483385
      3318.31       2.6056916     0.032603111
      3321.63       2.5968641     0.032192220
      3324.95       2.5737488     0.031918070
      3328.28       2.5791647     0.032175835
      3331.61       2.5747961     0.032256368
      3334.94       2.5689202     0.032481859
      3338.27       2.5702515     0.032610536
      3341.61       2.5887356     0.032807807
      3344.95       2.5996760     0.032887284
      3348.30       2.6071026     0.033327575
      3351.65       2.5953236     0.033258239
      3355.00       2.5836729     0.033252348
      3358.35       2.6051218     0.033229405
      3361.71       2.5957732     0.033281434
      3365.07       2.5953824     0.033380765
      3368.44       2.6022469     0.033529931
      3371.81       2.5984424     0.034190285
      3375.18       2.6218339     0.034310060
      3378.56       2.6392045     0.033626707
      3381.94       2.6280963     0.033202424
      3385.32       2.6220823     0.032635768
      3388.70       2.6203247     0.032616195
      3392.09       2.6180420     0.031605652
      3395.48       2.6194050     0.030968836
      3398.88       2.6172209     0.030487820
      3402.28       2.6301791     0.030176999
      3405.68       2.6499442     0.029993751
      3409.09       2.6651649     0.029830737
      3412.49       2.6734326     0.029665461
      3415.91       2.6803228     0.029399411
      3419.32       2.6729887     0.029196140
      3422.74       2.6539720     0.029088909
      3426.17       2.6372880     0.029013663
      3429.59       2.6154469     0.028878285
      3433.02       2.6104049     0.028783259
      3436.45       2.6063894     0.028894666
      3439.89       2.6082131     0.028949687
      3443.33       2.6072881     0.029173542
      3446.78       2.5843344     0.029411170
      3450.22       2.5800540     0.029659345
      3453.67       2.5679070     0.029360591
      3457.13       2.5566520     0.029520428
      3460.58       2.5426785     0.029908357
      3464.04       2.5264372     0.029941731
      3467.51       2.5337837     0.029906271
      3470.98       2.5256697     0.028797372
      3474.45       2.5040022     0.028225193
      3477.92       2.4982850     0.028393537
      3481.40       2.4840112     0.028223887
      3484.88       2.4613720     0.028121356
      3488.37       2.4361183     0.028094862
      3491.86       2.4369049     0.027649170
      3495.35       2.4307254     0.027454016
      3498.84       2.4268945     0.027531769
      3502.34       2.4406222     0.027087480
      3505.84       2.4559367     0.026644724
      3509.35       2.4656862     0.026015300
      3512.86       2.4608495     0.025726595
      3516.37       2.4684718     0.025507174
      3519.89       2.4674767     0.025413960
      3523.41       2.4663032     0.025781779
      3526.93       2.4454786     0.025677506
      3530.46       2.4393046     0.026056194
      3533.99       2.4424883     0.025739261
      3537.53       2.4355739     0.025225711
      3541.06       2.4326121     0.025002590
      3544.60       2.4225671     0.025318886
      3548.15       2.4020342     0.025076091
      3551.70       2.3818016     0.025236682
      3555.25       2.3730592     0.025481253
      3558.80       2.3825381     0.025708338
      3562.36       2.3640323     0.025741165
      3565.92       2.3657996     0.025513185
      3569.49       2.3846018     0.024831739
      3573.06       2.3985203     0.024904819
      3576.64       2.3977534     0.024464166
      3580.21       2.3945662     0.024054311
      3583.79       2.3988933     0.023753243
      3587.38       2.3889800     0.023651705
      3590.96       2.3851202     0.023926319
      3594.55       2.3771172     0.023942589
      3598.15       2.3713599     0.024255732
      3601.75       2.3798667     0.024410488
      3605.35       2.4012376     0.024604733
      3608.96       2.3976265     0.024775660
      3612.56       2.3973157     0.024889730
      3616.18       2.3977412     0.024601406
      3619.79       2.4008775     0.024667643
      3623.41       2.4058261     0.024770055
      3627.04       2.4025761     0.024825970
      3630.66       2.3924395     0.025174751
      3634.29       2.3934274     0.025221485
      3637.93       2.3870755     0.025230898
      3641.57       2.3694124     0.025193403
      3645.21       2.3668911     0.024875610
      3648.86       2.3394204     0.024933274
      3652.50       2.3129290     0.025050588
      3656.16       2.2793971     0.025211471
      3659.81       2.2484743     0.025386113
      3663.47       2.2276558     0.025280276
      3667.14       2.1921169     0.025533682
      3670.80       2.1684040     0.025176522
      3674.48       2.1694056     0.025274522
      3678.15       2.1301877     0.025400041
      3681.83       2.1066975     0.025535122
      3685.51       2.0873822     0.026356443
      3689.20       2.0757836     0.027294859
      3692.88       2.0593656     0.028392443
      3696.58       2.0517983     0.029860098
      3700.27       2.0582503     0.032071085
      3703.98       2.0761962     0.026733603
      3707.68       2.0881068     0.027434818
      3711.39       2.1068003     0.028317992
      3715.10       2.1384207     0.029658773
      3718.81       2.1219385     0.031181766
      3722.53       2.1516162     0.032684934
      3726.26       2.1646547     0.033933811
      3729.98       2.1672613     0.034872527
      3733.71       2.1485907     0.033289900
      3737.45       2.1473977     0.031575302
      3741.18       2.1640111     0.028668914
      3744.93       2.1462520     0.027239668
      3748.67       2.1064032     0.026095312
      3752.42       2.0993538     0.025475281
      3756.17       2.0993871     0.030415566
      3759.93       2.0708134     0.027926072
      3763.69       2.0533453     0.026680065
      3767.45       2.0692788     0.025240924
      3771.22       2.0586325     0.024114699
      3774.99       2.0386204     0.023199831
      3778.77       2.0425358     0.022847469
      3782.54       2.0439673     0.022336299
      3786.33       2.0446052     0.022067659
      3790.11       2.0553062     0.021834738
      3793.90       2.0981153     0.021623992
      3797.70       2.0882255     0.021481883
      3801.50       2.0916618     0.021299629
      3805.30       2.1071150     0.021114955
      3809.10       2.1053073     0.020977036
      3812.91       2.1022850     0.020897409
      3816.73       2.0648800     0.020740627
      3820.54       2.0529384     0.020660369
      3824.36       2.0556877     0.020918340
      3828.19       2.0507403     0.021515648
      3832.02       2.0247198     0.022334621
      3835.85       2.0598014     0.021249300
      3839.68       2.0243930     0.021228076
      3843.52       1.9819847     0.021776345
      3847.37       1.9512491     0.022495515
      3851.22       1.9265031     0.023274356
      3855.07       1.9164992     0.023944942
      3858.92       1.9258197     0.024474988
      3862.78       1.9379213     0.024709745
      3866.64       1.9253125     0.024417158
      3870.51       1.8857662     0.023976977
      3874.38       1.8744447     0.023341838
      3878.26       1.8877936     0.022635704
      3882.13       1.8793826     0.022000372
      3886.02       1.8928885     0.021446200
      3889.90       1.9039062     0.020925748
      3893.79       1.9358362     0.020708364
      3897.69       1.9711446     0.021265387
      3901.59       2.0196829     0.022019780
      3905.49       2.0310690     0.021165730
      3909.39       2.0408258     0.020532005
      3913.30       2.0247888     0.020562895
      3917.22       2.0406128     0.020588947
      3921.13       2.0605807     0.020651313
      3925.06       2.0557574     0.020790341
      3928.98       2.0676775     0.020909757
      3932.91       2.0663004     0.021002539
      3936.84       2.0811482     0.021043930
      3940.78       2.0591250     0.021064956
      3944.72       2.0367922     0.021079797
      3948.67       2.0297465     0.021082429
      3952.61       2.0307102     0.021076604
      3956.57       2.0214723     0.021120497
      3960.52       2.0309971     0.021224725
      3964.48       2.0352702     0.021364522
      3968.45       2.0416481     0.021585287
      3972.42       2.0339240     0.021825583
      3976.39       2.0287633     0.021939488
      3980.37       2.0297285     0.022051393
      3984.35       2.0393041     0.022119685
      3988.33       2.0440704     0.022161819
      3992.32       2.0574565     0.022132318
      3996.31       2.0605459     0.022038139
      4000.31       2.0682798     0.021934883
      4004.31       2.0839251     0.021833922
      4008.31       2.0959952     0.021700670
      4012.32       2.1153874     0.021573317
      4016.33       2.0975873     0.021477969
      4020.35       2.0814404     0.021374208
      4024.37       2.0784302     0.021262233
      4028.40       2.0700583     0.021771388
      4032.42       2.0657074     0.022428895
      4036.46       2.0664538     0.020860672
      4040.50       2.0534804     0.020771809
      4044.54       2.0468096     0.021098248
      4048.58       2.0398076     0.021613522
      4052.63       2.0371130     0.022225795
      4056.68       2.0478612     0.022848461
      4060.74       2.0414171     0.023435919
      4064.80       2.0305019     0.024668997
      4068.86       2.0367330     0.026271915
      4072.93       2.0321394     0.025728496
      4077.01       2.0266494     0.024095673
      4081.08       2.0285518     0.024087763
      4085.17       2.0226211     0.023999797
      4089.25       2.0123619     0.024076641
      4093.34       1.9961478     0.024102256
      4097.43       1.9629395     0.024141628
      4101.53       1.9415462     0.024960591
      4105.63       1.9057563     0.026952384
      4109.74       1.8947024     0.024942946
      4113.85       1.8841126     0.023457066
      4117.96       1.8826579     0.022784891
      4122.08       1.8925187     0.022090748
      4126.20       1.8967587     0.021434830
      4130.33       1.9087012     0.020730466
      4134.46       1.9100594     0.020446989
      4138.59       1.9120604     0.020587575
      4142.73       1.9290920     0.021823605
      4146.88       1.9304702     0.021056606
      4151.02       1.9396857     0.020463854
      4155.18       1.9304450     0.020184102
      4159.33       1.9210957     0.020165043
      4163.49       1.9109297     0.019969346
      4167.65       1.9068515     0.020242771
      4171.82       1.8873134     0.020233747
      4175.99       1.8692844     0.020226377
      4180.17       1.8707462     0.020226064
      4184.35       1.8653469     0.020227562
      4188.54       1.8661996     0.020247789
      4192.72       1.8620819     0.020277183
      4196.92       1.8790313     0.020097098
      4201.11       1.8794129     0.020172665
      4205.31       1.8733616     0.020251206
      4209.52       1.8656662     0.020270287
      4213.73       1.8777907     0.020504338
      4217.94       1.8817658     0.020521129
      4222.16       1.8868968     0.020569282
      4226.38       1.8810089     0.020404448
      4230.61       1.8847145     0.020446699
      4234.84       1.8580952     0.020476558
      4239.08       1.8484254     0.020498610
      4243.32       1.8496261     0.020546789
      4247.56       1.8371552     0.020569160
      4251.81       1.8287930     0.020758372
      4256.06       1.8336423     0.020435896
      4260.32       1.8362826     0.020327565
      4264.58       1.8332365     0.020197087
      4268.84       1.8336006     0.020064893
      4273.11       1.8366882     0.019928627
      4277.38       1.8475602     0.019809370
      4281.66       1.8417993     0.019735607
      4285.94       1.8362908     0.019737795
      4290.23       1.8382583     0.019713166
      4294.52       1.8636194     0.019901741
      4298.81       1.8575300     0.020441084
      4303.11       1.8611630     0.021171267
      4307.42       1.8548105     0.022181045
      4311.72       1.8587337     0.020342962
      4316.04       1.8509844     0.020503795
      4320.35       1.8583296     0.021158074
      4324.67       1.8561210     0.021864020
      4329.00       1.8496476     0.022863128
      4333.33       1.8493961     0.023890901
      4337.66       1.8534826     0.024838637
      4342.00       1.8628708     0.025915322
      4346.34       1.8607783     0.025751947
      4350.69       1.8779386     0.025145999
      4355.04       1.8750090     0.024275870
      4359.39       1.8665349     0.023273319
      4363.75       1.8673105     0.022287928
      4368.12       1.8605585     0.021558878
      4372.48       1.8490104     0.020998663
      4376.86       1.8601736     0.021316197
      4381.23       1.8510558     0.022387914
      4385.61       1.8567078     0.021456239
      4390.00       1.8474911     0.020581432
      4394.39       1.8358120     0.020024707
      4398.79       1.8263537     0.020142741
      4403.18       1.8119644     0.020364879
      4407.59       1.7869198     0.020485986
      4412.00       1.7717680     0.021134981
      4416.41       1.7599693     0.021326259
      4420.82       1.7587607     0.021341785
      4425.25       1.7655054     0.021333923
      4429.67       1.7492783     0.021946054
      4434.10       1.7403754     0.023044977
      4438.54       1.7053554     0.021734353
      4442.97       1.6901503     0.021533529
      4447.42       1.6872721     0.021914813
      4451.86       1.6769546     0.022380122
      4456.32       1.6716972     0.023112772
      4460.77       1.6872092     0.023486471
      4465.24       1.6959850     0.023967256
      4469.70       1.7107302     0.024225878
      4474.17       1.7051771     0.023505562
      4478.65       1.7159788     0.022843430
      4483.12       1.7325964     0.022156020
      4487.61       1.7447523     0.021483819
      4492.09       1.7452020     0.020704667
      4496.59       1.7542282     0.020511910
      4501.08       1.7661108     0.020096640
      4505.58       1.7703122     0.019584577
      4510.09       1.7806597     0.019571663
      4514.60       1.7621911     0.020622918
      4519.12       1.7611621     0.019988439
      4523.63       1.7654606     0.019274190
      4528.16       1.7736125     0.019237710
      4532.69       1.7712607     0.019395001
      4537.22       1.7848076     0.019117871
      4541.76       1.7924355     0.019064744
      4546.30       1.7981268     0.019039221
      4550.85       1.8142675     0.019047353
      4555.40       1.8135455     0.019016699
      4559.95       1.8082357     0.018991546
      4564.51       1.8147711     0.019204429
      4569.08       1.8203944     0.018996831
      4573.65       1.8143694     0.019003356
      4578.22       1.8001288     0.019010690
      4582.80       1.7904996     0.019023640
      4587.38       1.7788405     0.019021705
      4591.97       1.7658525     0.019026208
      4596.56       1.7485822     0.019052257
      4601.16       1.7295806     0.019044519
      4605.76       1.7173398     0.019040277
      4610.37       1.7003969     0.018871425
      4614.98       1.6903783     0.019098161
      4619.59       1.7009916     0.018925801
      4624.21       1.7207883     0.018966532
      4628.84       1.7311772     0.019262502
      4633.47       1.7433199     0.019141039
      4638.10       1.7459438     0.019221901
      4642.74       1.7254487     0.019493476
      4647.38       1.7404852     0.019341019
      4652.03       1.7496776     0.019339532
      4656.68       1.7548288     0.019279284
      4661.34       1.7454007     0.019240416
      4666.00       1.7305698     0.019248614
      4670.67       1.7304917     0.019082203
      4675.33       1.7272270     0.019324322
      4680.01       1.7303315     0.019394040
      4684.69       1.7121950     0.019304834
      4689.38       1.6889187     0.019595778
      4694.07       1.6665238     0.019666901
      4698.76       1.6479569     0.019544853
      4703.46       1.6508924     0.019797201
      4708.16       1.6573623     0.019538570
      4712.87       1.6489282     0.019722360
      4717.58       1.6379361     0.019721744
      4722.30       1.6213070     0.019454357
      4727.03       1.5975417     0.019635307
      4731.75       1.5920832     0.019421996
      4736.48       1.5978357     0.019429732
      4741.22       1.5873760     0.019434695
      4745.96       1.5750237     0.019362462
      4750.71       1.5548899     0.019344233
      4755.46       1.5384527     0.019375395
      4760.22       1.5404364     0.019393725
      4764.97       1.5363422     0.019465584
      4769.74       1.5265885     0.019511327
      4774.51       1.5142775     0.019396549
      4779.29       1.4992843     0.019681413
      4784.07       1.4968279     0.019764857
      4788.85       1.4985237     0.019688825
      4793.64       1.5052493     0.019984107
      4798.43       1.4878540     0.019833930
      4803.23       1.4738996     0.020131197
      4808.03       1.4705362     0.020630108
      4812.84       1.4692062     0.021252158
      4817.66       1.4784094     0.022405592
      4822.48       1.4904297     0.021040141
      4827.30       1.4887138     0.020344823
      4832.12       1.4924776     0.020892045
      4836.96       1.4952597     0.021867396
      4841.79       1.4930437     0.022583858
      4846.63       1.4985136     0.023501833
      4851.48       1.4980673     0.024390468
      4856.33       1.4980032     0.025038601
      4861.19       1.5039031     0.025207471
      4866.05       1.5148095     0.024562764
      4870.92       1.4825917     0.023862861
      4875.79       1.4638525     0.022928335
      4880.66       1.4748524     0.021860181
      4885.55       1.4749392     0.021391733
      4890.43       1.4884108     0.020573063
      4895.32       1.4817406     0.021073403
      4900.22       1.4891347     0.023310118
      4905.12       1.5133516     0.022586986
      4910.02       1.5218712     0.022280629
      4914.94       1.5315528     0.022411654
      4919.85       1.5418807     0.020738503
      4924.77       1.5594725     0.020930348
      4929.70       1.5815736     0.021402377
      4934.62       1.6138768     0.021812399
      4939.56       1.6265779     0.022746153
      4944.50       1.6334926     0.023140488
      4949.44       1.6563643     0.024558764
      4954.39       1.6739360     0.025958255
      4959.35       1.6802586     0.028447904
      4964.31       1.6800676     0.031503982
      4969.27       1.7058446     0.029121363
      4974.24       1.7948599     0.026275625
      4979.22       1.8215462     0.025613850
      4984.20       1.8407909     0.026562476
      4989.18       1.8390548     0.027957352
      4994.17       1.8645817     0.029503245
      4999.16       1.9221547     0.034384029
      5004.16       1.8612203     0.052416908
      5009.17       1.8326562     0.047711297
      5014.18       1.7771450     0.042734135
      5019.19       1.7131982     0.043451307
      5024.21       1.6667613     0.042689977
      5029.23       1.6506151     0.039462104
      5034.26       1.6045780     0.037458320
      5039.30       1.5519323     0.034751143
      5044.34       1.5166725     0.039562995
      5049.39       1.5087528     0.034932791
      5054.43       1.4933157     0.032218560
      5059.49       1.4736893     0.030060217
      5064.55       1.4562699     0.028571307
      5069.61       1.4408589     0.027310607
      5074.68       1.4466716     0.026883467
      5079.76       1.4654888     0.027857054
      5084.84       1.4630701     0.027279839
      5089.92       1.4580943     0.026601227
      5095.01       1.4747436     0.026372160
      5100.11       1.4791732     0.026201219
      5105.21       1.4874452     0.026081043
      5110.31       1.4939048     0.025953422
      5115.42       1.5173385     0.026187324
      5120.54       1.5339519     0.026057287
      5125.66       1.5709328     0.025890670
      5130.79       1.5725128     0.025923847
      5135.92       1.5704574     0.025823606
      5141.05       1.5804204     0.025854835
      5146.20       1.5852619     0.025530053
      5151.34       1.5740341     0.025080896
      5156.49       1.5779859     0.025270748
      5161.65       1.5828736     0.024916329
      5166.81       1.5801931     0.025077068
      5171.98       1.5776022     0.025598121
      5177.15       1.5874880     0.026113433
      5182.33       1.5571013     0.026491364
      5187.51       1.5301194     0.026919239
      5192.70       1.5093909     0.027032881
      5197.89       1.4960443     0.026860094
      5203.09       1.4904510     0.026320727
      5208.29       1.4846774     0.025487383
      5213.50       1.4825461     0.024680800
      5218.72       1.4580329     0.023829596
      5223.93       1.4545935     0.023048282
      5229.16       1.4533659     0.022404497
      5234.39       1.4647324     0.022060154
      5239.62       1.4808137     0.021877879
      5244.86       1.4864336     0.021715947
      5250.11       1.5005512     0.021663051
      5255.36       1.5164437     0.021779347
      5260.61       1.5056471     0.021201276
      5265.87       1.4989410     0.021619538
      5271.14       1.4961183     0.021916066
      5276.41       1.4955203     0.021884364
      5281.69       1.4608703     0.021693903
      5286.97       1.4514530     0.022103704
      5292.26       1.4525406     0.022742974
      5297.55       1.4628806     0.023448601
      5302.85       1.4564978     0.024209356
      5308.15       1.4400550     0.024994695
      5313.46       1.4293064     0.025648076
      5318.77       1.4062555     0.026190625
      5324.09       1.4132383     0.026548505
      5329.42       1.4219307     0.026257993
      5334.75       1.4319856     0.025814884
      5340.08       1.4182877     0.025274797
      5345.42       1.3981752     0.024667092
      5350.77       1.3906284     0.023936291
      5356.12       1.3696935     0.023099482
      5361.48       1.3622471     0.022391169
      5366.83       1.3699293     0.022418042
      5372.20       1.3720187     0.022175010
      5377.58       1.3736159     0.021679539
      5382.95       1.3676062     0.021219735
      5388.34       1.3648879     0.021054208
      5393.72       1.3737595     0.020893199
      5399.12       1.3693643     0.020669183
      5404.52       1.3481240     0.020514399
      5409.92       1.3295756     0.020340019
      5415.33       1.3036438     0.019998476
      5420.75       1.2767577     0.019886032
      5426.17       1.2539527     0.019775556
      5431.60       1.2400681     0.019605606
      5437.03       1.2114269     0.019350196
      5442.47       1.1910169     0.019371625
      5447.91       1.1640466     0.019338277
      5453.36       1.1611500     0.019305660
      5458.81       1.1619034     0.019124107
      5464.27       1.1720996     0.019103705
      5469.73       1.1822717     0.019105583
      5475.20       1.1967313     0.019127578
      5480.68       1.2190752     0.018984069
      5486.16       1.2417924     0.019003525
      5491.65       1.2708527     0.019091801
      5497.14       1.3030146     0.019171206
      5502.64       1.3159104     0.019246274
      5508.14       1.3223391     0.019310960
      5513.65       1.3394655     0.019375114
      5519.16       1.3327116     0.019447825
      5524.68       1.3458622     0.019650210
      5530.20       1.3481727     0.019691464
      5535.73       1.3677722     0.019619136
      5541.27       1.3556788     0.019605510
      5546.81       1.3566338     0.019703483
      5552.36       1.3507377     0.019846681
      5557.91       1.3587255     0.019995149
      5563.47       1.3531390     0.020116216
      5569.04       1.3408769     0.020043420
      5574.60       1.3311911     0.020254368
      5580.18       1.3287151     0.020140358
      5585.76       1.3149337     0.019673341
      5591.35       1.3075079     0.019467993
      5596.94       1.3011566     0.019414957
      5602.53       1.2859090     0.019139693
      5608.14       1.2740964     0.018922483
      5613.75       1.2516194     0.018934781
      5619.36       1.2396089     0.018904943
      5624.98       1.2130126     0.019127558
      5630.60       1.2112034     0.019405435
      5636.23       1.1984779     0.019734488
      5641.87       1.1988684     0.019517568
      5647.51       1.1651461     0.019227822
      5653.16       1.1556055     0.019375642
      5658.82       1.1447899     0.019579595
      5664.47       1.1355441     0.019861759
      5670.14       1.1145559     0.019946895
      5675.81       1.0960798     0.020103814
      5681.48       1.0754840     0.020463340
      5687.17       1.0747258     0.020498646
      5692.85       1.0597758     0.020389401
      5698.55       1.0579569     0.019537752
      5704.25       1.0502921     0.019193080
      5709.95       1.0537703     0.018760512
      5715.66       1.0597945     0.018438901
      5721.38       1.0584539     0.018087348
      5727.10       1.0568989     0.017935004
      5732.83       1.0470196     0.017893872
      5738.56       1.0490722     0.018134685
      5744.30       1.0408069     0.018854500
      5750.04       1.0229898     0.017655367
      5755.79       1.0203752     0.017171125
      5761.55       1.0210474     0.017013133
      5767.31       1.0216833     0.016973243
      5773.08       1.0199693     0.016894495
      5778.85       1.0189775     0.016795516
      5784.63       1.0254130     0.016725615
      5790.41       1.0348579     0.016680856
      5796.21       1.0500482     0.016724813
      5802.00       1.0451339     0.016725225
      5807.81       1.0516468     0.016528685
      5813.61       1.0652211     0.016507810
      5819.43       1.0742702     0.016376324
      5825.25       1.0725460     0.016138496
      5831.07       1.0829941     0.016037862
      5836.90       1.0897001     0.016030829
      5842.74       1.0860011     0.016184731
      5848.58       1.0951292     0.016339511
      5854.43       1.0941486     0.016608689
      5860.29       1.1030802     0.016386032
      5866.15       1.1143176     0.016278554
      5872.01       1.1138588     0.016252572
      5877.89       1.1137967     0.016244569
      5883.76       1.1184213     0.016331589
      5889.65       1.1274367     0.016379583
      5895.54       1.1334064     0.016433507
      5901.43       1.1250556     0.016529053
      5907.34       1.1210772     0.016463952
      5913.24       1.1156948     0.016394242
      5919.16       1.1142537     0.016470883
      5925.08       1.1067631     0.016383433
      5931.00       1.0987514     0.016226933
      5936.93       1.0912389     0.015840663
      5942.87       1.0944336     0.015523972
      5948.81       1.0878706     0.015294630
      5954.76       1.0828459     0.015072804
      5960.72       1.0767821     0.014756502
      5966.68       1.0707387     0.014607412
      5972.64       1.0664189     0.014458558
      5978.62       1.0531110     0.014235024
      5984.60       1.0310596     0.014325077
      5990.58       1.0156812     0.014299942
      5996.57       1.0103457     0.014116863
      6002.57      0.99978290     0.013837563
      6008.57      0.98453492     0.013796123
      6014.58      0.96827769     0.013992430
      6020.60      0.96990298     0.014222500
      6026.62      0.97472940     0.014397163
      6032.65      0.97393375     0.014589430
      6038.68      0.96748116     0.014823976
      6044.72      0.98176364     0.014979838
      6050.76      0.99154160     0.015115185
      6056.81       1.0007288     0.015330557
      6062.87       1.0045184     0.015501199
      6068.93       1.0119447     0.015541882
      6075.00       1.0171398     0.015460132
      6081.08       1.0197320     0.015221948
      6087.16       1.0187695     0.014845317
      6093.25       1.0117296     0.014637536
      6099.34       1.0006926     0.014419670
      6105.44       1.0034875     0.014302341
      6111.54      0.99870760     0.013939773
      6117.66      0.99919711     0.013387848
      6123.78      0.99755285     0.012915163
      6129.90       1.0084008     0.012759093
      6136.03       1.0222078     0.013052230
      6142.17       1.0309985     0.013255378
      6148.31       1.0306233     0.013549857
      6154.46       1.0405929     0.013667351
      6160.61       1.0544562     0.013781659
      6166.77       1.0520688     0.014094218
      6172.94       1.0580770     0.014469594
      6179.11       1.0663068     0.014786248
      6185.29       1.0807946     0.015157276
      6191.48       1.0924799     0.015415492
      6197.67       1.1029027     0.015552679
      6203.87       1.1164349     0.015747587
      6210.07       1.1253494     0.015945954
      6216.28       1.1341275     0.016066568
      6222.50       1.1361216     0.016174584
      6228.72       1.1439312     0.016282213
      6234.95       1.1690920     0.016044507
      6241.19       1.1884161     0.015777933
      6247.42       1.2135637     0.015365671
      6253.67       1.2366913     0.015165824
      6259.93       1.2557952     0.015072891
      6266.19       1.2682171     0.014830837
      6272.46       1.2834495     0.014541216
      6278.73       1.2977144     0.014285058
      6285.01       1.3111793     0.014124095
      6291.29       1.3345315     0.013939824
      6297.58       1.3491110     0.013814284
      6303.88       1.3601114     0.013636998
      6310.19       1.3603326     0.013280849
      6316.50       1.3607949     0.012952874
      6322.81       1.3571734     0.012764770
      6329.14       1.3464848     0.012699319
      6335.47       1.3386461     0.012666748
      6341.80       1.3194924     0.012550155
      6348.14       1.2995297     0.012544869
      6354.49       1.2820876     0.012788767
      6360.85       1.2600168     0.012866664
      6367.21       1.2244851     0.012536890
      6373.57       1.1993129     0.012508842
      6379.95       1.1707650     0.012761283
      6386.33       1.1422251     0.012826140
      6392.72       1.1222349     0.012784528
      6399.11       1.0986030     0.012728962
      6405.51       1.0779459     0.012817674
      6411.92       1.0663506     0.012965923
      6418.32       1.0557329     0.013123702
      6424.74       1.0383377     0.013311886
      6431.17       1.0298750     0.013248259
      6437.60       1.0238243     0.013162058
      6444.04       1.0248048     0.012952159
      6450.48       1.0254550     0.012726579
      6456.94       1.0234112     0.012447042
      6463.39       1.0101477     0.012215288
      6469.85       1.0066693     0.012054049
      6476.33       1.0073497     0.012196620
      6482.80      0.99881800     0.011981904
      6489.28      0.97962927     0.011546814
      6495.77      0.97652019     0.011760667
      6502.27      0.96736044     0.012248097
      6508.77      0.96172211     0.012594516
      6515.28      0.96005397     0.012413041
      6521.80      0.95524167     0.012676041
      6528.32      0.95375534     0.013429792
      6534.85      0.96426851     0.014400396
      6541.38      0.95574337     0.015608598
      6547.92      0.95083602     0.016732910
      6554.47      0.95164583     0.017863026
      6561.03      0.95665167     0.018754394
      6567.59      0.97183574     0.019050470
      6574.16      0.96983116     0.018456933
      6580.73      0.96981729     0.018116268
      6587.31      0.96150652     0.017634740
      6593.90      0.96043435     0.017187914
      6600.50      0.94011013     0.016847018
      6607.10      0.91971042     0.016454936
      6613.70      0.90811439     0.016253499
      6620.32      0.88833489     0.017911890
      6626.94      0.88640373     0.016682231
      6633.57      0.88209303     0.015922428
      6640.20      0.89164488     0.015380507
      6646.84      0.89548172     0.015353335
      6653.49      0.88731115     0.015655368
      6660.14      0.88575032     0.014738355
      6666.80      0.87838121     0.015140501
      6673.47      0.87942413     0.014267913
      6680.14      0.87974610     0.013957928
      6686.82      0.88357116     0.013976433
      6693.51      0.89182927     0.014183658
      6700.20      0.89234961     0.014127189
      6706.90      0.89382286     0.014622246
      6713.61      0.88605433     0.015024772
      6720.32      0.87469419     0.015206042
      6727.05      0.86608385     0.015468442
      6733.77      0.86024949     0.015558475
      6740.51      0.86938879     0.015375162
      6747.25      0.85964102     0.014752370
      6754.00      0.85673111     0.014147410
      6760.75      0.85306339     0.013768773
      6767.51      0.84841291     0.013479267
      6774.28      0.84265825     0.013636570
      6781.05      0.83028451     0.013778515
      6787.84      0.82390469     0.013195914
      6794.62      0.82095752     0.013748596
      6801.42      0.81565811     0.013471403
      6808.22      0.80586866     0.013328595
      6815.03      0.80473120     0.013245062
      6821.85      0.80811748     0.013262122
      6828.67      0.79872931     0.013205990
      6835.50      0.78830046     0.013454936
      6842.33      0.78433030     0.013786517
      6849.17      0.78584411     0.014257595
      6856.02      0.78441066     0.015415584
      6862.88      0.78678629     0.015949123
      6869.74      0.78492032     0.016126105
      6876.61      0.78683115     0.016204428
      6883.49      0.79558655     0.016282754
      6890.37      0.79079116     0.015967210
      6897.27      0.79251550     0.015939605
      6904.16      0.80174602     0.015552060
      6911.07      0.79621381     0.014559386
      6917.98      0.80037089     0.013825811
      6924.89      0.79674822     0.013505273
      6931.82      0.79772776     0.013699560
      6938.75      0.79755704     0.013684876
      6945.69      0.80244124     0.013741167
      6952.64      0.80038431     0.014171310
      6959.59      0.80322911     0.014513645
      6966.55      0.80767748     0.014793275
      6973.52      0.82190288     0.015260639
      6980.49      0.82503049     0.015624116
      6987.47      0.81832568     0.015911440
      6994.46      0.81684037     0.016098330
      7001.46      0.80994386     0.016159340
      7008.46      0.81072085     0.016170163
      7015.46      0.81211551     0.016389738
      7022.48      0.80178564     0.016609810
      7029.51      0.80088371     0.017169059
      7036.53      0.79393210     0.016975520
      7043.57      0.78039563     0.016628821
      7050.62      0.77619259     0.016462141
      7057.66      0.76350936     0.016317146
      7064.72      0.75557995     0.016707962
      7071.79      0.75226621     0.016850026
      7078.86      0.75351827     0.017236585
      7085.94      0.75656258     0.017709768
      7093.03      0.76361989     0.017903433
      7100.12      0.76828127     0.017803564
      7107.22      0.77548604     0.018260291
      7114.33      0.78829965     0.017893542
      7121.44      0.79243503     0.018388149
      7128.56      0.78667102     0.017995612
      7135.69      0.78948089     0.017418349
      7142.83      0.79068789     0.016628955
      7149.97      0.79996672     0.016467615
      7157.12      0.78514358     0.015660648
      7164.28      0.79154573     0.015499815
      7171.44      0.80402452     0.015326738
      7178.62      0.80826234     0.015496663
      7185.80      0.79420999     0.015173161
      7192.98      0.79630690     0.014792527
      7200.17      0.80483194     0.014673000
      7207.38      0.81616829     0.014748380
      7214.58      0.81056300     0.015042975
      7221.80      0.82599660     0.014519540
      7229.02      0.84539883     0.014146654
      7236.25      0.86930240     0.013874403
      7243.49      0.88497901     0.013608203
      7250.73      0.91734355     0.013264263
      7257.98      0.93969924     0.012946965
      7265.24      0.95480572     0.012701510
      7272.51      0.97544275     0.012506046
      7279.78      0.98899166     0.012433979
      7287.06       1.0033986     0.012151444
      7294.35       1.0092686     0.011768743
      7301.64       1.0145156     0.011673402
      7308.94       1.0124687     0.011704372
      7316.25       1.0056210     0.011791031
      7323.57      0.99829848     0.011558198
      7330.89      0.98575161     0.011480544
      7338.22      0.95990949     0.011354645
      7345.56      0.92716359     0.011333031
      7352.91      0.89793237     0.011313648
      7360.26      0.88073587     0.011342391
      7367.62      0.85890882     0.011409386
      7374.99      0.83285387     0.011399514
      7382.37      0.80847638     0.011427095
      7389.75      0.79414431     0.011427081
      7397.14      0.77174452     0.011400148
      7404.53      0.76502457     0.011567328
      7411.94      0.75469006     0.011815757
      7419.35      0.75035185     0.011977708
      7426.77      0.75194401     0.011482983
      7434.20      0.74400629     0.011164571
      7441.63      0.73276457     0.011195041
      7449.07      0.72816145     0.011496518
      7456.52      0.73443679     0.012064391
      7463.98      0.73632991     0.012640160
      7471.45      0.72639485     0.013087132
      7478.92      0.72358845     0.013097724
      7486.40      0.71771976     0.013410369
      7493.88      0.71862281     0.013912008
      7501.38      0.71566855     0.014457702
      7508.88      0.71291657     0.014950937
      7516.39      0.71019025     0.014742611
      7523.91      0.71182831     0.014601848
      7531.43      0.70941320     0.014341474
      7538.96      0.70755238     0.014394752
      7546.50      0.70586775     0.014317847
      7554.05      0.70408916     0.014526460
      7561.60      0.71359031     0.014589562
      7569.16      0.70397110     0.014562752
      7576.73      0.68829106     0.014239332
      7584.31      0.68417972     0.013915611
      7591.89      0.67163240     0.013874612
      7599.49      0.67142003     0.014094580
      7607.09      0.68636020     0.014660908
      7614.70      0.67905339     0.013771292
      7622.31      0.67424466     0.013346843
      7629.93      0.67402848     0.013148091
      7637.56      0.67820084     0.013073380
      7645.20      0.68740629     0.012982614
      7652.85      0.68868058     0.012425379
      7660.50      0.69132868     0.011853842
      7668.16      0.69935417     0.011633229
      7675.83      0.70322796     0.011817171
      7683.50      0.70578466     0.011733859
      7691.19      0.72693538     0.011529228
      7698.88      0.75071133     0.011548967
      7706.58      0.76762816     0.011953847
      7714.29      0.78129083     0.012214701
      7722.00      0.81064849     0.012347546
      7729.73      0.83466324     0.012042164
      7737.45      0.85620930     0.012238636
      7745.19      0.87761511     0.012665481
      7752.94      0.88894052     0.012779574
      7760.69      0.89202328     0.012828457
      7768.45      0.89137955     0.013341158
      7776.22      0.88788052     0.014137264
      7784.00      0.88231143     0.015603795
      7791.78      0.86662777     0.016138630
      7799.57      0.83597897     0.016085816
      7807.37      0.80972881     0.015930299
      7815.18      0.77659913     0.015893585
      7822.99      0.73843959     0.015660673
      7830.82      0.71518517     0.015073800
      7838.65      0.71191463     0.014684386
      7846.49      0.69979493     0.013829236
      7854.34      0.69128516     0.012387682
      7862.19      0.69592858     0.011639828
      7870.05      0.69606662     0.011052283
      7877.93      0.69189148     0.010916866
      7885.80      0.69415221     0.011243034
      7893.69      0.69134530     0.011909890
      7901.58      0.69392915     0.012509972
      7909.49      0.69864734     0.012691661
      7917.40      0.69469072     0.012933693
      7925.31      0.68130656     0.013315944
      7933.24      0.68688026     0.013764215
      7941.17      0.67664600     0.013845646
      7949.11      0.67875998     0.013931732
      7957.06      0.67863351     0.013722254
      7965.02      0.66926499     0.013562490
      7972.98      0.66221289     0.013343564
      7980.96      0.65198110     0.013393150
      7988.94      0.64782533     0.013647606
      7996.93      0.64978397     0.013804347
      8004.93      0.64462181     0.013669675
      8012.93      0.65023049     0.013809042
      8020.95      0.65149915     0.013311406
      8028.97      0.64155159     0.013251051
      8036.99      0.63930034     0.013309359
      8045.03      0.64558362     0.013759852
      8053.08      0.64039887     0.013565253
      8061.13      0.62626246     0.012909382
      8069.20      0.60865070     0.012733854
      8077.26      0.61002968     0.012526870
      8085.34      0.61429742     0.012477638
      8093.43      0.61738806     0.012246124
      8101.52      0.62261737     0.012043506
      8109.62      0.61383222     0.011512413
      8117.73      0.60878595     0.011244000
      8125.85      0.60775355     0.010974302
      8133.98      0.60908098     0.010966903
      8142.11      0.60711962     0.010864516
      8150.25      0.61087917     0.011099705
      8158.41      0.61125332     0.011283189
      8166.56      0.61788458     0.011588629
      8174.73      0.61806813     0.011418216
      8182.91      0.60930659     0.011619994
      8191.09      0.61137071     0.011903735
      8199.28      0.61123781     0.011353425
      8207.48      0.59955022     0.010881325
      8215.69      0.58897817     0.010288995
      8223.91      0.58754376    0.0098087871
      8232.13      0.59134529    0.0094861908
      8240.36      0.59198325    0.0092460970
      8248.60      0.59597400    0.0091032816
      8256.85      0.58809440    0.0087639287
      8265.11      0.58334720    0.0086090429
      8273.37      0.58416209    0.0085386835
      8281.65      0.58218960    0.0085248215
      8289.93      0.58137483    0.0085046307
      8298.22      0.57672884    0.0084483905
      8306.52      0.58320951    0.0084090562
      8314.83      0.58609925    0.0083741595
      8323.14      0.58941736    0.0085099633
      8331.46      0.59357795    0.0086706645
      8339.80      0.59152042    0.0089760965
      8348.13      0.59274358    0.0090267063
      8356.48      0.58216970    0.0088557582
      8364.84      0.57586712    0.0089962123
      8373.21      0.58421023    0.0093167825
      8381.58      0.59915329    0.0097758545
      8389.96      0.61253846     0.010432632
      8398.35      0.63287375     0.011167180
      8406.75      0.65064304     0.012237392
      8415.16      0.66959059     0.012945900
      8423.57      0.69156109     0.013829918
      8432.00      0.72470272     0.014795599
      8440.43      0.75261035     0.015533105
      8448.87      0.78599030     0.015482985
      8457.32      0.80822756     0.015136713
      8465.78      0.81159895     0.014142806
      8474.25      0.83270638     0.013991502
      8482.72      0.85360623     0.013903153
      8491.20      0.85827683     0.013894923
      8499.69      0.86032105     0.014156498
      8508.19      0.87561109     0.013930477
      8516.70      0.86742358     0.014048038
      8525.22      0.87843025     0.013762180
      8533.75      0.89919792     0.013694333
      8542.28      0.91744034     0.014254331
      8550.82      0.92338263     0.014363334
      8559.37      0.93230629     0.014195697
      8567.93      0.92679139     0.013724264
      8576.50      0.91979363     0.013583318
      8585.08      0.90717348     0.013699800
      8593.66      0.91474783     0.013638354
      8602.26      0.91125901     0.013679347
      8610.86      0.90403444     0.013443169
      8619.47      0.91930686     0.012883124
      8628.09      0.91299646     0.012652541
      8636.72      0.91892130     0.012385827
      8645.36      0.91847110     0.012371443
      8654.00      0.91122432     0.012026233
      8662.66      0.90582882     0.011896042
      8671.32      0.89650326     0.011584499
      8679.99      0.88831954     0.011357662
      8688.67      0.87037442     0.011449580
      8697.36      0.85154714     0.011318996
      8706.06      0.84462262     0.011445075
      8714.76      0.82317624     0.011653001
      8723.48      0.80089498     0.012248169
      8732.21      0.76525497     0.012374091
      8740.93      0.74200988     0.012738858
      8749.68      0.71888075     0.012505487
      8758.43      0.69436280     0.012521627
      8767.19      0.67721477     0.012428534
      8775.96      0.64808365     0.012013497
      8784.73      0.63908930     0.011910215
      8793.52      0.62878178     0.011685137
      8802.31      0.61521143     0.011644745
      8811.11      0.61302009     0.011394075
      8819.92      0.60158233     0.011226440
      8828.75      0.59309774     0.011073163
      8837.57      0.58929841     0.011247223
      8846.41      0.57957384     0.011518025
      8855.26      0.57446547     0.011866196
      8864.12      0.57205221     0.012414494
      8872.98      0.56653734     0.012738693
      8881.85      0.56560255     0.012939921
      8890.73      0.56644358     0.013166053
      8899.63      0.57235705     0.013464699
      8908.52      0.57108075     0.013606447
      8917.43      0.57361049     0.014010557
      8926.35      0.57166644     0.014080444
      8935.28      0.56866801     0.014077294
      8944.22      0.56138874     0.014255328
      8953.16      0.55859792     0.014568249
      8962.11      0.55035901     0.014990510
      8971.08      0.55643080     0.015848326
      8980.05      0.55632340     0.016468803
      8989.03      0.56740837     0.016507013
      8998.02      0.56503860     0.016629624
      9007.02      0.55905738     0.016680494
      9016.02      0.55637017     0.016750093
      9025.04      0.55603271     0.016961191
      9034.07      0.55835171     0.017476230
      9043.10      0.55209955     0.017802018
      9052.14      0.55668152     0.018362059
      9061.20      0.55890551     0.018809120
      9070.26      0.56345667     0.018648289
      9079.33      0.54169309     0.018697213
      9088.41      0.54439824     0.018790400
      9097.50      0.54742405     0.018830142
      9106.60      0.56925605     0.019339631
      9115.70      0.57474635     0.019434923
      9124.82      0.57328344     0.019887447
      9133.94      0.57813781     0.021057190
      9143.08      0.57709082     0.022045985
      9152.22      0.57596086     0.022405486
      9161.37      0.57071850     0.022849196
      9170.54      0.57018491     0.023484388
      9179.71      0.57272427     0.024211868
      9188.89      0.58044109     0.025401269
      9198.08      0.57205675     0.027723394
      9207.28      0.56331391     0.030115824
      9216.48      0.55339913     0.032963913
      9225.70      0.54190588     0.035447678
      9234.92      0.53670128     0.038125313
      9244.16      0.53200292     0.044460910
      9253.40      0.50934096     0.051008348
      9262.66      0.47336457     0.063112573
