# starting wavelength =        3160.3961
# ending wavelength =        8577.2976
# O2 telluric scale =        0
# O2 telluric shift =        0
# H2O telluric scale =        0
# H2O telluric shift =        0
      3162.86       1.4275946     0.061854890
      3166.03       1.3898533     0.040303188
      3169.19       1.3765288     0.031576980
      3172.36       1.3852272     0.028030897
      3175.54       1.4046309     0.026368465
      3178.71       1.4487791     0.026239487
      3181.89       1.4651453     0.026124654
      3185.07       1.4733902     0.026007017
      3188.26       1.4888505     0.025943339
      3191.45       1.4805591     0.025922258
      3194.64       1.4572108     0.025999056
      3197.83       1.4439596     0.025993135
      3201.03       1.4286748     0.026057367
      3204.23       1.4302082     0.025284392
      3207.44       1.4391496     0.025041849
      3210.64       1.4161066     0.024833083
      3213.85       1.4069777     0.024561931
      3217.07       1.4049097     0.024322673
      3220.28       1.3949355     0.024031236
      3223.51       1.4037936     0.023727473
      3226.73       1.4008353     0.023487188
      3229.96       1.3844294     0.023312064
      3233.19       1.3854184     0.023168087
      3236.42       1.4054117     0.022943458
      3239.66       1.3936396     0.022827850
      3242.90       1.3828011     0.022647565
      3246.14       1.3688901     0.022550514
      3249.39       1.3526792     0.022422323
      3252.64       1.3597656     0.022203780
      3255.89       1.3567208     0.022028388
      3259.14       1.3411926     0.021995186
      3262.40       1.3520772     0.022054004
      3265.67       1.3724270     0.021979634
      3268.93       1.3732246     0.021913595
      3272.20       1.3690130     0.021776771
      3275.47       1.3760389     0.021710074
      3278.75       1.3700757     0.021720254
      3282.03       1.3831772     0.021563238
      3285.31       1.3775186     0.021394676
      3288.60       1.3818592     0.021170825
      3291.88       1.3741787     0.021069426
      3295.18       1.3734964     0.020894118
      3298.47       1.3692569     0.020728376
      3301.77       1.3657787     0.020537098
      3305.07       1.3748660     0.020384705
      3308.38       1.3679536     0.020291848
      3311.69       1.3809236     0.020088968
      3315.00       1.3802979     0.019934662
      3318.31       1.3817833     0.019744812
      3321.63       1.3733267     0.019672807
      3324.95       1.3720504     0.019544383
      3328.28       1.3798627     0.019400754
      3331.61       1.3901931     0.019316421
      3334.94       1.4039138     0.019320181
      3338.27       1.4093734     0.019410579
      3341.61       1.4202435     0.019355422
      3344.95       1.4264719     0.019275084
      3348.30       1.4308777     0.019101847
      3351.65       1.4280875     0.019601335
      3355.00       1.4302650     0.021218280
      3358.35       1.4410858     0.024532889
      3361.71       1.4441811     0.021179109
      3365.07       1.4448843     0.022422464
      3368.44       1.4367980     0.024479087
      3371.81       1.3978541     0.025154623
      3375.18       1.3913915     0.022968798
      3378.56       1.3960830     0.020704129
      3381.94       1.3910389     0.019604272
      3385.32       1.4119789     0.020350399
      3388.70       1.4251846     0.018554461
      3392.09       1.4299300     0.017498484
      3395.48       1.4397874     0.017406226
      3398.88       1.4578650     0.017769579
      3402.28       1.4701041     0.017695016
      3405.68       1.4838610     0.017635419
      3409.09       1.4814781     0.017534425
      3412.49       1.4649569     0.017068216
      3415.91       1.4623572     0.016908560
      3419.32       1.4511030     0.016787331
      3422.74       1.4411992     0.016686624
      3426.17       1.4545309     0.016623555
      3429.59       1.4638078     0.016594173
      3433.02       1.4847691     0.016510669
      3436.45       1.5006016     0.016429289
      3439.89       1.4970046     0.016401666
      3443.33       1.4963495     0.016407752
      3446.78       1.4925146     0.016300882
      3450.22       1.4987929     0.016240802
      3453.67       1.5143073     0.016181831
      3457.13       1.5212137     0.016201221
      3460.58       1.5167277     0.016175710
      3464.04       1.5292333     0.016072429
      3467.51       1.5364799     0.015945656
      3470.98       1.5352407     0.015869967
      3474.45       1.5273027     0.015422875
      3477.92       1.5221576     0.015316524
      3481.40       1.5233618     0.015557239
      3484.88       1.5263476     0.015453503
      3488.37       1.5167246     0.015412796
      3491.86       1.5211397     0.015342519
      3495.35       1.5260037     0.015317125
      3498.84       1.5395975     0.015247518
      3502.34       1.5487288     0.014849843
      3505.84       1.5424287     0.014818437
      3509.35       1.5424154     0.015127262
      3512.86       1.5401811     0.015073743
      3516.37       1.5503377     0.015061835
      3519.89       1.5586111     0.015090329
      3523.41       1.5674991     0.014799196
      3526.93       1.5782529     0.014818826
      3530.46       1.6002469     0.014799147
      3533.99       1.6086274     0.014763026
      3537.53       1.6127184     0.015072682
      3541.06       1.6266379     0.014984270
      3544.60       1.6417841     0.014605798
      3548.15       1.6512055     0.014579670
      3551.70       1.6619825     0.014554726
      3555.25       1.6618507     0.014530966
      3558.80       1.6648022     0.014867483
      3562.36       1.6647233     0.014862030
      3565.92       1.6494633     0.014468227
      3569.49       1.6437864     0.014340332
      3573.06       1.6435171     0.014230972
      3576.64       1.6405163     0.014146273
      3580.21       1.6348406     0.014079373
      3583.79       1.6332910     0.014062261
      3587.38       1.6315001     0.014012679
      3590.96       1.6352988     0.013959721
      3594.55       1.6238827     0.013930692
      3598.15       1.6084584     0.013860924
      3601.75       1.6059121     0.013821680
      3605.35       1.5959484     0.013736529
      3608.96       1.5814803     0.013676161
      3612.56       1.5682848     0.013636801
      3616.18       1.5692633     0.013581280
      3619.79       1.5707526     0.013594136
      3623.41       1.5674364     0.013519911
      3627.04       1.5624672     0.013445528
      3630.66       1.5627385     0.013376298
      3634.29       1.5776383     0.013322144
      3637.93       1.5823530     0.013376695
      3641.57       1.5789831     0.013349469
      3645.21       1.5750543     0.013330017
      3648.86       1.5655580     0.013301832
      3652.50       1.5453327     0.012996013
      3656.16       1.5309416     0.013264150
      3659.81       1.5195972     0.013187915
      3663.47       1.5222368     0.013154450
      3667.14       1.5335265     0.012905685
      3670.80       1.5570581     0.012956952
      3674.48       1.5809255     0.013285534
      3678.15       1.6015180     0.013271724
      3681.83       1.6195293     0.013012891
      3685.51       1.6251382     0.013046812
      3689.20       1.6413273     0.013299073
      3692.88       1.6513691     0.013260780
      3696.58       1.6569781     0.012966615
      3700.27       1.6661264     0.012945601
      3703.98       1.6638818     0.013231395
      3707.68       1.6769151     0.013291870
      3711.39       1.6771780     0.013113253
      3715.10       1.6811559     0.013242488
      3718.81       1.6778685     0.014400619
      3722.53       1.6752197     0.014846137
      3726.26       1.6911658     0.015088694
      3729.98       1.6690292     0.014905401
      3733.71       1.6485287     0.014322308
      3737.45       1.6301819     0.013151828
      3741.18       1.6256949     0.012726397
      3744.93       1.5981927     0.012720469
      3748.67       1.5693535     0.012419923
      3752.42       1.5337163     0.012339102
      3756.17       1.5123453     0.012272537
      3759.93       1.4996047     0.012223534
      3763.69       1.4737291     0.012151595
      3767.45       1.4518999     0.012124861
      3771.22       1.4595264     0.012071003
      3774.99       1.4698179     0.011991616
      3778.77       1.4694981     0.011932307
      3782.54       1.4633239     0.011861237
      3786.33       1.4510340     0.011840033
      3790.11       1.4521799     0.011837537
      3793.90       1.4530327     0.011820058
      3797.70       1.4401016     0.011564458
      3801.50       1.4330457     0.011773728
      3805.30       1.4441884     0.011693551
      3809.10       1.4418395     0.011345303
      3812.91       1.4390823     0.011552589
      3816.73       1.4268720     0.011557007
      3820.54       1.4241918     0.011269950
      3824.36       1.4270972     0.011525521
      3828.19       1.4253058     0.011572544
      3832.02       1.4184808     0.011374774
      3835.85       1.4189722     0.011663379
      3839.68       1.4401038     0.011618405
      3843.52       1.4518957     0.011359918
      3847.37       1.4746475     0.011605620
      3851.22       1.4774022     0.011749268
      3855.07       1.4929516     0.011493748
      3858.92       1.5035386     0.011991259
      3862.78       1.5087549     0.012268496
      3866.64       1.5179704     0.012216014
      3870.51       1.5241846     0.012571732
      3874.38       1.5561678     0.011986033
      3878.26       1.5765049     0.011799850
      3882.13       1.6066794     0.012016295
      3886.02       1.6112966     0.012032536
      3889.90       1.6359836     0.011900994
      3893.79       1.6534930     0.012096532
      3897.69       1.6713564     0.011721457
      3901.59       1.7004336     0.011633234
      3905.49       1.7247427     0.011763316
      3909.39       1.7568089     0.011724364
      3913.30       1.7797323     0.012008059
      3917.22       1.7917392     0.011820832
      3921.13       1.7861690     0.011795201
      3925.06       1.7944115     0.011888550
      3928.98       1.7973208     0.011898848
      3932.91       1.7971042     0.011947286
      3936.84       1.8110542     0.011958483
      3940.78       1.8254938     0.011931226
      3944.72       1.8498962     0.012403878
      3948.67       1.8690271     0.013181500
      3952.61       1.8799532     0.014931686
      3956.57       1.8604273     0.013143975
      3960.52       1.8581311     0.014720848
      3964.48       1.8372705     0.016396611
      3968.45       1.8376587     0.016776016
      3972.42       1.8248247     0.014658978
      3976.39       1.8201802     0.013931316
      3980.37       1.8131632     0.012912021
      3984.35       1.8104173     0.013707872
      3988.33       1.7992721     0.012375908
      3992.32       1.7802709     0.011482277
      3996.31       1.7473403     0.011622712
      4000.31       1.7304926     0.011320291
      4004.31       1.7026972     0.011480969
      4008.31       1.6714368     0.011197607
      4012.32       1.6489002     0.011348275
      4016.33       1.6410275     0.011292190
      4020.35       1.6312160     0.011031598
      4024.37       1.6234871     0.011204190
      4028.40       1.6071767     0.010936571
      4032.42       1.5972596     0.011107889
      4036.46       1.5862461     0.010832107
      4040.50       1.5668053     0.010993088
      4044.54       1.5611845     0.010743375
      4048.58       1.5632668     0.010968652
      4052.63       1.5796391     0.010756541
      4056.68       1.5897559     0.010757999
      4060.74       1.6062347     0.010764600
      4064.80       1.6164107     0.010764494
      4068.86       1.6195158     0.010777933
      4072.93       1.6135334     0.010748160
      4077.01       1.6003805     0.010737887
      4081.08       1.5969894     0.010779586
      4085.17       1.5937403     0.010719648
      4089.25       1.5875251     0.010783929
      4093.34       1.5902686     0.010994349
      4097.43       1.5944530     0.011113417
      4101.53       1.5891638     0.011142657
      4105.63       1.5910066     0.011053288
      4109.74       1.5916951     0.010816912
      4113.85       1.5806937     0.010687786
      4117.96       1.5760489     0.010577642
      4122.08       1.5601035     0.010555719
      4126.20       1.5387066     0.010461576
      4130.33       1.5297385     0.010428331
      4134.46       1.5097820     0.010376549
      4138.59       1.4973986     0.010353378
      4142.73       1.4945764     0.010330747
      4146.88       1.4937261     0.010290250
      4151.02       1.4829343     0.010258092
      4155.18       1.4780735     0.010034394
      4159.33       1.4801001     0.010204350
      4163.49       1.4690157    0.0099793787
      4167.65       1.4728109     0.010162101
      4171.82       1.4665606    0.0099476170
      4175.99       1.4751090     0.010096386
      4180.17       1.4824742    0.0098264878
      4184.35       1.4923363    0.0099713506
      4188.54       1.4826274    0.0097469280
      4192.72       1.4833476    0.0097081439
      4196.92       1.4920808    0.0098783491
      4201.11       1.4829218    0.0096867989
      4205.31       1.4730884    0.0098585787
      4209.52       1.4625646    0.0096415671
      4213.73       1.4583495    0.0098240310
      4217.94       1.4515365    0.0096150905
      4222.16       1.4481107    0.0095834724
      4226.38       1.4335442    0.0095593412
      4230.61       1.4242552    0.0095863707
      4234.84       1.4332729    0.0097759318
      4239.08       1.4299017    0.0096041490
      4243.32       1.4327820    0.0096825881
      4247.56       1.4323110    0.0096869383
      4251.81       1.4369542    0.0096995168
      4256.06       1.4369435    0.0096858804
      4260.32       1.4426046    0.0097061728
      4264.58       1.4433671    0.0097432166
      4268.84       1.4450538    0.0097164014
      4273.11       1.4547839    0.0097559675
      4277.38       1.4503048    0.0097597766
      4281.66       1.4537685    0.0097444045
      4285.94       1.4462658    0.0097626395
      4290.23       1.4432613    0.0097342459
      4294.52       1.4371868    0.0097536231
      4298.81       1.4451206    0.0095648106
      4303.11       1.4485914    0.0097779162
      4307.42       1.4588535    0.0098261019
      4311.72       1.4589900    0.0097992372
      4316.04       1.4618251    0.0098268685
      4320.35       1.4515142    0.0097292996
      4324.67       1.4360592    0.0098322716
      4329.00       1.4165796     0.010020901
      4333.33       1.3988587     0.010025481
      4337.66       1.3876850     0.010355591
      4342.00       1.3676852     0.010322284
      4346.34       1.3600942    0.0098847050
      4350.69       1.3419879    0.0098380772
      4355.04       1.3211955    0.0095204857
      4359.39       1.2876078    0.0095195509
      4363.75       1.2591402    0.0095554677
      4368.12       1.2293388    0.0092986695
      4372.48       1.2129342    0.0091508367
      4376.86       1.2031844    0.0092370015
      4381.23       1.1988564    0.0090713486
      4385.61       1.2045892    0.0090545761
      4390.00       1.2174183    0.0091827450
      4394.39       1.2279510    0.0090261825
      4398.79       1.2448027    0.0090306957
      4403.18       1.2557081    0.0092071480
      4407.59       1.2764480    0.0090753073
      4412.00       1.3003698    0.0091278703
      4416.41       1.3321317    0.0091393095
      4420.82       1.3586826    0.0091406489
      4425.25       1.3808711    0.0091951179
      4429.67       1.3994919    0.0092343209
      4434.10       1.4164265    0.0092508389
      4438.54       1.4317978    0.0092836349
      4442.97       1.4449260    0.0093529140
      4447.42       1.4654482    0.0092276740
      4451.86       1.4907187    0.0094692672
      4456.32       1.5294751    0.0095582592
      4460.77       1.5526120    0.0096528062
      4465.24       1.5703794    0.0095359847
      4469.70       1.5775910    0.0098041079
      4474.17       1.5893847    0.0098719211
      4478.65       1.6091770    0.0097092910
      4483.12       1.6250574    0.0099413352
      4487.61       1.6438907     0.010007488
      4492.09       1.6715116     0.010064912
      4496.59       1.6995819    0.0098957853
      4501.08       1.7153630     0.010137329
      4505.58       1.7260055     0.010147811
      4510.09       1.7262774    0.0099572539
      4514.60       1.7390228     0.010009334
      4519.12       1.7499679     0.010031651
      4523.63       1.7525222     0.010210534
      4528.16       1.7570787     0.010039682
      4532.69       1.7721152     0.010074676
      4537.22       1.7892635     0.010088667
      4541.76       1.8003695     0.010286116
      4546.30       1.8152371     0.010134836
      4550.85       1.8290036     0.010163530
      4555.40       1.8569556     0.010173551
      4559.95       1.8721138     0.010251730
      4564.51       1.8816406     0.010449250
      4569.08       1.8871170     0.010245481
      4573.65       1.8961250     0.010269848
      4578.22       1.8949255     0.010301810
      4582.80       1.9019665     0.010301994
      4587.38       1.9083283     0.010279397
      4591.97       1.9075254     0.010334771
      4596.56       1.9234112     0.010338471
      4601.16       1.9305227     0.010349327
      4605.76       1.9339030     0.010401443
      4610.37       1.9252657     0.010377607
      4614.98       1.9207390     0.010369613
      4619.59       1.9099455     0.010428728
      4624.21       1.9029792     0.010444315
      4628.84       1.8995348     0.010436180
      4633.47       1.8890559     0.010264801
      4638.10       1.8681919     0.010455154
      4642.74       1.8435929     0.010448851
      4647.38       1.8134008     0.010459408
      4652.03       1.7765480     0.010491647
      4656.68       1.7499877     0.010290213
      4661.34       1.7119925     0.010285887
      4666.00       1.6783470     0.010492303
      4670.67       1.6517005     0.010522633
      4675.33       1.6220969     0.010527126
      4680.01       1.5847922     0.010649128
      4684.69       1.5590271     0.010557561
      4689.38       1.5376373     0.010659175
      4694.07       1.5192949     0.010789283
      4698.76       1.5055217     0.010850360
      4703.46       1.4871612     0.011039878
      4708.16       1.4650077     0.011099771
      4712.87       1.4435738     0.010975235
      4717.58       1.4174059     0.011067442
      4722.30       1.3995969     0.011130800
      4727.03       1.3876175     0.011230635
      4731.75       1.3746900     0.011342798
      4736.48       1.3687702     0.011373400
      4741.22       1.3704265     0.011316519
      4745.96       1.3687763     0.011359974
      4750.71       1.3579680     0.011011296
      4755.46       1.3517902     0.010859687
      4760.22       1.3572688     0.010761154
      4764.97       1.3686836     0.010712345
      4769.74       1.3778198     0.010679093
      4774.51       1.3793802     0.010666741
      4779.29       1.3791490     0.010636212
      4784.07       1.3902578     0.010586334
      4788.85       1.3908773     0.010537379
      4793.64       1.4025579     0.010285689
      4798.43       1.4108834     0.010237621
      4803.23       1.4230140     0.010256443
      4808.03       1.4266084     0.010216596
      4812.84       1.4282869     0.010388285
      4817.66       1.4222963     0.010528333
      4822.48       1.4103279     0.011111499
      4827.30       1.4074953     0.012188044
      4832.12       1.4029916     0.013625704
      4836.96       1.3958624     0.015071828
      4841.79       1.3938291     0.015936773
      4846.63       1.3971453     0.015933901
      4851.48       1.3866678     0.016213112
      4856.33       1.3603296     0.015939409
      4861.19       1.3555589     0.015259155
      4866.05       1.3608495     0.014086283
      4870.92       1.3703601     0.012768219
      4875.79       1.3937035     0.011620954
      4880.66       1.4148029     0.010882660
      4885.55       1.4478531     0.010641292
      4890.43       1.4801586     0.010367787
      4895.32       1.5069638     0.010110206
      4900.22       1.5191353    0.0099299341
      4905.12       1.5334932    0.0097727886
      4910.02       1.5273188    0.0096279306
      4914.94       1.5301434    0.0094566498
      4919.85       1.5156643    0.0093330884
      4924.77       1.4995339    0.0091876344
      4929.70       1.4888158    0.0090407671
      4934.62       1.4625038    0.0090017016
      4939.56       1.4311330    0.0088972249
      4944.50       1.4196708    0.0087659786
      4949.44       1.4006954    0.0091319060
      4954.39       1.3886133    0.0095739038
      4959.35       1.3919140    0.0097970882
      4964.31       1.3772716    0.0095881955
      4969.27       1.3709228    0.0091232116
      4974.24       1.3609736    0.0087959440
      4979.22       1.3453038    0.0090253060
      4984.20       1.3389981     0.010769336
      4989.18       1.3446698     0.012640765
      4994.17       1.3285332     0.011573030
      4999.16       1.3335024     0.013407957
      5004.16       1.3259654     0.015575844
      5009.17       1.3214733     0.015980031
      5014.18       1.2900103     0.016018575
      5019.19       1.2696901     0.013173941
      5024.21       1.2632331     0.015972059
      5029.23       1.2541758     0.011965356
      5034.26       1.2463224     0.010524737
      5039.30       1.2466953    0.0094090798
      5044.34       1.2611336    0.0087371113
      5049.39       1.2633174    0.0081614333
      5054.43       1.2665929    0.0076796883
      5059.49       1.2669019    0.0075413999
      5064.55       1.2693313    0.0074646036
      5069.61       1.2761189    0.0073356237
      5074.68       1.2788342    0.0073275354
      5079.76       1.2772769    0.0073168368
      5084.84       1.2828680    0.0073096814
      5089.92       1.2867486    0.0072935378
      5095.01       1.2845485    0.0072786291
      5100.11       1.2837404    0.0072708173
      5105.21       1.2869568    0.0071443720
      5110.31       1.2903439    0.0072614076
      5115.42       1.2924736    0.0072734568
      5120.54       1.2891060    0.0072938908
      5125.66       1.2916626    0.0073184390
      5130.79       1.2893537    0.0073475501
      5135.92       1.2867273    0.0073524309
      5141.05       1.2909194    0.0072060432
      5146.20       1.2923463    0.0071822508
      5151.34       1.2998781    0.0071360422
      5156.49       1.3057005    0.0072417752
      5161.65       1.3119925    0.0072545713
      5166.81       1.3211305    0.0072753230
      5171.98       1.3286888    0.0072893334
      5177.15       1.3322443    0.0071657127
      5182.33       1.3444415    0.0071425901
      5187.51       1.3622112    0.0071138125
      5192.70       1.3776827    0.0072309273
      5197.89       1.3996150    0.0072325280
      5203.09       1.4139773    0.0071473138
      5208.29       1.4297179    0.0071191744
      5213.50       1.4427513    0.0070916974
      5218.72       1.4536717    0.0070670476
      5223.93       1.4585589    0.0070552949
      5229.16       1.4634984    0.0070673467
      5234.39       1.4782483    0.0070503903
      5239.62       1.4887855    0.0070371629
      5244.86       1.4975626    0.0070309884
      5250.11       1.5117639    0.0070310881
      5255.36       1.5249958    0.0070560292
      5260.61       1.5376590    0.0070436610
      5265.87       1.5467641    0.0070359567
      5271.14       1.5545881    0.0070151351
      5276.41       1.5514273    0.0070051168
      5281.69       1.5527725    0.0068900939
      5286.97       1.5474465    0.0069902347
      5292.26       1.5364309    0.0070626604
      5297.55       1.5228251    0.0071137910
      5302.85       1.5115764    0.0070522022
      5308.15       1.4926544    0.0075198597
      5313.46       1.4787675    0.0080243100
      5318.77       1.4716990    0.0084499005
      5324.09       1.4625203    0.0083799463
      5329.42       1.4540580    0.0080124987
      5334.75       1.4528692    0.0075278685
      5340.08       1.4536205    0.0071170173
      5345.42       1.4630855    0.0069421622
      5350.77       1.4521012    0.0069013943
      5356.12       1.4441245    0.0068438873
      5361.48       1.4398221    0.0066714644
      5366.83       1.4368664    0.0066176713
      5372.20       1.4407574    0.0065777419
      5377.58       1.4379204    0.0066219803
      5382.95       1.4455486    0.0064839796
      5388.34       1.4537271    0.0064571071
      5393.72       1.4654063    0.0064599422
      5399.12       1.4657243    0.0064238700
      5404.52       1.4767817    0.0064195603
      5409.92       1.4818291    0.0064143339
      5415.33       1.4827192    0.0064199538
      5420.75       1.4745339    0.0064160249
      5426.17       1.4676504    0.0063985420
      5431.60       1.4645413    0.0062716491
      5437.03       1.4585861    0.0063350702
      5442.47       1.4542548    0.0063152519
      5447.91       1.4545934    0.0062004714
      5453.36       1.4487336    0.0062606745
      5458.81       1.4302579    0.0062154523
      5464.27       1.4091493    0.0060681038
      5469.73       1.3879280    0.0061107934
      5475.20       1.3719566    0.0060699297
      5480.68       1.3564295    0.0059393845
      5486.16       1.3501267    0.0059988951
      5491.65       1.3466765    0.0059858824
      5497.14       1.3440226    0.0058887792
      5502.64       1.3410239    0.0058752829
      5508.14       1.3295849    0.0059601084
      5513.65       1.3210439    0.0058548591
      5519.16       1.3134302    0.0059095923
      5524.68       1.3002264    0.0057770924
      5530.20       1.2848836    0.0057297372
      5535.73       1.2749674    0.0057714751
      5541.27       1.2613626    0.0056450453
      5546.81       1.2451718    0.0056126665
      5552.36       1.2321436    0.0055737765
      5557.91       1.2212646    0.0055355312
      5563.47       1.2114403    0.0055099019
      5569.04       1.2066534    0.0054848393
      5574.60       1.2017075    0.0054564484
      5580.18       1.1950043    0.0054263468
      5585.76       1.1887094    0.0053923951
      5591.35       1.1795554    0.0053642657
      5596.94       1.1664998    0.0053391095
      5602.53       1.1554509    0.0053126714
      5608.14       1.1415450    0.0052135188
      5613.75       1.1266014    0.0052546697
      5619.36       1.1136705    0.0051819081
      5624.98       1.1010003    0.0052897221
      5630.60       1.0927920    0.0052841443
      5636.23       1.0786307    0.0052730483
      5641.87       1.0669284    0.0052672249
      5647.51       1.0575924    0.0051755628
      5653.16       1.0498949    0.0052203441
      5658.82       1.0401567    0.0054117303
      5664.47       1.0301665    0.0057420703
      5670.14       1.0199536    0.0054968517
      5675.81       1.0063090    0.0060727649
      5681.48      0.99278168    0.0066239386
      5687.17      0.97082836    0.0067745818
      5692.85      0.95244132    0.0063149957
      5698.55      0.94462816    0.0057165397
      5704.25      0.94607506    0.0051832126
      5709.95      0.93952449    0.0050096666
      5715.66      0.93566039    0.0050980817
      5721.38      0.93010404    0.0049125561
      5727.10      0.91900803    0.0047540306
      5732.83      0.90996596    0.0048357403
      5738.56      0.90375609    0.0050162717
      5744.30      0.89623978    0.0051204536
      5750.04      0.89371344    0.0050970540
      5755.79      0.89270989    0.0049827807
      5761.55      0.89150130    0.0047663416
      5767.31      0.89088382    0.0046327630
      5773.08      0.89317461    0.0046227394
      5778.85      0.88761948    0.0045696355
      5784.63      0.88734174    0.0045148419
      5790.41      0.88809295    0.0045047091
      5796.21      0.88428617    0.0044935306
      5802.00      0.88432231    0.0044782968
      5807.81      0.88548332    0.0044671416
      5813.61      0.88557730    0.0044107942
      5819.43      0.88763307    0.0044725765
      5825.25      0.88519891    0.0044368095
      5831.07      0.88327009    0.0045301057
      5836.90      0.88412994    0.0045004397
      5842.74      0.88207320    0.0045825109
      5848.58      0.88372333    0.0045026640
      5854.43      0.88771794    0.0044892869
      5860.29      0.89390762    0.0045218631
      5866.15      0.89863823    0.0046283108
      5872.01      0.90769822    0.0047699586
      5877.89      0.91428401    0.0047036223
      5883.76      0.92634649    0.0046712082
      5889.65      0.93063814    0.0046323671
      5895.54      0.93411361    0.0046198834
      5901.43      0.93758452    0.0046314035
      5907.34      0.93833265    0.0046499349
      5913.24      0.93063932    0.0046518959
      5919.16      0.92526094    0.0046361541
      5925.08      0.91648784    0.0046344599
      5931.00      0.91167140    0.0046111924
      5936.93      0.91107161    0.0045487650
      5942.87      0.90377587    0.0044882435
      5948.81      0.89733684    0.0044517280
      5954.76      0.89572714    0.0044091853
      5960.72      0.89194800    0.0043151323
      5966.68      0.88833290    0.0043451074
      5972.64      0.89063618    0.0043116553
      5978.62      0.88325334    0.0042243297
      5984.60      0.88178415    0.0042575823
      5990.58      0.87955407    0.0041826513
      5996.57      0.87241937    0.0041544446
      6002.57      0.86726026    0.0041844969
      6008.57      0.86551692    0.0041090946
      6014.58      0.86120938    0.0040960606
      6020.60      0.86334524    0.0041414835
      6026.62      0.86397078    0.0040745744
      6032.65      0.85928382    0.0040610041
      6038.68      0.86007213    0.0041079356
      6044.72      0.86217855    0.0040494985
      6050.76      0.86215434    0.0040529047
      6056.81      0.87087428    0.0040587771
      6062.87      0.88123562    0.0040621217
      6068.93      0.89005273    0.0040751759
      6075.00      0.90549488    0.0040881865
      6081.08      0.91453288    0.0041007256
      6087.16      0.92497025    0.0041109964
      6093.25      0.93225615    0.0041273983
      6099.34      0.93450067    0.0040771606
      6105.44      0.93136686    0.0041354467
      6111.54      0.92847867    0.0041305558
      6117.66      0.92751854    0.0041182324
      6123.78      0.92100805    0.0040538496
      6129.90      0.91888272    0.0040965441
      6136.03      0.91312956    0.0040955799
      6142.17      0.91224842    0.0040348014
      6148.31      0.90707423    0.0040243592
      6154.46      0.89415799    0.0041107967
      6160.61      0.87893674    0.0041803850
      6166.77      0.86103616    0.0041731195
      6172.94      0.84455779    0.0042131988
      6179.11      0.82749992    0.0042538286
      6185.29      0.81453430    0.0041741067
      6191.48      0.80427370    0.0043087323
      6197.67      0.80090887    0.0047412321
      6203.87      0.79746450    0.0051824070
      6210.07      0.79414750    0.0055519679
      6216.28      0.79020820    0.0055511633
      6222.50      0.78917748    0.0054310083
      6228.72      0.79229380    0.0052626176
      6234.95      0.79520241    0.0052121322
      6241.19      0.79784266    0.0051218118
      6247.42      0.80792587    0.0049531309
      6253.67      0.82089954    0.0049227306
      6259.93      0.83605845    0.0049107653
      6266.19      0.85233381    0.0049292289
      6272.46      0.86594726    0.0048348776
      6278.73      0.88613487    0.0047567948
      6285.01      0.90061974    0.0046068064
      6291.29      0.91907769    0.0044232083
      6297.58      0.93097549    0.0043665164
      6303.88      0.94814138    0.0043000656
      6310.19      0.96150294    0.0043073735
      6316.50      0.97655436    0.0045951124
      6322.81      0.98433762    0.0044117579
      6329.14      0.99334686    0.0044944222
      6335.47      0.99971807    0.0047484674
      6341.80       1.0068475    0.0048973067
      6348.14       1.0342745    0.0049055063
      6354.49       1.0474903    0.0047252633
      6360.85       1.0663346    0.0044934332
      6367.21       1.0794360    0.0043063014
      6373.57       1.0873286    0.0046714611
      6379.95       1.0851719    0.0043495262
      6386.33       1.0837326    0.0042186339
      6392.72       1.0747150    0.0042022225
      6399.11       1.0692702    0.0041861768
      6405.51       1.0663096    0.0041601294
      6411.92       1.0636225    0.0041402506
      6418.32       1.0678289    0.0041285266
      6424.74       1.0693347    0.0041221680
      6431.17       1.0663158    0.0041190632
      6437.60       1.0596898    0.0041198389
      6444.04       1.0537518    0.0041008428
      6450.48       1.0483657    0.0041268955
      6456.94       1.0381425    0.0041725358
      6463.39       1.0349948    0.0043528320
      6469.85       1.0365769    0.0046758420
      6476.33       1.0397558    0.0051091518
      6482.80       1.0389939    0.0055687342
      6489.28       1.0327608    0.0059580062
      6495.77       1.0304228    0.0059874915
      6502.27       1.0203431    0.0056954909
      6508.77       1.0071636    0.0053391316
      6515.28      0.99981503    0.0048624200
      6521.80      0.98934711    0.0046887501
      6528.32      0.98107947    0.0050088933
      6534.85      0.97382172    0.0058002970
      6541.38      0.96581028    0.0060622596
      6547.92      0.95389266    0.0066750364
      6554.47      0.95010000    0.0078394822
      6561.03      0.94606664    0.0083705429
      6567.59      0.93694450    0.0078540447
      6574.16      0.91886243    0.0068295082
      6580.73      0.89972925    0.0057746031
      6587.31      0.89171168    0.0063871766
      6593.90      0.87974964    0.0055627868
      6600.50      0.87915406    0.0051036134
      6607.10      0.87350877    0.0047696078
      6613.70      0.87189839    0.0046493970
      6620.32      0.86700474    0.0045363975
      6626.94      0.85976696    0.0043909220
      6633.57      0.84347769    0.0042473077
      6640.20      0.83270111    0.0042224139
      6646.84      0.82059063    0.0041233085
      6653.49      0.80806022    0.0041041305
      6660.14      0.80182299    0.0040568501
      6666.80      0.79610850    0.0039850539
      6673.47      0.79373937    0.0039700454
      6680.14      0.79110408    0.0040802526
      6686.82      0.78997091    0.0041744178
      6693.51      0.77848876    0.0038826686
      6700.20      0.77654791    0.0040602031
      6706.90      0.76743112    0.0042582568
      6713.61      0.76058054    0.0044760589
      6720.32      0.75570748    0.0043892048
      6727.05      0.75304176    0.0041580827
      6733.77      0.74834396    0.0039340531
      6740.51      0.74687582    0.0038900376
      6747.25      0.74732953    0.0039977790
      6754.00      0.73705006    0.0037993096
      6760.75      0.72372022    0.0038001402
      6767.51      0.71749876    0.0036996024
      6774.28      0.71228442    0.0036080059
      6781.05      0.70641671    0.0036345833
      6787.84      0.70272490    0.0036952584
      6794.62      0.69701655    0.0036969477
      6801.42      0.69330000    0.0036924718
      6808.22      0.69127996    0.0036422399
      6815.03      0.68703299    0.0035513143
      6821.85      0.68127351    0.0035970956
      6828.67      0.68220229    0.0037298530
      6835.50      0.68676588    0.0037544794
      6842.33      0.68727996    0.0038409032
      6849.17      0.68632404    0.0041804274
      6856.02      0.68270906    0.0047955143
      6862.88      0.67853458    0.0058285150
      6869.74      0.66631642    0.0072269114
      6876.61      0.65571774    0.0081034891
      6883.49      0.64235382    0.0084758190
      6890.37      0.63853764    0.0081257161
      6897.27      0.64300972    0.0077542483
      6904.16      0.65119090    0.0069498520
      6911.07      0.65481617    0.0061883492
      6917.98      0.65283172    0.0054589943
      6924.89      0.64477523    0.0048719914
      6931.82      0.63810950    0.0044227864
      6938.75      0.64148470    0.0041176519
      6945.69      0.64295151    0.0039236586
      6952.64      0.64802410    0.0039372965
      6959.59      0.65153270    0.0039877159
      6966.55      0.65932693    0.0041116347
      6973.52      0.66047985    0.0041151548
      6980.49      0.65957169    0.0040213366
      6987.47      0.65417787    0.0039609625
      6994.46      0.65031968    0.0039817599
      7001.46      0.65177268    0.0041769964
      7008.46      0.64693876    0.0041086566
      7015.46      0.64966842    0.0040196752
      7022.48      0.65039355    0.0039757060
      7029.51      0.65488070    0.0040753018
      7036.53      0.65350795    0.0040375497
      7043.57      0.65331007    0.0040468485
      7050.62      0.65056149    0.0040846737
      7057.66      0.64886383    0.0041033053
      7064.72      0.64311110    0.0040189386
      7071.79      0.63352180    0.0040225272
      7078.86      0.63041775    0.0040237713
      7085.94      0.62827508    0.0041370629
      7093.03      0.63105009    0.0042697594
      7100.12      0.62927944    0.0043491022
      7107.22      0.63330575    0.0043168339
      7114.33      0.63741985    0.0043281606
      7121.44      0.64624069    0.0041367939
      7128.56      0.65349224    0.0042127232
      7135.69      0.65805626    0.0042511265
      7142.83      0.67281464    0.0043311830
      7149.97      0.68827993    0.0044061106
      7157.12      0.70054825    0.0043480394
      7164.28      0.71053877    0.0041779691
      7171.44      0.72014786    0.0040952182
      7178.62      0.72540774    0.0040817809
      7185.80      0.73069201    0.0042018477
      7192.98      0.73160956    0.0042027844
      7200.17      0.72844118    0.0042818134
      7207.38      0.73460259    0.0043003562
      7214.58      0.73816545    0.0043145658
      7221.80      0.74132239    0.0042058666
      7229.02      0.75070199    0.0042292247
      7236.25      0.74943128    0.0041826185
      7243.49      0.74697416    0.0041107356
      7250.73      0.74885398    0.0041277841
      7257.98      0.75273890    0.0040400192
      7265.24      0.75629264    0.0039683293
      7272.51      0.76078442    0.0039585628
      7279.78      0.76053694    0.0039209715
      7287.06      0.75943949    0.0039646614
      7294.35      0.75920197    0.0038457316
      7301.64      0.74957979    0.0038751992
      7308.94      0.74585370    0.0038792433
      7316.25      0.74436025    0.0040168139
      7323.57      0.74512991    0.0040299652
      7330.89      0.74896104    0.0041437468
      7338.22      0.75277206    0.0043745751
      7345.56      0.75296719    0.0046033508
      7352.91      0.75132797    0.0050145821
      7360.26      0.75042472    0.0052369943
      7367.62      0.74031214    0.0054277240
      7374.99      0.73700543    0.0054077621
      7382.37      0.73271895    0.0054247350
      7389.75      0.73332765    0.0052968442
      7397.14      0.72448499    0.0052292161
      7404.53      0.71886904    0.0047655343
      7411.94      0.71644296    0.0044860827
      7419.35      0.71059840    0.0044178062
      7426.77      0.70364684    0.0044495559
      7434.20      0.68652749    0.0044670128
      7441.63      0.67155676    0.0044475641
      7449.07      0.65966209    0.0042573488
      7456.52      0.64538029    0.0040874334
      7463.98      0.62932851    0.0042614483
      7471.45      0.61430834    0.0047083913
      7478.92      0.60008181    0.0050150768
      7486.40      0.58484969    0.0053159637
      7493.88      0.56268126    0.0051988820
      7501.38      0.54266663    0.0049406850
      7508.88      0.52825463    0.0044340397
      7516.39      0.51697648    0.0042056471
      7523.91      0.50886317    0.0042755825
      7531.43      0.50671922    0.0044570314
      7538.96      0.49921216    0.0044411056
      7546.50      0.49596893    0.0043833536
      7554.05      0.49665441    0.0041402262
      7561.60      0.49482780    0.0039701002
      7569.16      0.49580646    0.0040468588
      7576.73      0.49535487    0.0041348523
      7584.31      0.49540513    0.0041243791
      7591.89      0.49752674    0.0041880550
      7599.49      0.50441008    0.0041849918
      7607.09      0.50335913    0.0042366279
      7614.70      0.51231158    0.0041062599
      7622.31      0.52568842    0.0040996358
      7629.93      0.53954520    0.0040905120
      7637.56      0.55165035    0.0040876678
      7645.20      0.56792868    0.0040951432
      7652.85      0.58387883    0.0040753297
      7660.50      0.59433726    0.0039622020
      7668.16      0.60647381    0.0039890153
      7675.83      0.61617714    0.0040324645
      7683.50      0.63133444    0.0040306692
      7691.19      0.64109488    0.0038826494
      7698.88      0.65059400    0.0038275287
      7706.58      0.65951832    0.0038420021
      7714.29      0.66630248    0.0039803302
      7722.00      0.67662722    0.0039283748
      7729.73      0.68749376    0.0039224065
      7737.45      0.69942761    0.0040603224
      7745.19      0.71221342    0.0042948778
      7752.94      0.72208232    0.0044469734
      7760.69      0.72915639    0.0045094048
      7768.45      0.73188923    0.0044223556
      7776.22      0.73686933    0.0043597469
      7784.00      0.73494906    0.0044921571
      7791.78      0.74366202    0.0049542799
      7799.57      0.74503729    0.0048637522
      7807.37      0.74193998    0.0048569252
      7815.18      0.74212629    0.0048545483
      7822.99      0.74066798    0.0048140445
      7830.82      0.73576509    0.0047569735
      7838.65      0.73446015    0.0044905310
      7846.49      0.73441022    0.0042659794
      7854.34      0.73394981    0.0041581163
      7862.19      0.73351953    0.0040807836
      7870.05      0.72889112    0.0040528990
      7877.93      0.71841051    0.0040903317
      7885.80      0.71093482    0.0040545910
      7893.69      0.70152445    0.0041593557
      7901.58      0.68423541    0.0044555938
      7909.49      0.67403653    0.0047165516
      7917.40      0.66683065    0.0050612843
      7925.31      0.65753515    0.0051283038
      7933.24      0.65244787    0.0050132696
      7941.17      0.64415896    0.0045714970
      7949.11      0.63221455    0.0042915369
      7957.06      0.62707151    0.0044373475
      7965.02      0.62092315    0.0047374068
      7972.98      0.61517157    0.0049591902
      7980.96      0.60769795    0.0049588515
      7988.94      0.60322303    0.0049350493
      7996.93      0.58065442    0.0045657392
      8004.93      0.56828514    0.0045297761
      8012.93      0.55837518    0.0046776498
      8020.95      0.54715643    0.0047520163
      8028.97      0.54108115    0.0047664314
      8036.99      0.53760054    0.0048623385
      8045.03      0.53586773    0.0049973897
      8053.08      0.53061015    0.0050379236
      8061.13      0.53674959    0.0052207377
      8069.20      0.52999519    0.0053767578
      8077.26      0.52672195    0.0058386003
      8085.34      0.53268343    0.0061083358
      8093.43      0.52770095    0.0068099370
      8101.52      0.52959936    0.0066291594
      8109.62      0.52157759    0.0067624012
      8117.73      0.51121776    0.0067908916
      8125.85      0.50496943    0.0068157562
      8133.98      0.49456132    0.0064319963
      8142.11      0.48342934    0.0057475019
      8150.25      0.47652839    0.0052622562
      8158.41      0.46947435    0.0049595990
      8166.56      0.45753167    0.0047917147
      8174.73      0.45505121    0.0046468436
      8182.91      0.45105991    0.0046639373
      8191.09      0.44218840    0.0047036925
      8199.28      0.43174233    0.0047214849
      8207.48      0.42233369    0.0048057731
      8215.69      0.40976205    0.0047551793
      8223.91      0.40521907    0.0046338020
      8232.13      0.39799852    0.0047029835
      8240.36      0.39211105    0.0046517699
      8248.60      0.39297297    0.0048119704
      8256.85      0.39117300    0.0048875774
      8265.11      0.38823879    0.0049852129
      8273.37      0.39108893    0.0049408492
      8281.65      0.40052190    0.0048224349
      8289.93      0.40162354    0.0047219068
      8298.22      0.40637357    0.0044512646
      8306.52      0.41343381    0.0044198312
      8314.83      0.41981509    0.0042897368
      8323.14      0.42064797    0.0043551094
      8331.46      0.42361400    0.0043886438
      8339.80      0.42859004    0.0044607983
      8348.13      0.43738779    0.0045083209
      8356.48      0.44762459    0.0045463967
      8364.84      0.45316966    0.0047622440
      8373.21      0.45796771    0.0051719656
      8381.58      0.45917386    0.0060300281
      8389.96      0.45997132    0.0074097340
      8398.35      0.45024845    0.0092795232
      8406.75      0.44649022     0.011669600
      8415.16      0.46413727     0.014469042
      8423.57      0.49141980     0.018205370
      8432.00      0.51269020     0.018917970
      8440.43      0.53018906     0.018668858
      8448.87      0.54906238     0.017887199
      8457.32      0.54335774     0.018618572
      8465.78      0.53737768     0.019384557
      8474.25      0.53821330     0.016998726
      8482.72      0.52994151     0.015282405
      8491.20      0.53267980     0.013281030
      8499.69      0.55441220     0.013128376
      8508.19      0.57941469     0.014117837
      8516.70      0.60619191     0.013716366
      8525.22      0.59347457     0.012913722
      8533.75      0.61463726     0.012224922
      8542.28      0.62721427     0.013301217
      8550.82      0.63960204     0.013948157
      8559.37      0.63817771     0.016046966
      8567.93      0.66107897     0.023880124
      8576.50      0.68774014     0.039022366
