# starting wavelength =        3398.4981
# ending wavelength =        9128.7546
# O2 telluric scale =        0
# O2 telluric shift =        0
# H2O telluric scale =        0
# H2O telluric shift =        0
      3398.88       7.0219850      0.28812254
      3402.28       6.8938805      0.27990563
      3405.68       6.9019347      0.26572046
      3409.09       6.9169277      0.25828493
      3412.49       6.9905431      0.25107926
      3415.91       6.9509432      0.25506643
      3419.32       6.9539461      0.24167827
      3422.74       6.9938036      0.23427260
      3426.17       6.9551051      0.22712695
      3429.59       6.9916403      0.22037702
      3433.02       7.0253333      0.22335901
      3436.45       7.0524911      0.21156879
      3439.89       7.0098698      0.20531071
      3443.33       6.8740647      0.19990690
      3446.78       6.8487379      0.19538899
      3450.22       6.8432528      0.19353025
      3453.67       6.8414092      0.18910758
      3457.13       6.7142536      0.18542769
      3460.58       6.6584277      0.18234883
      3464.04       6.7554162      0.17971270
      3467.51       6.7513956      0.17796658
      3470.98       6.8859377      0.17498657
      3474.45       6.9467979      0.17219674
      3477.92       6.9127917      0.16956145
      3481.40       6.8405800      0.16715332
      3484.88       6.8444574      0.16555040
      3488.37       6.8136142      0.16276566
      3491.86       6.7944133      0.16011112
      3495.35       6.8997232      0.15758460
      3498.84       6.8922619      0.15518785
      3502.34       6.9009279      0.15372545
      3505.84       6.8271387      0.15091333
      3509.35       6.7234563      0.14821605
      3512.86       6.7133656      0.14563065
      3516.37       6.8067293      0.14315760
      3519.89       6.8670034      0.14188648
      3523.41       7.0007533      0.13903788
      3526.93       7.1549973      0.13629034
      3530.46       7.3153380      0.13363909
      3533.99       7.4267910      0.13108246
      3537.53       7.5232375      0.12505383
      3541.06       7.5752061      0.12714692
      3544.60       7.6138815      0.12434344
      3548.15       7.6676663      0.12169035
      3551.70       7.7323667      0.11919473
      3555.25       7.7380068      0.11394559
      3558.80       7.7793136      0.11132330
      3562.36       7.8072713      0.11299105
      3565.92       7.7609580      0.11067966
      3569.49       7.6888709      0.10877468
      3573.06       7.5927944      0.10460895
      3576.64       7.4024696      0.10304143
      3580.21       7.3090122      0.10505723
      3583.79       7.2128676      0.10427673
      3587.38       7.0947523      0.10396111
      3590.96       6.9939644      0.10075133
      3594.55       6.8900991      0.10055221
      3598.15       6.8049350      0.10060613
      3601.75       6.6979382      0.10351296
      3605.35       6.6205639      0.10381379
      3608.96       6.4963976      0.10419526
      3612.56       6.3953833      0.10115288
      3616.18       6.3320964      0.10136166
      3619.79       6.3327937      0.10167735
      3623.41       6.3238564      0.10204678
      3627.04       6.3278151      0.10514571
      3630.66       6.2921285      0.10567860
      3634.29       6.2499719      0.10259010
      3637.93       6.2056282      0.10285390
      3641.57       6.1290327      0.10316885
      3645.21       6.0921619      0.10353487
      3648.86       6.0983131      0.10666564
      3652.50       6.1643862      0.10388655
      3656.16       6.1909822      0.10409276
      3659.81       6.2360444      0.10434868
      3663.47       6.3192303      0.10465350
      3667.14       6.4133118      0.10500684
      3670.80       6.4403637      0.10540336
      3674.48       6.4419092      0.10541437
      3678.15       6.4135729      0.10555527
      3681.83       6.4124504      0.10573942
      3685.51       6.3951507      0.10595916
      3689.20       6.4049736      0.10617607
      3692.88       6.3621158      0.10633800
      3696.58       6.2858694      0.10639114
      3700.27       6.2421250      0.10628423
      3703.98       6.1809311      0.10594624
      3707.68       6.0914413      0.10542977
      3711.39       6.0102059      0.10472770
      3715.10       5.9671674      0.10385587
      3718.81       5.9235094      0.10284961
      3722.53       5.9063425     0.098993678
      3726.26       5.8331475      0.10160064
      3729.98       5.8193639      0.10024125
      3733.71       5.8251735     0.098887099
      3737.45       5.8334380     0.097563779
      3741.18       5.7680497     0.096268277
      3744.93       5.7022874     0.094973518
      3748.67       5.6529466     0.091360796
      3752.42       5.6090969     0.093576290
      3756.17       5.5559865     0.092137682
      3759.93       5.5620954     0.090733361
      3763.69       5.5595526     0.089361029
      3767.45       5.5137143     0.088018678
      3771.22       5.4513966     0.084587108
      3774.99       5.3940183     0.083330942
      3778.77       5.3149185     0.082096764
      3782.54       5.2549956     0.083922875
      3786.33       5.1940682     0.082508165
      3790.11       5.1504989     0.081120701
      3793.90       5.1022636     0.079758632
      3797.70       5.0280699     0.078420261
      3801.50       4.9517980     0.075283009
      3805.30       4.9247710     0.074049640
      3809.10       4.9211868     0.072866316
      3812.91       4.9081561     0.071708730
      3816.73       4.8810730     0.073094290
      3820.54       4.8747530     0.071821609
      3824.36       4.8759991     0.070640544
      3828.19       4.8395351     0.067901431
      3832.02       4.8441367     0.067026275
      3835.85       4.8997610     0.066346393
      3839.68       4.9520256     0.065874840
      3843.52       4.9753331     0.065610911
      3847.37       4.9787217     0.065539221
      3851.22       4.9965243     0.067058176
      3855.07       5.0137068     0.067102131
      3858.92       5.0368294     0.065174821
      3862.78       5.0689971     0.065361193
      3866.64       5.0749873     0.065598184
      3870.51       5.0678746     0.065858602
      3874.38       5.0759839     0.066138613
      3878.26       5.1156166     0.066472883
      3882.13       5.1120621     0.066856925
      3886.02       5.1062424     0.068734334
      3889.90       5.0541743     0.069021680
      3893.79       5.0546009     0.066999251
      3897.69       5.0256431     0.067304073
      3901.59       4.9940859     0.067621945
      3905.49       5.0077130     0.067952978
      3909.39       5.0520976     0.068297607
      3913.30       5.0796698     0.068655244
      3917.22       5.0595231     0.069026462
      3921.13       5.0350366     0.069411312
      3925.06       5.0385936     0.067410960
      3928.98       5.0661021     0.069207427
      3932.91       5.1232379     0.069499963
      3936.84       5.1857761     0.069796172
      3940.78       5.2238185     0.070095442
      3944.72       5.2450832     0.070402603
      3948.67       5.2277150     0.070709277
      3952.61       5.1669551     0.070998660
      3956.57       5.0801362     0.071249298
      3960.52       5.0035319     0.071441324
      3964.48       4.9467736     0.069290991
      3968.45       4.8914849     0.069268164
      3972.42       4.7931729     0.069163366
      3976.39       4.7062766     0.070823603
      3980.37       4.6052038     0.070585112
      3984.35       4.5322245     0.070277386
      3988.33       4.4418938     0.069918514
      3992.32       4.3200675     0.069529214
      3996.31       4.2330169     0.069128537
      4000.31       4.2024986     0.068729588
      4004.31       4.2023223     0.068335182
      4008.31       4.1810398     0.066135860
      4012.32       4.1743114     0.065656244
      4016.33       4.1512211     0.065173357
      4020.35       4.1379551     0.064696258
      4024.37       4.1171823     0.064224629
      4028.40       4.1200187     0.063758211
      4032.42       4.1174798     0.065104753
      4036.46       4.1451018     0.064639907
      4040.50       4.1626476     0.064180141
      4044.54       4.1673811     0.063725090
      4048.58       4.1705401     0.063275054
      4052.63       4.1760555     0.062829113
      4056.68       4.1629974     0.060886477
      4060.74       4.1619434     0.060391557
      4064.80       4.1764985     0.059891038
      4068.86       4.2069951     0.059382946
      4072.93       4.2619357     0.058876820
      4077.01       4.3079780     0.058369195
      4081.08       4.3314475     0.057849175
      4085.17       4.3499660     0.057302221
      4089.25       4.3595051     0.056713957
      4093.34       4.3745653     0.056072601
      4097.43       4.3921322     0.055370233
      4101.53       4.3940084     0.054604310
      4105.63       4.3955460     0.055602502
      4109.74       4.3528923     0.054721347
      4113.85       4.3110320     0.052851122
      4117.96       4.2507014     0.051886611
      4122.08       4.2016938     0.050891603
      4126.20       4.1580343     0.049877838
      4130.33       4.1117665     0.048855923
      4134.46       4.0786296     0.047832563
      4138.59       4.0583318     0.046809637
      4142.73       4.0393716     0.045783092
      4146.88       4.0023783     0.044753595
      4151.02       3.9735556     0.043725148
      4155.18       3.9451838     0.042697555
      4159.33       3.9059599     0.041670649
      4163.49       3.8801501     0.040643986
      4167.65       3.8600847     0.039617977
      4171.82       3.8454688     0.038591922
      4175.99       3.8177333     0.037565627
      4180.17       3.7763680     0.036539010
      4184.35       3.7282430     0.034952067
      4188.54       3.6766365     0.033950288
      4192.72       3.6363421     0.032973461
      4196.92       3.5922302     0.032024482
      4201.11       3.5571962     0.031079563
      4205.31       3.5159465     0.030145174
      4209.52       3.4823085     0.029241312
      4213.73       3.4551014     0.028392191
      4217.94       3.4294157     0.027619779
      4222.16       3.4041635     0.026939779
      4226.38       3.3691520     0.027298845
      4230.61       3.3399143     0.026723780
      4234.84       3.3037472     0.026261064
      4239.08       3.2744438     0.025905140
      4243.32       3.2570376     0.025644395
      4247.56       3.2455160     0.025461888
      4251.81       3.2336079     0.025337432
      4256.06       3.2051739     0.025249809
      4260.32       3.1769644     0.025179825
      4264.58       3.1563694     0.025114328
      4268.84       3.1395300     0.025050523
      4273.11       3.1178804     0.025002256
      4277.38       3.0843997     0.024968386
      4281.66       3.0562597     0.024934606
      4285.94       3.0304770     0.024900936
      4290.23       3.0118204     0.024867322
      4294.52       2.9882628     0.024833788
      4298.81       2.9681202     0.024800304
      4303.11       2.9411700     0.024766831
      4307.42       2.9266204     0.024057116
      4311.72       2.9086258     0.024024556
      4316.04       2.9008011     0.023991987
      4320.35       2.9020473     0.023959417
      4324.67       2.9071903     0.023926794
      4329.00       2.9287471     0.023895080
      4333.33       2.9519719     0.023863794
      4337.66       2.9613701     0.023832595
      4342.00       2.9727947     0.023801794
      4346.34       2.9902236     0.023772450
      4350.69       2.9987142     0.023745685
      4355.04       3.0023985     0.023722679
      4359.39       3.0059179     0.023704424
      4363.75       3.0107180     0.023691698
      4368.12       3.0059280     0.023684953
      4372.48       2.9889526     0.023684157
      4376.86       2.9625382     0.023688964
      4381.23       2.9435832     0.023698677
      4385.61       2.9253634     0.023712262
      4390.00       2.9181570     0.023728595
      4394.39       2.9131422     0.023746491
      4398.79       2.9002256     0.023255258
      4403.18       2.8893119     0.023274067
      4407.59       2.8877925     0.023293094
      4412.00       2.8984410     0.023313376
      4416.41       2.9029688     0.023334120
      4420.82       2.8961204     0.023354902
      4425.25       2.8922660     0.023375868
      4429.67       2.8933465     0.023396688
      4434.10       2.8944964     0.023417669
      4438.54       2.9007719     0.023438776
      4442.97       2.8973466     0.023460002
      4447.42       2.8816770     0.023481377
      4451.86       2.8588959     0.023498724
      4456.32       2.8446410     0.023511201
      4460.77       2.8358285     0.023522934
      4465.24       2.8300848     0.023533616
      4469.70       2.8322488     0.023539797
      4474.17       2.8358569     0.023536211
      4478.65       2.8318310     0.023516749
      4483.12       2.8353215     0.023475483
      4487.61       2.8465731     0.023407380
      4492.09       2.8670692     0.023839520
      4496.59       2.8955230     0.023676482
      4501.08       2.9208283     0.023481694
      4505.58       2.9337127     0.023259202
      4510.09       2.9399406     0.023014826
      4514.60       2.9473925     0.022755031
      4519.12       2.9511306     0.022486150
      4523.63       2.9458960     0.022213443
      4528.16       2.9116826     0.021318981
      4532.69       2.8872788     0.021048648
      4537.22       2.8659322     0.020775190
      4541.76       2.8459912     0.020499295
      4546.30       2.8238406     0.020223856
      4550.85       2.8035566     0.019948896
      4555.40       2.7957138     0.019674418
      4559.95       2.7872899     0.019400454
      4564.51       2.7812624     0.019126996
      4569.08       2.7818705     0.018854061
      4573.65       2.7789695     0.018581641
      4578.22       2.7775254     0.018309777
      4582.80       2.7760592     0.018049446
      4587.38       2.7679649     0.017802330
      4591.97       2.7604828     0.017557711
      4596.56       2.7588656     0.017315506
      4601.16       2.7579763     0.017081708
      4605.76       2.7415036     0.016345326
      4610.37       2.7285824     0.016173969
      4614.98       2.7137023     0.016042240
      4619.59       2.7014685     0.016311846
      4624.21       2.6936979     0.016288110
      4628.84       2.6818748     0.016315377
      4633.47       2.6706487     0.016390879
      4638.10       2.6606584     0.016509404
      4642.74       2.6503350     0.016663469
      4647.38       2.6357439     0.016844027
      4652.03       2.6196700     0.017041444
      4656.68       2.6051705     0.017247053
      4661.34       2.5890108     0.017455208
      4666.00       2.5653343     0.017369761
      4670.67       2.5436047     0.017571607
      4675.33       2.5228780     0.017785984
      4680.01       2.5047730     0.018001170
      4684.69       2.4827761     0.018217325
      4689.38       2.4511552     0.018434536
      4694.07       2.4190142     0.018652870
      4698.76       2.3969444     0.019478823
      4703.46       2.3783219     0.019705357
      4708.16       2.3598688     0.019933318
      4712.87       2.3379193     0.020158668
      4717.58       2.3112563     0.020050674
      4722.30       2.2825818     0.020248303
      4727.03       2.2535570     0.020442063
      4731.75       2.2255677     0.020626140
      4736.48       2.2029230     0.020793501
      4741.22       2.1854575     0.020936631
      4745.96       2.1747195     0.021048703
      4750.71       2.1629903     0.021124215
      4755.46       2.1435532     0.021159579
      4760.22       2.1345365     0.021719468
      4764.97       2.1254013     0.021124476
      4769.74       2.1139755     0.020990796
      4774.51       2.1037811     0.020834931
      4779.29       2.0934185     0.020664510
      4784.07       2.0921046     0.020486734
      4788.85       2.0896389     0.020307177
      4793.64       2.0762119     0.020128759
      4798.43       2.0653185     0.019950836
      4803.23       2.0663356     0.019768071
      4808.03       2.0542392     0.019095088
      4812.84       2.0427807     0.019310984
      4817.66       2.0374618     0.019105705
      4822.48       2.0373341     0.018903280
      4827.30       2.0365669     0.018703749
      4832.12       2.0333009     0.018506889
      4836.96       2.0335894     0.018312737
      4841.79       2.0343290     0.018121287
      4846.63       2.0311328     0.017933884
      4851.48       2.0147077     0.017307192
      4856.33       2.0074159     0.017132744
      4861.19       2.0048520     0.017283058
      4866.05       2.0023659     0.017091228
      4870.92       1.9984647     0.016908314
      4875.79       1.9966698     0.016736383
      4880.66       1.9926646     0.016577276
      4885.55       1.9868030     0.016044848
      4890.43       1.9902312     0.015921973
      4895.32       2.0007175     0.015812552
      4900.22       1.9990690     0.015715716
      4905.12       1.9888485     0.015630718
      4910.02       1.9999389     0.015856388
      4914.94       2.0063044     0.015768786
      4919.85       2.0047599     0.015686952
      4924.77       2.0169752     0.015259703
      4929.70       2.0191619     0.015188075
      4934.62       2.0179776     0.015463762
      4939.56       2.0118471     0.015968095
      4944.50       2.0002215     0.016350460
      4949.44       1.9956002     0.017279289
      4954.39       1.9911248     0.018870849
      4959.35       1.9796424     0.019870233
      4964.31       1.9657807     0.024268088
      4969.27       1.9477870     0.027102725
      4974.24       1.9248179     0.038960050
      4979.22       1.9391458     0.025965673
      4984.20       1.9310587     0.028140878
      4989.18       1.9271633     0.029142839
      4994.17       1.8873504     0.031939218
      4999.16       1.8589638     0.034094234
      5004.16       1.8868808     0.034695298
      5009.17       1.8928330     0.032774870
      5014.18       1.9029225     0.030185477
      5019.19       1.9250970     0.029702711
      5024.21       1.9449072     0.028084475
      5029.23       1.9299890     0.042648995
      5034.26       1.9611942     0.037315369
      5039.30       1.9882359     0.026852771
      5044.34       2.0101628     0.025060024
      5049.39       2.0097866     0.022486492
      5054.43       2.0117061     0.019927163
      5059.49       2.0134721     0.019431308
      5064.55       2.0143337     0.018507899
      5069.61       2.0143213     0.018202593
      5074.68       2.0140069     0.017918778
      5079.76       2.0095327     0.018127749
      5084.84       2.0013276     0.018518361
      5089.92       1.9939043     0.019580526
      5095.01       1.9921724     0.019990457
      5100.11       1.9904053     0.020403361
      5105.21       1.9893977     0.020818638
      5110.31       1.9875879     0.020957817
      5115.42       1.9891452     0.021335970
      5120.54       2.0049456     0.022427331
      5125.66       2.0141149     0.022802023
      5130.79       2.0225088     0.023162118
      5135.92       2.0312227     0.023120017
      5141.05       2.0324427     0.023359595
      5146.20       2.0258206     0.023565750
      5151.34       2.0229060     0.024412238
      5156.49       2.0280709     0.024530089
      5161.65       2.0403699     0.024100466
      5166.81       2.0437538     0.024108171
      5171.98       2.0450701     0.024101562
      5177.15       2.0446298     0.024088153
      5182.33       2.0405284     0.024649936
      5187.51       2.0297736     0.024129688
      5192.70       2.0207644     0.024082223
      5197.89       2.0107972     0.024034305
      5203.09       1.9948799     0.023988319
      5208.29       1.9761709     0.023951066
      5213.50       1.9562871     0.023973283
      5218.72       1.9422233     0.023907783
      5223.93       1.9275872     0.023851704
      5229.16       1.9138526     0.023799646
      5234.39       1.8969087     0.023750219
      5239.62       1.8740510     0.023740264
      5244.86       1.8544855     0.023655382
      5250.11       1.8387936     0.023569663
      5255.36       1.8314715     0.023476201
      5260.61       1.8241066     0.022820462
      5265.87       1.8084556     0.023106622
      5271.14       1.7920319     0.022852381
      5276.41       1.7742479     0.022562313
      5281.69       1.7575651     0.022236611
      5286.97       1.7405252     0.021247223
      5292.26       1.7200100     0.021113798
      5297.55       1.6964444     0.020641121
      5302.85       1.6702404     0.020160296
      5308.15       1.6541350     0.019052604
      5313.46       1.6419250     0.018576959
      5318.77       1.6288307     0.018263647
      5324.09       1.6215822     0.017754827
      5329.42       1.6234928     0.016653098
      5334.75       1.6230961     0.016161749
      5340.08       1.6216259     0.015677520
      5345.42       1.6178770     0.015279877
      5350.77       1.6157168     0.014766046
      5356.12       1.6226302     0.013735134
      5361.48       1.6208195     0.013300152
      5366.83       1.6203352     0.012909386
      5372.20       1.6192083     0.012449302
      5377.58       1.6128553     0.011606965
      5382.95       1.6101749     0.011221458
      5388.34       1.6060463     0.010877563
      5393.72       1.5982556     0.010581986
      5399.12       1.5914883     0.010100546
      5404.52       1.5849685    0.0099480241
      5409.92       1.5791570    0.0098585913
      5415.33       1.5717156    0.0099927078
      5420.75       1.5675744    0.0098843668
      5426.17       1.5636448    0.0099789524
      5431.60       1.5589704     0.010112579
      5437.03       1.5491331     0.010442960
      5442.47       1.5349199     0.010610240
      5447.91       1.5211557     0.010785699
      5453.36       1.5120488     0.010967025
      5458.81       1.5019912     0.011022391
      5464.27       1.4867478     0.011565443
      5469.73       1.4733699     0.011780460
      5475.20       1.4597432     0.012002394
      5480.68       1.4472641     0.012068677
      5486.16       1.4364780     0.012648521
      5491.65       1.4298005     0.012857507
      5497.14       1.4230877     0.013073006
      5502.64       1.4165304     0.013104764
      5508.14       1.4107446     0.013683360
      5513.65       1.4084193     0.013873882
      5519.16       1.4098616     0.013836948
      5524.68       1.4155519     0.013956825
      5530.20       1.4250434     0.014424165
      5535.73       1.4255415     0.014485868
      5541.27       1.4221855     0.014177511
      5546.81       1.4204471     0.014442029
      5552.36       1.4206571     0.014354872
      5557.91       1.4091284     0.013875684
      5563.47       1.3982146     0.013723770
      5569.04       1.3911186     0.013800083
      5574.60       1.3871854     0.013633711
      5580.18       1.3820161     0.013100401
      5585.76       1.3758865     0.012923945
      5591.35       1.3692883     0.012948512
      5596.94       1.3662900     0.012434480
      5602.53       1.3599449     0.012243112
      5608.14       1.3555744     0.012060131
      5613.75       1.3609406     0.011747276
      5619.36       1.3618938     0.011558468
      5624.98       1.3605636     0.011378696
      5630.60       1.3616008     0.011369379
      5636.23       1.3523107     0.010897254
      5641.87       1.3494697     0.010722490
      5647.51       1.3445476     0.010562174
      5653.16       1.3336897     0.010309321
      5658.82       1.3281699     0.010167079
      5664.47       1.3229923     0.010044643
      5670.14       1.3170504    0.0098866058
      5675.81       1.3116222    0.0097879312
      5681.48       1.3050057    0.0097075396
      5687.17       1.3007183    0.0094499220
      5692.85       1.2952018    0.0095614948
      5698.55       1.2914222    0.0095047283
      5704.25       1.2843396    0.0092724197
      5709.95       1.2774766    0.0093988928
      5715.66       1.2728916    0.0093445300
      5721.38       1.2723801    0.0091195510
      5727.10       1.2665672    0.0092506328
      5732.83       1.2627265    0.0092000625
      5738.56       1.2592363    0.0089808683
      5744.30       1.2537963    0.0089471331
      5750.04       1.2542225    0.0090644996
      5755.79       1.2491503    0.0088530638
      5761.55       1.2477306    0.0088206164
      5767.31       1.2517334    0.0089371809
      5773.08       1.2537419    0.0087357813
      5778.85       1.2532735    0.0087104515
      5784.63       1.2512112    0.0088425207
      5790.41       1.2507750    0.0086687402
      5796.21       1.2530799    0.0086630087
      5802.00       1.2537003    0.0088305998
      5807.81       1.2496579    0.0088322156
      5813.61       1.2439498    0.0090680539
      5819.43       1.2372659    0.0095238025
      5825.25       1.2337394    0.0098161821
      5831.07       1.2315659     0.010632366
      5836.90       1.2236114    0.0093970497
      5842.74       1.2189568    0.0094681914
      5848.58       1.2137502    0.0099391206
      5854.43       1.2066854     0.010493505
      5860.29       1.2049893     0.011090654
      5866.15       1.1963848     0.011685637
      5872.01       1.1903796     0.012248891
      5877.89       1.1784526     0.012571329
      5883.76       1.1740516     0.012277033
      5889.65       1.1720770     0.012001070
      5895.54       1.1654120     0.011437646
      5901.43       1.1636706     0.010890588
      5907.34       1.1632926     0.010599465
      5913.24       1.1625595     0.010214006
      5919.16       1.1612819     0.010071460
      5925.08       1.1583523     0.011789168
      5931.00       1.1582364     0.010933361
      5936.93       1.1585242     0.010448023
      5942.87       1.1545935     0.010210809
      5948.81       1.1501915     0.010000399
      5954.76       1.1461428    0.0099083482
      5960.72       1.1438722     0.010191342
      5966.68       1.1431377     0.010258655
      5972.64       1.1367988     0.010159978
      5978.62       1.1253412     0.010453751
      5984.60       1.1151983     0.010363014
      5990.58       1.1074000     0.010415910
      5996.57       1.1054128     0.010721183
      6002.57       1.1082644     0.010621706
      6008.57       1.1062037     0.010928128
      6014.58       1.1058437     0.010841407
      6020.60       1.1040678     0.010894306
      6026.62       1.1042952     0.011216594
      6032.65       1.0999748     0.011126137
      6038.68       1.0941724     0.011196420
      6044.72       1.0950926     0.011416469
      6050.76       1.0880598     0.011505228
      6056.81       1.0778713     0.011906887
      6062.87       1.0679986     0.011924698
      6068.93       1.0576784     0.012070196
      6075.00       1.0426281     0.012468681
      6081.08       1.0297492     0.012642027
      6087.16       1.0131421     0.012841177
      6093.25      0.99349328     0.013304954
      6099.34      0.98059179     0.013512431
      6105.44      0.97255771     0.014007200
      6111.54      0.96624947     0.014207610
      6117.66      0.95930764     0.014297126
      6123.78      0.95090768     0.014929456
      6129.90      0.94001323     0.015149912
      6136.03      0.93361683     0.015668667
      6142.17      0.92618240     0.015877718
      6148.31      0.92072912     0.015948412
      6154.46      0.91522944     0.016606723
      6160.61      0.91156717     0.016824261
      6166.77      0.90395225     0.017327015
      6172.94      0.90081800     0.017526178
      6179.11      0.89548538     0.017548266
      6185.29      0.89269732     0.018190895
      6191.48      0.89392700     0.018168857
      6197.67      0.88808923     0.018801866
      6203.87      0.88459412     0.018734612
      6210.07      0.88561555     0.018908958
      6216.28      0.89202130     0.019492063
      6222.50      0.90053113     0.019405254
      6228.72      0.90712876     0.019992073
      6234.95      0.91880885     0.019881336
      6241.19      0.93377210     0.020045659
      6247.42      0.95555939     0.020355160
      6253.67      0.97423014     0.020509583
      6259.93       1.0017380     0.020815694
      6266.19       1.0160502     0.020947181
      6272.46       1.0273999     0.021536595
      6278.73       1.0393602     0.021351087
      6285.01       1.0482151     0.021489651
      6291.29       1.0530579     0.021695706
      6297.58       1.0538192     0.021773281
      6303.88       1.0493520     0.021809455
      6310.19       1.0462777     0.021758946
      6316.50       1.0364247     0.021503686
      6322.81       1.0274573     0.021283150
      6329.14       1.0170799     0.020703588
      6335.47       1.0130757     0.020325789
      6341.80       1.0122927     0.019294990
      6348.14       1.0074953     0.019016142
      6354.49       1.0027525     0.018540841
      6360.85       1.0006116     0.017531289
      6367.21       1.0006549     0.017024719
      6373.57      0.99715518     0.015992116
      6379.95      0.98785987     0.015473236
      6386.33      0.97890615     0.014426111
      6392.72      0.97904044     0.013924069
      6399.11      0.98071668     0.012955387
      6405.51      0.97348684     0.012551289
      6411.92      0.97215648     0.011615938
      6418.32      0.97070144     0.011229701
      6424.74      0.97190751     0.010416258
      6431.17      0.96856466     0.010118177
      6437.60      0.96093540    0.0095281055
      6444.04      0.95244412    0.0093716633
      6450.48      0.93765535    0.0090366666
      6456.94      0.93103562    0.0090461189
      6463.39      0.93051713    0.0089344935
      6469.85      0.92984789    0.0091040280
      6476.33      0.93450900    0.0091391536
      6482.80      0.93322739    0.0092397763
      6489.28      0.93176461    0.0095171325
      6495.77      0.92379630    0.0096436938
      6502.27      0.91703200    0.0099374697
      6508.77      0.91608845     0.010063377
      6515.28      0.92062887     0.010391413
      6521.80      0.91871153     0.010560735
      6528.32      0.91663293     0.010944131
      6534.85      0.92136185     0.011112488
      6541.38      0.92384424     0.011496163
      6547.92      0.92344960     0.011663778
      6554.47      0.91928602     0.012047938
      6561.03      0.91578806     0.012215617
      6567.59      0.90599542     0.012601620
      6574.16      0.90160451     0.012770618
      6580.73      0.91041546     0.013160064
      6587.31      0.92009820     0.013211614
      6593.90      0.93284377     0.013725421
      6600.50      0.93618324     0.013772763
      6607.10      0.93123178     0.014298161
      6613.70      0.92550004     0.014341020
      6620.32      0.91487949     0.014876678
      6626.94      0.91903548     0.014914083
      6633.57      0.91239661     0.015457531
      6640.20      0.90654263     0.015488820
      6646.84      0.89114360     0.016038570
      6653.49      0.88449680     0.016057533
      6660.14      0.87967895     0.016610791
      6666.80      0.88228137     0.016615526
      6673.47      0.89644469     0.016983529
      6680.14      0.90799345     0.017157654
      6686.82      0.92037373     0.017484562
      6693.51      0.92297821     0.017631442
      6700.20      0.93468505     0.017869551
      6706.90      0.93859682     0.017966055
      6713.61      0.94303416     0.018076303
      6720.32      0.94272458     0.018414752
      6727.05      0.93030563     0.018082923
      6733.77      0.91443421     0.017998778
      6740.51      0.90667620     0.017921112
      6747.25      0.89657422     0.017757440
      6754.00      0.88018587     0.017659546
      6760.75      0.84927016     0.017464175
      6767.51      0.82684174     0.017366597
      6774.28      0.79792881     0.017162014
      6781.05      0.78931067     0.016752157
      6787.84      0.78895892     0.016889139
      6794.62      0.79283696     0.016485287
      6801.42      0.79106124     0.016634541
      6808.22      0.78062605     0.016487284
      6815.03      0.76958863     0.016423876
      6821.85      0.76619600     0.016355548
      6828.67      0.75958056     0.016130818
      6835.50      0.74991306     0.016443272
      6842.33      0.73530759     0.016367196
      6849.17      0.71803838     0.016827890
      6856.02      0.70030894     0.016902427
      6862.88      0.68445699     0.017451923
      6869.74      0.67688114     0.018149696
      6876.61      0.66600510     0.018411591
      6883.49      0.64687302     0.019233546
      6890.37      0.63914952     0.019504155
      6897.27      0.63247801     0.020392100
      6904.16      0.64318128     0.020628435
      6911.07      0.66902045     0.021438328
      6917.98      0.68741848     0.021819618
      6924.89      0.71074380     0.022658391
      6931.82      0.71399179     0.023505850
      6938.75      0.71702885     0.023850755
      6945.69      0.72408360     0.024622126
      6952.64      0.73482795     0.024930738
      6959.59      0.74041748     0.025545233
      6966.55      0.74022271     0.026036764
      6973.52      0.74547904     0.026155441
      6980.49      0.75926168     0.026385763
      6987.47      0.77063460     0.026392563
      6994.46      0.77734083     0.026375894
      7001.46      0.77737075     0.025871951
      7008.46      0.76935499     0.026104635
      7015.46      0.75311703     0.025878042
      7022.48      0.74336413     0.025274184
      7029.51      0.75031383     0.025448587
      7036.53      0.75499740     0.024856400
      7043.57      0.75801582     0.025007967
      7050.62      0.75668723     0.024723723
      7057.66      0.74960793     0.024121494
      7064.72      0.73366302     0.024252299
      7071.79      0.72243690     0.023686710
      7078.86      0.71427950     0.023409884
      7085.94      0.70563018     0.023563478
      7093.03      0.69940530     0.023043662
      7100.12      0.70865617     0.022840025
      7107.22      0.73596174     0.023050789
      7114.33      0.76994497     0.022587481
      7121.44      0.79931290     0.022465365
      7128.56      0.80696772     0.022408185
      7135.69      0.80039730     0.022307802
      7142.83      0.78999300     0.022581190
      7149.97      0.77749976     0.022188458
      7157.12      0.78143827     0.022111538
      7164.28      0.78675981     0.022388944
      7171.44      0.77225176     0.022012352
      7178.62      0.75587856     0.021967067
      7185.80      0.75063157     0.021953253
      7192.98      0.74274226     0.021901209
      7200.17      0.73337421     0.021877900
      7207.38      0.72876071     0.021881733
      7214.58      0.72314383     0.021902765
      7221.80      0.71710283     0.021997392
      7229.02      0.71705338     0.022073287
      7236.25      0.73168815     0.022268123
      7243.49      0.75627196     0.022558869
      7250.73      0.76385185     0.022510498
      7257.98      0.77199927     0.023126842
      7265.24      0.75832522     0.023593639
      7272.51      0.73780732     0.023625306
      7279.78      0.72507541     0.024351966
      7287.06      0.72321905     0.024371032
      7294.35      0.73140150     0.024905375
      7301.64      0.71948765     0.025675145
      7308.94      0.71037708     0.025674393
      7316.25      0.70278840     0.026241935
      7323.57      0.70593556     0.027063880
      7330.89      0.69534835     0.027041001
      7338.22      0.68070226     0.027588067
      7345.56      0.64898089     0.028130168
      7352.91      0.63622522     0.028331707
      7360.26      0.62482347     0.028817740
      7367.62      0.62074443     0.029285582
      7374.99      0.61407951     0.029453264
      7382.37      0.61031397     0.029855234
      7389.75      0.58525667     0.030241961
      7397.14      0.55475896     0.030620259
      7404.53      0.53838191     0.030719602
      7411.94      0.52642228     0.031060633
      7419.35      0.54591310     0.031411875
      7426.77      0.56381309     0.031514235
      7434.20      0.59970522     0.031841317
      7441.63      0.62399243     0.032172592
      7449.07      0.62696802     0.031909234
      7456.52      0.62065124     0.032587338
      7463.98      0.59928916     0.032902514
      7471.45      0.57727720     0.032630386
      7478.92      0.55898427     0.032902173
      7486.40      0.54727866     0.033572452
      7493.88      0.56585997     0.033842610
      7501.38      0.57266372     0.033500762
      7508.88      0.58325834     0.034133227
      7516.39      0.58757528     0.034348276
      7523.91      0.59687120     0.033990836
      7531.43      0.57969287     0.034161528
      7538.96      0.56837175     0.034768136
      7546.50      0.57427615     0.034954662
      7554.05      0.57476633     0.034563300
      7561.60      0.57988269     0.034715358
      7569.16      0.57683781     0.035324805
      7576.73      0.54645007     0.034936100
      7584.31      0.51930179     0.035067923
      7591.89      0.49830882     0.035197993
      7599.49      0.47076975     0.035793372
      7607.09      0.47717884     0.035345995
      7614.70      0.48743298     0.035395250
      7622.31      0.50704926     0.035411634
      7629.93      0.51672005     0.034866083
      7637.56      0.52032727     0.035347701
      7645.20      0.52018519     0.035245134
      7652.85      0.53894128     0.035116023
      7660.50      0.57580803     0.034480340
      7668.16      0.61406325     0.034874957
      7675.83      0.64353312     0.034688531
      7683.50      0.66624177     0.034502251
      7691.19      0.67751881     0.033839703
      7698.88      0.67867471     0.033649111
      7706.58      0.67224374     0.033960881
      7714.29      0.67020473     0.033723964
      7722.00      0.67632698     0.033035421
      7729.73      0.68169269     0.032741138
      7737.45      0.66154996     0.032382934
      7745.19      0.65466824     0.032517134
      7752.94      0.66860568     0.031624319
      7760.69      0.69019830     0.031034376
      7768.45      0.69253767     0.030362851
      7776.22      0.69086591     0.029622011
      7784.00      0.67383301     0.029450735
      7791.78      0.65940050     0.028342892
      7799.57      0.64353030     0.027482014
      7807.37      0.64520526     0.026609525
      7815.18      0.64441717     0.025900288
      7822.99      0.64077129     0.025542513
      7830.82      0.64287603     0.024917635
      7838.65      0.64380289     0.024269422
      7846.49      0.61774393     0.023651745
      7854.34      0.59274779     0.023161264
      7862.19      0.57893182     0.022913336
      7870.05      0.55474280     0.022790982
      7877.93      0.53107766     0.023081994
      7885.80      0.49948198     0.023873230
      7893.69      0.48997205     0.024374880
      7901.58      0.51292934     0.025960437
      7909.49      0.53254340     0.028089483
      7917.40      0.53838042     0.030736722
      7925.31      0.54808547     0.033857795
      7933.24      0.54991981     0.035505825
      7941.17      0.54566362     0.039100887
      7949.11      0.55339294     0.042854421
      7957.06      0.60238933     0.046658466
      7965.02      0.66601435     0.050758120
      7972.98      0.74646153     0.055254705
      7980.96      0.78958148     0.057201608
      7988.94      0.81034777     0.061076677
      7996.93      0.73692926     0.064341795
      8004.93      0.70446875     0.066722603
      8012.93      0.67846562     0.069051731
      8020.95      0.59931847     0.068103579
      8028.97      0.51298242     0.067416416
      8036.99      0.43558518     0.065570616
      8045.03      0.40721086     0.062812100
      8053.08      0.41619170     0.059422266
      8061.13      0.42066108     0.055642930
      8069.20      0.41041070     0.051623096
      8077.26      0.40673861     0.049898512
      8085.34      0.39645369     0.046301935
      8093.43      0.42393025     0.042723408
      8101.52      0.44888802     0.039257717
      8109.62      0.46761389     0.036045430
      8117.73      0.47740791     0.033170520
      8125.85      0.47542763     0.030729992
      8133.98      0.47209353     0.028722118
      8142.11      0.47637300     0.027879048
      8150.25      0.47838321     0.026499449
      8158.41      0.48056871     0.025506622
      8166.56      0.48486444     0.024843970
      8174.73      0.48405389     0.024270885
      8182.91      0.47885500     0.024010837
      8191.09      0.47352719     0.023859615
      8199.28      0.46134407     0.023754052
      8207.48      0.44309466     0.023647389
      8215.69      0.42598742     0.023532188
      8223.91      0.41863062     0.023722342
      8232.13      0.42157745     0.023699751
      8240.36      0.43427047     0.023361918
      8248.60      0.45440123     0.023336611
      8256.85      0.46044115     0.023288202
      8265.11      0.45557655     0.023209859
      8273.37      0.44905494     0.023096921
      8281.65      0.43074866     0.022947391
      8289.93      0.42200513     0.022762177
      8298.22      0.42552879     0.022545019
      8306.52      0.42530793     0.022049981
      8314.83      0.42968479     0.021789505
      8323.14      0.43646928     0.021854362
      8331.46      0.44084403     0.021566366
      8339.80      0.42604031     0.021260057
      8348.13      0.40253917     0.020949216
      8356.48      0.37098639     0.020633356
      8364.84      0.34861731     0.020299052
      8373.21      0.33518306     0.019936117
      8381.58      0.32101141     0.019530288
      8389.96      0.31679563     0.018898325
      8398.35      0.31769823     0.018388725
      8406.75      0.31742714     0.017815335
      8415.16      0.32388594     0.017179810
      8423.57      0.33088294     0.016488383
      8432.00      0.33291364     0.015750281
      8440.43      0.33894208     0.014975818
      8448.87      0.34854006     0.014174609
      8457.32      0.35818225     0.013377173
      8465.78      0.36419858     0.012663781
      8474.25      0.36528273     0.011965501
      8482.72      0.36298520     0.011271614
      8491.20      0.36184384     0.010930990
      8499.69      0.35338309     0.010280358
      8508.19      0.35008242    0.0096946157
      8516.70      0.35217443    0.0091958915
      8525.22      0.35397530    0.0087994008
      8533.75      0.35204033    0.0085139032
      8542.28      0.34987221    0.0083420623
      8550.82      0.34915716    0.0082806255
      8559.37      0.34663964    0.0083205307
      8567.93      0.34973850    0.0084472135
      8576.50      0.35790971    0.0086416132
      8585.08      0.36475110    0.0088819138
      8593.66      0.37126552    0.0091464200
      8602.26      0.38129918    0.0094171383
      8610.86      0.38689752    0.0096857045
      8619.47      0.38807770    0.0099646289
      8628.09      0.38555775     0.010297648
      8636.72      0.37851535     0.010643683
      8645.36      0.37260381     0.010990421
      8654.00      0.36946130     0.011094775
      8662.66      0.36846227     0.011439797
      8671.32      0.37521062     0.011786845
      8679.99      0.38383398     0.012136206
      8688.67      0.38301875     0.012488029
      8697.36      0.37294685     0.012842262
      8706.06      0.35918209     0.013198632
      8714.76      0.34381029     0.013556685
      8723.48      0.33098965     0.013915377
      8732.21      0.33413624     0.014274104
      8740.93      0.34087973     0.014632715
      8749.68      0.34827161     0.014990845
      8758.43      0.35608045     0.015245297
      8767.19      0.35389210     0.015596353
      8775.96      0.34523488     0.015943400
      8784.73      0.33641234     0.016285076
      8793.52      0.33198751     0.016620150
      8802.31      0.33917944     0.016947685
      8811.11      0.35013548     0.017267140
      8819.92      0.36419320     0.017578483
      8828.75      0.38491882     0.017882237
      8837.57      0.40804936     0.018179452
      8846.41      0.41959294     0.018469647
      8855.26      0.41310732     0.018746463
      8864.12      0.39465763     0.019018080
      8872.98      0.37726735     0.019287546
      8881.85      0.37137911     0.019549890
      8890.73      0.37469823     0.019793286
      8899.63      0.38373125     0.020003918
      8908.52      0.39253704     0.020168412
      8917.43      0.39168001     0.020272601
      8926.35      0.36824684     0.020305189
      8935.28      0.32855113     0.019950607
      8944.22      0.29840628     0.020039083
      8953.16      0.27890498     0.019804380
      8962.11      0.27728771     0.019512267
      8971.08      0.28903563     0.019177036
      8980.05      0.29487648     0.018813193
      8989.03      0.30095689     0.018433546
      8998.02      0.30735052     0.018047602
      9007.02      0.30720265     0.017660055
      9016.02      0.29585601     0.017269693
      9025.04      0.28557660     0.016871606
      9034.07      0.29697935     0.016167967
      9043.10      0.30647940     0.016072573
      9052.14      0.31993366     0.016353597
      9061.20      0.33658967     0.016759901
      9070.26      0.34982083     0.017360873
      9079.33      0.35338123     0.018284313
      9088.41      0.34456577     0.019762869
      9097.50      0.33044886     0.022192815
      9106.60      0.32652881     0.026208678
      9115.70      0.33645548     0.030521873
      9124.82      0.35803581     0.040429279
