# starting wavelength =        4027.6645
# ending wavelength =        8422.4342
# O2 telluric scale =        0
# O2 telluric shift =        0
# H2O telluric scale =        0
# H2O telluric shift =        0
      4028.40       1.5668064     0.015692768
      4032.42       1.5576216     0.015352319
      4036.46       1.5475340     0.015045925
      4040.50       1.5506864     0.014787630
      4044.54       1.5466872     0.014620007
      4048.58       1.5376761     0.014451391
      4052.63       1.5396188     0.014209261
      4056.68       1.5411409     0.014034430
      4060.74       1.5355625     0.013859740
      4064.80       1.5361102     0.013614264
      4068.86       1.5319719     0.013436148
      4072.93       1.5302163     0.013259408
      4077.01       1.5240309     0.013080579
      4081.08       1.5276649     0.012837405
      4085.17       1.5252691     0.012662423
      4089.25       1.5219382     0.012486479
      4093.34       1.5164158     0.012249854
      4097.43       1.5148676     0.012080335
      4101.53       1.5074857     0.011910926
      4105.63       1.5056530     0.011684812
      4109.74       1.5058814     0.011524278
      4113.85       1.5017649     0.011364819
      4117.96       1.5046812     0.011152717
      4122.08       1.4972096     0.011004178
      4126.20       1.4887049     0.010857507
      4130.33       1.4901257     0.010662069
      4134.46       1.4878523     0.010527790
      4138.59       1.4822480     0.010344592
      4142.73       1.4777758     0.010236556
      4146.88       1.4755927     0.010116258
      4151.02       1.4707352    0.0099526677
      4155.18       1.4672968    0.0098441659
      4159.33       1.4625727    0.0097399321
      4163.49       1.4672925    0.0095951248
      4167.65       1.4674902    0.0095028868
      4171.82       1.4660309    0.0093704187
      4175.99       1.4664865    0.0093076764
      4180.17       1.4647276    0.0092305069
      4184.35       1.4647425    0.0091163565
      4188.54       1.4587981    0.0090496691
      4192.72       1.4555812    0.0089468089
      4196.92       1.4549538    0.0088896315
      4201.11       1.4524489    0.0088379931
      4205.31       1.4453133    0.0087733542
      4209.52       1.4371700    0.0087307151
      4213.73       1.4256212    0.0086546882
      4217.94       1.4171610    0.0086209339
      4222.16       1.4088092    0.0085550588
      4226.38       1.4031181    0.0085551593
      4230.61       1.3978759    0.0085348146
      4234.84       1.3910663    0.0084826677
      4239.08       1.3841392    0.0084701590
      4243.32       1.3755818    0.0084540809
      4247.56       1.3652935    0.0084500118
      4251.81       1.3620585    0.0084154108
      4256.06       1.3534000    0.0084188853
      4260.32       1.3485126    0.0084214170
      4264.58       1.3457921    0.0084318018
      4268.84       1.3436378    0.0084122524
      4273.11       1.3412818    0.0084294930
      4277.38       1.3418300    0.0084820328
      4281.66       1.3465244    0.0084725483
      4285.94       1.3456129    0.0085001806
      4290.23       1.3500176    0.0085299693
      4294.52       1.3490779    0.0085632504
      4298.81       1.3485632    0.0085651392
      4303.11       1.3493246    0.0086393311
      4307.42       1.3493638    0.0086463868
      4311.72       1.3407829    0.0086898347
      4316.04       1.3331669    0.0087391295
      4320.35       1.3297068    0.0087875203
      4324.67       1.3292950    0.0088029419
      4329.00       1.3286696    0.0088597948
      4333.33       1.3343379    0.0089141861
      4337.66       1.3325285    0.0089344755
      4342.00       1.3277565    0.0090339195
      4346.34       1.3228454    0.0090567674
      4350.69       1.3225041    0.0091610770
      4355.04       1.3282520    0.0091858749
      4359.39       1.3292755    0.0092501241
      4363.75       1.3314074    0.0093206670
      4368.12       1.3376063    0.0093871332
      4372.48       1.3440045    0.0094599994
      4376.86       1.3546312    0.0095282215
      4381.23       1.3611709    0.0096026516
      4385.61       1.3700954    0.0096289541
      4390.00       1.3792598    0.0096981473
      4394.39       1.3881574    0.0097725948
      4398.79       1.3994453    0.0098423531
      4403.18       1.4096683    0.0099162961
      4407.59       1.4200801    0.0099384162
      4412.00       1.4403936     0.010058685
      4416.41       1.4610984     0.010077910
      4420.82       1.4750246     0.010047443
      4425.25       1.4947553     0.010062528
      4429.67       1.5090942     0.010075439
      4434.10       1.5229547     0.010086020
      4438.54       1.5445292     0.010094135
      4442.97       1.5661378     0.010203168
      4447.42       1.5842290     0.010251744
      4451.86       1.6038038     0.010115700
      4456.32       1.6283147     0.010054912
      4460.77       1.6463570     0.010118401
      4465.24       1.6662173     0.010211510
      4469.70       1.6718723     0.010314321
      4474.17       1.6934152     0.010410706
      4478.65       1.7033567     0.010486833
      4483.12       1.7120930     0.010476156
      4487.61       1.7230368     0.010469103
      4492.09       1.7351300     0.010411304
      4496.59       1.7501779     0.010317657
      4501.08       1.7545803     0.010196302
      4505.58       1.7573455     0.010058185
      4510.09       1.7583456    0.0099043728
      4514.60       1.7678840    0.0097760248
      4519.12       1.7674904    0.0096783643
      4523.63       1.7737110    0.0096357428
      4528.16       1.7817730    0.0096911628
      4532.69       1.7860802    0.0096353571
      4537.22       1.7917651    0.0094572892
      4541.76       1.7903418    0.0094125083
      4546.30       1.7921305    0.0094086311
      4550.85       1.7872832    0.0093121874
      4555.40       1.7761320    0.0092636825
      4559.95       1.7678099    0.0092145401
      4564.51       1.7600392    0.0091648563
      4569.08       1.7537230    0.0090669061
      4573.65       1.7468994    0.0090166960
      4578.22       1.7363247    0.0090037365
      4582.80       1.7240429    0.0089048103
      4587.38       1.7075760    0.0088533229
      4591.97       1.6997279    0.0088020145
      4596.56       1.6833922    0.0087509724
      4601.16       1.6732839    0.0086894153
      4605.76       1.6582285    0.0086382529
      4610.37       1.6482559    0.0085877466
      4614.98       1.6374699    0.0084920081
      4619.59       1.6256880    0.0084423969
      4624.21       1.6169061    0.0084297055
      4628.84       1.6071847    0.0083378682
      4633.47       1.5967637    0.0082908700
      4638.10       1.5852937    0.0082453643
      4642.74       1.5743642    0.0081941087
      4647.38       1.5663319    0.0081511174
      4652.03       1.5602159    0.0081100610
      4656.68       1.5500230    0.0080304168
      4661.34       1.5403251    0.0080273979
      4666.00       1.5290318    0.0079524376
      4670.67       1.5226246    0.0079201651
      4675.33       1.5131485    0.0079239910
      4680.01       1.5052054    0.0078575546
      4684.69       1.4910049    0.0078329962
      4689.38       1.4834114    0.0077729990
      4694.07       1.4769938    0.0077886777
      4698.76       1.4754029    0.0077732148
      4703.46       1.4668303    0.0077236995
      4708.16       1.4654465    0.0077500505
      4712.87       1.4643479    0.0077091814
      4717.58       1.4631539    0.0077072022
      4722.30       1.4602323    0.0077116588
      4727.03       1.4608298    0.0077174526
      4731.75       1.4586777    0.0076947365
      4736.48       1.4647027    0.0077465417
      4741.22       1.4649950    0.0077653803
      4745.96       1.4683425    0.0077571382
      4750.71       1.4699054    0.0078235512
      4755.46       1.4701706    0.0078252263
      4760.22       1.4748114    0.0079029996
      4764.97       1.4748277    0.0079146296
      4769.74       1.4740181    0.0079623815
      4774.51       1.4736221    0.0080248342
      4779.29       1.4727864    0.0080813606
      4784.07       1.4680838    0.0081540256
      4788.85       1.4639567    0.0082180805
      4793.64       1.4539240    0.0082540939
      4798.43       1.4456661    0.0083688906
      4803.23       1.4345225    0.0084094835
      4808.03       1.4258766    0.0084988033
      4812.84       1.4171486    0.0085720331
      4817.66       1.4067478    0.0086632510
      4822.48       1.4000484    0.0087368842
      4827.30       1.3967268    0.0087785416
      4832.12       1.3873276    0.0090081638
      4836.96       1.3855951    0.0089962580
      4841.79       1.3765456    0.0090140476
      4846.63       1.3768667    0.0090997353
      4851.48       1.3815708    0.0092356359
      4856.33       1.3808237    0.0093748049
      4861.19       1.3852714    0.0095377220
      4866.05       1.3825481    0.0096300899
      4870.92       1.3820950    0.0098034407
      4875.79       1.3781040    0.0098384863
      4880.66       1.3735147    0.0099322420
      4885.55       1.3704191    0.0098795791
      4890.43       1.3626906    0.0098313505
      4895.32       1.3601852    0.0097511485
      4900.22       1.3479746    0.0096388714
      4905.12       1.3381415    0.0094723270
      4910.02       1.3293436    0.0094004405
      4914.94       1.3244393    0.0092975057
      4919.85       1.3125689    0.0091946542
      4924.77       1.3066050    0.0092687207
      4929.70       1.3024955    0.0090903106
      4934.62       1.2917738    0.0089094322
      4939.56       1.2898232    0.0088047084
      4944.50       1.2874423    0.0086655739
      4949.44       1.2816654    0.0085137484
      4954.39       1.2823525    0.0083780206
      4959.35       1.2790986    0.0083147228
      4964.31       1.2793479    0.0081873612
      4969.27       1.2779939    0.0078216915
      4974.24       1.2783279    0.0076833874
      4979.22       1.2781146    0.0075371470
      4984.20       1.2760225    0.0074277945
      4989.18       1.2723491    0.0073122366
      4994.17       1.2704638    0.0072058948
      4999.16       1.2738897    0.0070388059
      5004.16       1.2784387    0.0068375205
      5009.17       1.2831693    0.0067159155
      5014.18       1.2825206    0.0064367894
      5019.19       1.2851686    0.0061342431
      5024.21       1.2917819    0.0058629626
      5029.23       1.2975492    0.0056578885
      5034.26       1.2999273    0.0054781913
      5039.30       1.3023664    0.0053047088
      5044.34       1.3038200    0.0051845062
      5049.39       1.3070072    0.0050496080
      5054.43       1.3080893    0.0049208017
      5059.49       1.3097937    0.0049477726
      5064.55       1.3102763    0.0046305510
      5069.61       1.3123192    0.0045080920
      5074.68       1.3154547    0.0043858233
      5079.76       1.3157043    0.0043044541
      5084.84       1.3153264    0.0042442772
      5089.92       1.3138762    0.0042022656
      5095.01       1.3159743    0.0041633789
      5100.11       1.3169619    0.0041608159
      5105.21       1.3191340    0.0042259312
      5110.31       1.3214490    0.0043089568
      5115.42       1.3242121    0.0041716396
      5120.54       1.3312728    0.0041601519
      5125.66       1.3390334    0.0041767573
      5130.79       1.3439469    0.0042129819
      5135.92       1.3494494    0.0042661621
      5141.05       1.3546331    0.0043160458
      5146.20       1.3606523    0.0044116092
      5151.34       1.3659038    0.0045526667
      5156.49       1.3721840    0.0048236701
      5161.65       1.3816438    0.0047458209
      5166.81       1.3896288    0.0048402912
      5171.98       1.3974903    0.0048906674
      5177.15       1.4009670    0.0049638636
      5182.33       1.4051529    0.0050299844
      5187.51       1.4105238    0.0050952869
      5192.70       1.4162939    0.0051699563
      5197.89       1.4196307    0.0052708545
      5203.09       1.4260205    0.0054308910
      5208.29       1.4307300    0.0056436427
      5213.50       1.4340958    0.0055782302
      5218.72       1.4390382    0.0056877473
      5223.93       1.4453388    0.0057929793
      5229.16       1.4468605    0.0058930231
      5234.39       1.4470374    0.0059870745
      5239.62       1.4441931    0.0060744465
      5244.86       1.4389003    0.0061545926
      5250.11       1.4384476    0.0062271400
      5255.36       1.4425144    0.0062918800
      5260.61       1.4457622    0.0063487731
      5265.87       1.4441010    0.0063979503
      5271.14       1.4453673    0.0064396431
      5276.41       1.4469084    0.0064741994
      5281.69       1.4484895    0.0065020087
      5286.97       1.4501160    0.0065234693
      5292.26       1.4486681    0.0065129123
      5297.55       1.4465972    0.0065225507
      5302.85       1.4476031    0.0065272109
      5308.15       1.4432671    0.0065273608
      5313.46       1.4471641    0.0065234503
      5318.77       1.4427967    0.0065159606
      5324.09       1.4447492    0.0065053214
      5329.42       1.4468443    0.0064919891
      5334.75       1.4483568    0.0064485852
      5340.08       1.4480096    0.0064309627
      5345.42       1.4511140    0.0064402624
      5350.77       1.4541090    0.0064883639
      5356.12       1.4560695    0.0063844858
      5361.48       1.4587190    0.0063534478
      5366.83       1.4594257    0.0063393665
      5372.20       1.4576845    0.0063712110
      5377.58       1.4585472    0.0064117409
      5382.95       1.4542865    0.0064527335
      5388.34       1.4535232    0.0064874916
      5393.72       1.4493339    0.0064790901
      5399.12       1.4456960    0.0064857583
      5404.52       1.4415107    0.0064942167
      5409.92       1.4359044    0.0064585436
      5415.33       1.4421095    0.0063864442
      5420.75       1.4374168    0.0063326044
      5426.17       1.4367361    0.0062781798
      5431.60       1.4356852    0.0062303329
      5437.03       1.4316910    0.0061740725
      5442.47       1.4269539    0.0061703524
      5447.91       1.4238697    0.0062519849
      5453.36       1.4165539    0.0063369739
      5458.81       1.4099865    0.0062147491
      5464.27       1.4052460    0.0062307326
      5469.73       1.3987076    0.0062478834
      5475.20       1.3897490    0.0062688399
      5480.68       1.3853533    0.0062873048
      5486.16       1.3785401    0.0063063210
      5491.65       1.3733300    0.0063019948
      5497.14       1.3695945    0.0063208269
      5502.64       1.3658119    0.0063668788
      5508.14       1.3604785    0.0063616540
      5513.65       1.3557111    0.0063789599
      5519.16       1.3577798    0.0063955746
      5524.68       1.3547656    0.0065198253
      5530.20       1.3509499    0.0064465998
      5535.73       1.3478396    0.0064154194
      5541.27       1.3419247    0.0064506476
      5546.81       1.3375461    0.0065282600
      5552.36       1.3299298    0.0065719646
      5557.91       1.3209943    0.0066331060
      5563.47       1.3168758    0.0066576118
      5569.04       1.3099817    0.0067261645
      5574.60       1.2998697    0.0067441165
      5580.18       1.2942564    0.0067033147
      5585.76       1.2868981    0.0066947825
      5591.35       1.2762039    0.0066148429
      5596.94       1.2655185    0.0065490734
      5602.53       1.2599919    0.0064697405
      5608.14       1.2490432    0.0063971149
      5613.75       1.2383007    0.0063054684
      5619.36       1.2299658    0.0062864013
      5624.98       1.2202523    0.0062529989
      5630.60       1.2177084    0.0063011873
      5636.23       1.2150605    0.0061657021
      5641.87       1.2104061    0.0061306914
      5647.51       1.2078351    0.0060662685
      5653.16       1.2071820    0.0060472289
      5658.82       1.2014109    0.0059779368
      5664.47       1.1981253    0.0059532946
      5670.14       1.1961890    0.0058792836
      5675.81       1.1907445    0.0058491614
      5681.48       1.1860932    0.0057706035
      5687.17       1.1824987    0.0058303269
      5692.85       1.1742131    0.0056817857
      5698.55       1.1666755    0.0055958269
      5704.25       1.1590205    0.0055395686
      5709.95       1.1509138    0.0054944588
      5715.66       1.1421482    0.0054922799
      5721.38       1.1352326    0.0054505001
      5727.10       1.1264271    0.0054369915
      5732.83       1.1219931    0.0053688183
      5738.56       1.1192873    0.0052966356
      5744.30       1.1132846    0.0052155083
      5750.04       1.1058380    0.0051080511
      5755.79       1.1035027    0.0049771852
      5761.55       1.0997507    0.0048768468
      5767.31       1.0907033    0.0047422358
      5773.08       1.0856830    0.0046218800
      5778.85       1.0785017    0.0045230940
      5784.63       1.0704556    0.0044272196
      5790.41       1.0674043    0.0043397372
      5796.21       1.0645918    0.0043191969
      5802.00       1.0646596    0.0042005567
      5807.81       1.0626761    0.0041142770
      5813.61       1.0613220    0.0040513880
      5819.43       1.0583894    0.0040649839
      5825.25       1.0595514    0.0039498765
      5831.07       1.0589864    0.0038610114
      5836.90       1.0642451    0.0038037109
      5842.74       1.0662640    0.0037666302
      5848.58       1.0663688    0.0037513121
      5854.43       1.0674975    0.0037550386
      5860.29       1.0652593    0.0037339634
      5866.15       1.0629969    0.0037174909
      5872.01       1.0605252    0.0036930971
      5877.89       1.0554487    0.0036472042
      5883.76       1.0516649    0.0036183158
      5889.65       1.0467468    0.0035590059
      5895.54       1.0413856    0.0035077564
      5901.43       1.0391612    0.0034578573
      5907.34       1.0375851    0.0034022294
      5913.24       1.0325306    0.0033811268
      5919.16       1.0257344    0.0033627627
      5925.08       1.0211536    0.0033714753
      5931.00       1.0145443    0.0034027887
      5936.93       1.0119021    0.0033921116
      5942.87       1.0091060    0.0033771340
      5948.81       1.0088448    0.0033895608
      5954.76       1.0076654    0.0034073787
      5960.72       1.0041252    0.0034280759
      5966.68      0.99815523    0.0034514569
      5972.64      0.99244749    0.0034625928
      5978.62      0.98965158    0.0034902561
      5984.60      0.98485608    0.0035200053
      5990.58      0.97979483    0.0035516204
      5996.57      0.97580313    0.0035694183
      6002.57      0.97226191    0.0036144463
      6008.57      0.96822922    0.0036501188
      6014.58      0.96861371    0.0036868540
      6020.60      0.96618245    0.0037244382
      6026.62      0.95980727    0.0037460579
      6032.65      0.95736256    0.0037844971
      6038.68      0.95807569    0.0038231478
      6044.72      0.95780326    0.0038617905
      6050.76      0.95612109    0.0039002049
      6056.81      0.95414901    0.0039381726
      6062.87      0.95220384    0.0039582124
      6068.93      0.95142575    0.0039944746
      6075.00      0.94542951    0.0040296558
      6081.08      0.94275106    0.0040635352
      6087.16      0.93899535    0.0040958918
      6093.25      0.93328831    0.0041265030
      6099.34      0.92505078    0.0041551460
      6105.44      0.92057377    0.0041815966
      6111.54      0.91558144    0.0042056315
      6117.66      0.91159381    0.0042099860
      6123.78      0.90444733    0.0042286398
      6129.90      0.90012549    0.0042442257
      6136.03      0.89550516    0.0042565145
      6142.17      0.89085932    0.0042503986
      6148.31      0.88978274    0.0042551356
      6154.46      0.88893321    0.0042879182
      6160.61      0.88843708    0.0044118722
      6166.77      0.88265538    0.0045748054
      6172.94      0.88516340    0.0042668677
      6179.11      0.88484175    0.0042410088
      6185.29      0.88608822    0.0042912691
      6191.48      0.88829128    0.0043613638
      6197.67      0.89460332    0.0044486167
      6203.87      0.90182394    0.0045251159
      6210.07      0.90645607    0.0045757219
      6216.28      0.91168007    0.0045885590
      6222.50      0.91812224    0.0045311294
      6228.72      0.92057760    0.0044262082
      6234.95      0.92947680    0.0042739953
      6241.19      0.93037090    0.0041270448
      6247.42      0.93795677    0.0039796222
      6253.67      0.94393936    0.0038435348
      6259.93      0.95027522    0.0037163849
      6266.19      0.95820722    0.0036602159
      6272.46      0.96356756    0.0036938883
      6278.73      0.97090813    0.0039008633
      6285.01      0.97559048    0.0036500880
      6291.29      0.98347535    0.0035291819
      6297.58      0.98771533    0.0035337292
      6303.88      0.99367253    0.0035640776
      6310.19      0.99944875    0.0036034361
      6316.50       1.0050584    0.0036611268
      6322.81       1.0127914    0.0037372167
      6329.14       1.0136133    0.0038019552
      6335.47       1.0154839    0.0038520685
      6341.80       1.0166619    0.0038995705
      6348.14       1.0173899    0.0039343313
      6354.49       1.0165251    0.0039549604
      6360.85       1.0136238    0.0039964076
      6367.21       1.0172791    0.0040218854
      6373.57       1.0158031    0.0040509901
      6379.95       1.0153874    0.0041049016
      6386.33       1.0176594    0.0041951451
      6392.72       1.0136028    0.0044026978
      6399.11       1.0117641    0.0046389898
      6405.51       1.0122112    0.0045752239
      6411.92       1.0153643    0.0047139393
      6418.32       1.0144600    0.0048861095
      6424.74       1.0165455    0.0050267166
      6431.17       1.0155887    0.0051778833
      6437.60       1.0158333    0.0053230199
      6444.04       1.0188783    0.0055069100
      6450.48       1.0142246    0.0056606274
      6456.94       1.0117652    0.0058027383
      6463.39       1.0081445    0.0059838570
      6469.85       1.0050368    0.0061178638
      6476.33      0.99630796    0.0062577359
      6482.80      0.99736936    0.0064111701
      6489.28      0.99460656    0.0065372401
      6495.77      0.98938409    0.0066400983
      6502.27      0.98947941    0.0067807183
      6508.77      0.99163462    0.0068618959
      6515.28      0.98666528    0.0069499700
      6521.80      0.98534638    0.0070377139
      6528.32      0.98963926    0.0071030818
      6534.85      0.99174388    0.0071357271
      6541.38      0.99348646    0.0072072127
      6547.92      0.99465751    0.0072156612
      6554.47      0.99297531    0.0072397907
      6561.03      0.99103594    0.0072495671
      6567.59      0.99031540    0.0072504576
      6574.16      0.98514975    0.0072406727
      6580.73      0.98213598    0.0071966968
      6587.31      0.97721321    0.0073371354
      6593.90      0.97381256    0.0071534791
      6600.50      0.97027728    0.0070801771
      6607.10      0.96216076    0.0070523960
      6613.70      0.95629670    0.0070327669
      6620.32      0.95305466    0.0069923018
      6626.94      0.94691162    0.0069939514
      6633.57      0.94122577    0.0069283848
      6640.20      0.93424168    0.0068951417
      6646.84      0.92936652    0.0067868175
      6653.49      0.92760634    0.0066717026
      6660.14      0.92363490    0.0065499878
      6666.80      0.91917334    0.0063991119
      6673.47      0.91129532    0.0062232155
      6680.14      0.90606456    0.0060606515
      6686.82      0.90023939    0.0059168206
      6693.51      0.89613752    0.0057652405
      6700.20      0.88791144    0.0056292182
      6706.90      0.87964585    0.0055248110
      6713.61      0.87104249    0.0054410231
      6720.32      0.86270568    0.0052641510
      6727.05      0.85577748    0.0051425024
      6733.77      0.84805081    0.0050469910
      6740.51      0.84251920    0.0049191743
      6747.25      0.83865862    0.0048043188
      6754.00      0.83467650    0.0046845406
      6760.75      0.82957922    0.0045774048
      6767.51      0.82890144    0.0044954629
      6774.28      0.82795750    0.0044093497
      6781.05      0.82742065    0.0043474144
      6787.84      0.82528949    0.0042156531
      6794.62      0.82380632    0.0041268515
      6801.42      0.82408091    0.0041403990
      6808.22      0.82119748    0.0040755617
      6815.03      0.82090154    0.0040185774
      6821.85      0.82074789    0.0039912284
      6828.67      0.81779308    0.0039896474
      6835.50      0.80986388    0.0039957583
      6842.33      0.80917399    0.0039892764
      6849.17      0.80610581    0.0039998703
      6856.02      0.80584358    0.0040637460
      6862.88      0.80021378    0.0040014834
      6869.74      0.79764948    0.0039365915
      6876.61      0.79722376    0.0039085657
      6883.49      0.79564818    0.0038990486
      6890.37      0.79422033    0.0039032597
      6897.27      0.79618515    0.0039231665
      6904.16      0.79280999    0.0039491408
      6911.07      0.79244381    0.0040204136
      6917.98      0.79146820    0.0040056908
      6924.89      0.79113284    0.0040399106
      6931.82      0.78849121    0.0040714728
      6938.75      0.78638063    0.0040479715
      6945.69      0.78881699    0.0040426300
      6952.64      0.78752808    0.0040934131
      6959.59      0.78346207    0.0041210550
      6966.55      0.77925105    0.0041267165
      6973.52      0.78277045    0.0041580674
      6980.49      0.78068090    0.0042120857
      6987.47      0.77979584    0.0043331747
      6994.46      0.77596289    0.0043208765
      7001.46      0.77472688    0.0042635350
      7008.46      0.77735951    0.0042111424
      7015.46      0.77720743    0.0041537347
      7022.48      0.77885419    0.0040574508
      7029.51      0.77732021    0.0039823812
      7036.53      0.77446588    0.0039166904
      7043.57      0.77520417    0.0038770585
      7050.62      0.77365330    0.0038693000
      7057.66      0.77292058    0.0037893892
      7064.72      0.77044840    0.0037327373
      7071.79      0.76950548    0.0036759844
      7078.86      0.76994572    0.0036523167
      7085.94      0.76928166    0.0036507383
      7093.03      0.77092923    0.0036458379
      7100.12      0.77258631    0.0035994398
      7107.22      0.77813552    0.0035760656
      7114.33      0.78212721    0.0035674913
      7121.44      0.78472423    0.0035627183
      7128.56      0.78796164    0.0035620670
      7135.69      0.78919944    0.0035657856
      7142.83      0.79107722    0.0035640171
      7149.97      0.79153503    0.0035769625
      7157.12      0.79386865    0.0036063020
      7164.28      0.79222489    0.0036282994
      7171.44      0.79052765    0.0036453245
      7178.62      0.78954051    0.0036748113
      7185.80      0.78693559    0.0037073493
      7192.98      0.78502660    0.0037333623
      7200.17      0.78118599    0.0037703222
      7207.38      0.77844033    0.0038086308
      7214.58      0.77723876    0.0038525489
      7221.80      0.77656256    0.0038915208
      7229.02      0.77452185    0.0039599697
      7236.25      0.77271992    0.0040254968
      7243.49      0.77425633    0.0040257703
      7250.73      0.77354651    0.0040256984
      7257.98      0.76987340    0.0040778513
      7265.24      0.76483872    0.0041527182
      7272.51      0.75815285    0.0042365404
      7279.78      0.75405886    0.0043903689
      7287.06      0.75281647    0.0043975183
      7294.35      0.75279508    0.0044130871
      7301.64      0.74627983    0.0044523755
      7308.94      0.74212843    0.0045537551
      7316.25      0.74183625    0.0045087509
      7323.57      0.73998965    0.0044736343
      7330.89      0.73820080    0.0044146742
      7338.22      0.73210853    0.0044358068
      7345.56      0.72389076    0.0042979920
      7352.91      0.71586719    0.0042022212
      7360.26      0.70560226    0.0041382813
      7367.62      0.69590566    0.0041486162
      7374.99      0.68840983    0.0041257082
      7382.37      0.67874625    0.0040217116
      7389.75      0.66924229    0.0039072139
      7397.14      0.65547784    0.0038348593
      7404.53      0.64281601    0.0037502392
      7411.94      0.63376395    0.0037036635
      7419.35      0.62791956    0.0036836178
      7426.77      0.62215603    0.0035930541
      7434.20      0.61597517    0.0035461869
      7441.63      0.61088878    0.0035238317
      7449.07      0.61017670    0.0035596283
      7456.52      0.60490338    0.0035039743
      7463.98      0.60251634    0.0035323219
      7471.45      0.59943817    0.0035677979
      7478.92      0.59537693    0.0036609348
      7486.40      0.59575194    0.0036854536
      7493.88      0.59424665    0.0037266249
      7501.38      0.59313253    0.0037818364
      7508.88      0.59281519    0.0038795605
      7516.39      0.59216461    0.0039689302
      7523.91      0.59140709    0.0040875377
      7531.43      0.59450020    0.0042022344
      7538.96      0.59336268    0.0043338426
      7546.50      0.59752129    0.0044466611
      7554.05      0.60346114    0.0045815376
      7561.60      0.60980540    0.0046818290
      7569.16      0.61335530    0.0047884283
      7576.73      0.61909018    0.0048602220
      7584.31      0.62545927    0.0049477751
      7591.89      0.62881118    0.0050138258
      7599.49      0.63146103    0.0050528552
      7607.09      0.63667830    0.0051072121
      7614.70      0.64435528    0.0051587422
      7622.31      0.65546528    0.0052400035
      7629.93      0.66601156    0.0053723098
      7637.56      0.67056100    0.0053163704
      7645.20      0.67776321    0.0053548729
      7652.85      0.68201653    0.0053803599
      7660.50      0.69216482    0.0053991985
      7668.16      0.70056933    0.0054080472
      7675.83      0.71064795    0.0053911744
      7683.50      0.71408965    0.0053815851
      7691.19      0.72168095    0.0053630265
      7698.88      0.72809812    0.0054072262
      7706.58      0.73236546    0.0053325063
      7714.29      0.73466897    0.0052620743
      7722.00      0.73547952    0.0052198774
      7729.73      0.73626874    0.0052495414
      7737.45      0.73567981    0.0051646244
      7745.19      0.73417607    0.0051061499
      7752.94      0.73063777    0.0050701273
      7760.69      0.73147798    0.0050278850
      7768.45      0.72852129    0.0049849026
      7776.22      0.72470250    0.0049243167
      7784.00      0.72243065    0.0048486583
      7791.78      0.72091757    0.0048099422
      7799.57      0.71277120    0.0046158487
      7807.37      0.70241435    0.0044641161
      7815.18      0.69467675    0.0043372563
      7822.99      0.68380467    0.0042161906
      7830.82      0.67267538    0.0040980791
      7838.65      0.66003036    0.0039839606
      7846.49      0.64759731    0.0038779001
      7854.34      0.63179097    0.0037470479
      7862.19      0.61810024    0.0036130400
      7870.05      0.60199577    0.0034850743
      7877.93      0.58797469    0.0033725909
      7885.80      0.57146705    0.0032417253
      7893.69      0.55622511    0.0031159510
      7901.58      0.53865088    0.0029822024
      7909.49      0.52201916    0.0028707951
      7917.40      0.50731337    0.0027673970
      7925.31      0.49338061    0.0026735300
      7933.24      0.47974373    0.0026350546
      7941.17      0.46569544    0.0025256652
      7949.11      0.45355025    0.0024313456
      7957.06      0.44137356    0.0023570461
      7965.02      0.43064498    0.0023041559
      7972.98      0.42038342    0.0022573907
      7980.96      0.41112846    0.0022024476
      7988.94      0.40117879    0.0021384094
      7996.93      0.39283253    0.0020799748
      8004.93      0.38572161    0.0020216141
      8012.93      0.37728922    0.0019652282
      8020.95      0.37016576    0.0019240557
      8028.97      0.36296450    0.0018788993
      8036.99      0.35711322    0.0018434922
      8045.03      0.35076243    0.0018111052
      8053.08      0.34329989    0.0018119228
      8061.13      0.33643370    0.0017811298
      8069.20      0.32869344    0.0017610036
      8077.26      0.32387437    0.0017614097
      8085.34      0.31634944    0.0017709428
      8093.43      0.30884099    0.0017970354
      8101.52      0.30234661    0.0018365986
      8109.62      0.29535109    0.0018768725
      8117.73      0.28854087    0.0018781913
      8125.85      0.28174961    0.0019161484
      8133.98      0.27657347    0.0019567344
      8142.11      0.27210553    0.0020083613
      8150.25      0.26704426    0.0020666953
      8158.41      0.26381142    0.0021109404
      8166.56      0.25880141    0.0021604401
      8174.73      0.25624763    0.0022027227
      8182.91      0.25331200    0.0022415908
      8191.09      0.25218100    0.0022657905
      8199.28      0.24902910    0.0022939527
      8207.48      0.24856781    0.0023256150
      8215.69      0.24897771    0.0023322036
      8223.91      0.25037733    0.0023303890
      8232.13      0.25216875    0.0023516975
      8240.36      0.25449002    0.0023411905
      8248.60      0.25707814    0.0023248091
      8256.85      0.26010422    0.0023175134
      8265.11      0.26352309    0.0023040803
      8273.37      0.26646785    0.0023079321
      8281.65      0.27100656    0.0023110249
      8289.93      0.27344774    0.0023014467
      8298.22      0.27644996    0.0023367661
      8306.52      0.27940699    0.0023817290
      8314.83      0.28282629    0.0024336717
      8323.14      0.28363172    0.0024703128
      8331.46      0.28569684    0.0025512804
      8339.80      0.28741255    0.0026685565
      8348.13      0.28992489    0.0028334191
      8356.48      0.29245681    0.0030463037
      8364.84      0.29412586    0.0033355420
      8373.21      0.29608282    0.0036625403
      8381.58      0.29825496    0.0041076018
      8389.96      0.29994476    0.0046756714
      8398.35      0.30053070    0.0054364352
      8406.75      0.30016273    0.0063410001
      8415.16      0.29874460    0.0066531468
