# starting wavelength =        4195.7305
# ending wavelength =        8567.1057
# O2 telluric scale =        0
# O2 telluric shift =        0
# H2O telluric scale =        0
# H2O telluric shift =        0
      4196.92       1.8272884     0.084675581
      4201.11       1.8194631     0.081972337
      4205.31       1.8292090     0.079787381
      4209.52       1.8129415     0.077857951
      4213.73       1.7805390     0.076386055
      4217.94       1.7922334     0.075205778
      4222.16       1.7884962     0.074516796
      4226.38       1.8134930     0.074223118
      4230.61       1.7743676     0.074260685
      4234.84       1.7998206     0.074153165
      4239.08       1.7937855     0.074409616
      4243.32       1.8264466     0.074650685
      4247.56       1.8484385     0.075159683
      4251.81       1.8081892     0.075872371
      4256.06       1.8093354     0.076578758
      4260.32       1.7912920     0.077881209
      4264.58       1.7894404     0.078473935
      4268.84       1.7971916     0.079592870
      4273.11       1.7913557     0.080737530
      4277.38       1.8184080     0.081839941
      4281.66       1.8853628     0.083145360
      4285.94       1.9524127     0.084685814
      4290.23       1.9294744     0.086048130
      4294.52       1.8911519     0.087220759
      4298.81       1.9111143     0.088520384
      4303.11       1.8675462     0.089811684
      4307.42       1.9118166     0.091226175
      4311.72       1.8816469     0.092372336
      4316.04       1.8486320     0.093165501
      4320.35       1.9357933     0.094093129
      4324.67       1.9408211     0.095000877
      4329.00       1.8936687     0.095659462
      4333.33       1.8542923     0.095851068
      4337.66       1.7964214     0.096220453
      4342.00       1.7903393     0.096420006
      4346.34       1.7820696     0.096729005
      4350.69       1.7406518     0.096094644
      4355.04       1.8020080     0.096109943
      4359.39       1.8166511     0.095313429
      4363.75       1.8161759     0.094874506
      4368.12       1.7610074     0.094147462
      4372.48       1.8039199     0.093528313
      4376.86       1.8008549     0.092353502
      4381.23       1.7961714     0.091768497
      4385.61       1.7431912     0.090387080
      4390.00       1.7398131     0.089407169
      4394.39       1.7720939     0.088027190
      4398.79       1.7958109     0.086883656
      4403.18       1.7797010     0.085162451
      4407.59       1.7664291     0.084047329
      4412.00       1.7810799     0.082194313
      4416.41       1.7593048     0.080810249
      4420.82       1.7254463     0.079063925
      4425.25       1.7088960     0.077633679
      4429.67       1.7023505     0.076195518
      4434.10       1.7230917     0.074614568
      4438.54       1.7026600     0.072652596
      4442.97       1.7567335     0.071399999
      4447.42       1.7410786     0.069697986
      4451.86       1.7665200     0.068220052
      4456.32       1.7935233     0.067155231
      4460.77       1.8067045     0.065909654
      4465.24       1.8009132     0.065032920
      4469.70       1.7586840     0.063655268
      4474.17       1.7708731     0.062948467
      4478.65       1.7719602     0.061807876
      4483.12       1.7722211     0.060877016
      4487.61       1.7631773     0.060199741
      4492.09       1.7329247     0.059429975
      4496.59       1.7442095     0.058877779
      4501.08       1.7363422     0.058265418
      4505.58       1.7804660     0.057566780
      4510.09       1.7583843     0.057406764
      4514.60       1.7529424     0.056877970
      4519.12       1.7677777     0.056898631
      4523.63       1.8070730     0.057034204
      4528.16       1.7864107     0.056659852
      4532.69       1.7917013     0.057017158
      4537.22       1.8327220     0.057108196
      4541.76       1.8776553     0.057412217
      4546.30       1.9199239     0.057567691
      4550.85       1.9465103     0.058072741
      4555.40       1.9946753     0.058621626
      4559.95       2.0282333     0.059277493
      4564.51       2.0634155     0.060239533
      4569.08       2.1091224     0.060778873
      4573.65       2.2063041     0.061457767
      4578.22       2.2474333     0.062269380
      4582.80       2.2592048     0.063012221
      4587.38       2.3154363     0.063543752
      4591.97       2.4058527     0.063835439
      4596.56       2.4333710     0.064744684
      4601.16       2.4383187     0.065292933
      4605.76       2.4590435     0.065852463
      4610.37       2.4541899     0.066181329
      4614.98       2.4309514     0.066827854
      4619.59       2.3465434     0.067597248
      4624.21       2.2707271     0.067752847
      4628.84       2.2256604     0.068174573
      4633.47       2.1452490     0.068638589
      4638.10       2.0671027     0.068982967
      4642.74       2.0159578     0.069327990
      4647.38       1.9659759     0.069413376
      4652.03       1.9254385     0.069856689
      4656.68       1.8792846     0.070427731
      4661.34       1.8054957     0.070907597
      4666.00       1.8196419     0.070911613
      4670.67       1.8017380     0.071194993
      4675.33       1.8033976     0.071456235
      4680.01       1.8099734     0.071371654
      4684.69       1.8111492     0.071955573
      4689.38       1.8080705     0.072152005
      4694.07       1.7973319     0.072336039
      4698.76       1.7334138     0.072173570
      4703.46       1.7115220     0.072329574
      4708.16       1.7168467     0.072848689
      4712.87       1.6746833     0.072663405
      4717.58       1.6499098     0.072802826
      4722.30       1.6652236     0.072626097
      4727.03       1.6994283     0.073131772
      4731.75       1.6777281     0.073279285
      4736.48       1.6199388     0.073119410
      4741.22       1.6049554     0.073292598
      4745.96       1.6212978     0.073835744
      4750.71       1.6269289     0.073718907
      4755.46       1.6402583     0.073940679
      4760.22       1.5947557     0.074234673
      4764.97       1.6534797     0.074499657
      4769.74       1.6642939     0.074793845
      4774.51       1.6736118     0.074795890
      4779.29       1.6828186     0.075534457
      4784.07       1.6787964     0.075612644
      4788.85       1.6990471     0.076028142
      4793.64       1.7639755     0.076890702
      4798.43       1.8462285     0.077083375
      4803.23       1.8094109     0.077616717
      4808.03       1.8849130     0.078319978
      4812.84       1.8948850     0.078932131
      4817.66       1.8250624     0.079295227
      4822.48       1.7901518     0.080422058
      4827.30       1.7148300     0.080853021
      4832.12       1.7611957     0.082064905
      4836.96       1.7203368     0.082548517
      4841.79       1.6638655     0.083355389
      4846.63       1.6087185     0.084347179
      4851.48       1.6023186     0.085186290
      4856.33       1.6360508     0.086211125
      4861.19       1.6174614     0.087064994
      4866.05       1.6777539     0.087604087
      4870.92       1.7113546     0.088950657
      4875.79       1.7510319     0.089468592
      4880.66       1.8220461     0.090800856
      4885.55       1.9298401     0.091276328
      4890.43       1.9576017     0.092060410
      4895.32       1.9279683     0.092984627
      4900.22       1.9567426     0.093709011
      4905.12       1.9103327     0.094550146
      4910.02       1.9143601     0.094826261
      4914.94       1.9165849     0.097557400
      4919.85       1.8446726     0.096864193
      4924.77       1.8553048     0.097075817
      4929.70       1.8138285     0.097299596
      4934.62       1.7948448     0.098984962
      4939.56       1.7758868     0.099956957
      4944.50       1.7523225      0.10150128
      4949.44       1.7412942      0.10276546
      4954.39       1.7665147      0.10379825
      4959.35       1.7978214      0.10385643
      4964.31       1.7999631      0.10433202
      4969.27       1.8622607      0.10302581
      4974.24       1.8704623      0.10242210
      4979.22       1.9177336      0.10032245
      4984.20       1.8891928     0.098498494
      4989.18       1.8999100     0.096797846
      4994.17       1.9493653     0.095055347
      4999.16       1.9315721     0.093350764
      5004.16       1.9633129     0.093011098
      5009.17       1.9498073     0.093672437
      5014.18       1.9555791     0.091062005
      5019.19       1.9569040     0.089722085
      5024.21       1.9660898     0.088187209
      5029.23       1.9157443     0.086903463
      5034.26       1.8901740     0.085296399
      5039.30       1.8202756     0.084443951
      5044.34       1.7905702     0.083059576
      5049.39       1.7772419     0.081399191
      5054.43       1.8048686     0.080475879
      5059.49       1.7616344     0.078810216
      5064.55       1.7139425     0.077404392
      5069.61       1.6866681     0.076012546
      5074.68       1.6185876     0.074851859
      5079.76       1.5804484     0.073496680
      5084.84       1.5727034     0.072177360
      5089.92       1.5744123     0.070689554
      5095.01       1.5552934     0.069457079
      5100.11       1.5443917     0.068666770
      5105.21       1.5614930     0.067339540
      5110.31       1.5123814     0.066274054
      5115.42       1.5454756     0.065281500
      5120.54       1.5422659     0.064512330
      5125.66       1.5885356     0.063658057
      5130.79       1.6004900     0.062887011
      5135.92       1.5980073     0.062200156
      5141.05       1.6453820     0.061380494
      5146.20       1.7064073     0.060855846
      5151.34       1.7661872     0.060691908
      5156.49       1.8262177     0.060080602
      5161.65       1.8854682     0.059764516
      5166.81       1.9201007     0.059515450
      5171.98       1.9350622     0.059328300
      5177.15       1.9833250     0.058951132
      5182.33       1.9998709     0.058863980
      5187.51       2.0401420     0.059071222
      5192.70       2.0408153     0.059070000
      5197.89       2.0164033     0.058850750
      5203.09       2.0089310     0.058910020
      5208.29       1.9633407     0.058995017
      5213.50       1.9747458     0.059100034
      5218.72       1.9460142     0.059219268
      5223.93       1.9254898     0.059081920
      5229.16       1.8681701     0.059210670
      5234.39       1.8126562     0.059336307
      5239.62       1.8398076     0.059452824
      5244.86       1.8204793     0.059554116
      5250.11       1.8204595     0.059634086
      5255.36       1.8468757     0.059667448
      5260.61       1.8541272     0.059690649
      5265.87       1.7965402     0.059675825
      5271.14       1.7921992     0.059617075
      5276.41       1.7898604     0.059508888
      5281.69       1.7236344     0.059346338
      5286.97       1.7167174     0.059125344
      5292.26       1.6709766     0.058614554
      5297.55       1.6452631     0.058275087
      5302.85       1.6259198     0.057873197
      5308.15       1.6033127     0.057410100
      5313.46       1.5907703     0.056888426
      5318.77       1.5267668     0.056311862
      5324.09       1.4891543     0.055684999
      5329.42       1.4885184     0.054720287
      5334.75       1.4452608     0.054009186
      5340.08       1.4467271     0.053264858
      5345.42       1.4192681     0.052493052
      5350.77       1.4355714     0.051663291
      5356.12       1.4387968     0.050750688
      5361.48       1.4289153     0.049934852
      5366.83       1.4206638     0.049175299
      5372.20       1.4552140     0.048445118
      5377.58       1.4981331     0.047726692
      5382.95       1.4546498     0.047009653
      5388.34       1.4557355     0.046289348
      5393.72       1.4353595     0.045565750
      5399.12       1.4382991     0.044595104
      5404.52       1.4384072     0.043878688
      5409.92       1.4072437     0.043184371
      5415.33       1.3861150     0.042518459
      5420.75       1.3606091     0.041892267
      5426.17       1.3761659     0.041317895
      5431.60       1.3761129     0.040808163
      5437.03       1.3442829     0.040184893
      5442.47       1.3538820     0.039997380
      5447.91       1.3660666     0.039786521
      5453.36       1.3501071     0.039708256
      5458.81       1.3215190     0.039483179
      5464.27       1.3195348     0.039305132
      5469.73       1.3124224     0.039352509
      5475.20       1.2983516     0.039469041
      5480.68       1.2908490     0.039652532
      5486.16       1.2663957     0.039900111
      5491.65       1.2875158     0.040080934
      5497.14       1.3202086     0.040445897
      5502.64       1.3080184     0.040863095
      5508.14       1.3061643     0.041534037
      5513.65       1.3038715     0.041932933
      5519.16       1.3181114     0.042485726
      5524.68       1.3446710     0.043072933
      5530.20       1.3926183     0.043689750
      5535.73       1.4146418     0.044207126
      5541.27       1.4571704     0.044866283
      5546.81       1.5006555     0.045783079
      5552.36       1.4988565     0.046333308
      5557.91       1.4584939     0.047015067
      5563.47       1.4612073     0.047693981
      5569.04       1.4693106     0.048364607
      5574.60       1.4200719     0.048871142
      5580.18       1.3823740     0.049756051
      5585.76       1.4030668     0.050359754
      5591.35       1.4437737     0.050768138
      5596.94       1.4477655     0.051293557
      5602.53       1.4471525     0.052031702
      5608.14       1.3702100     0.052284716
      5613.75       1.3219431     0.052656269
      5619.36       1.2858188     0.052782792
      5624.98       1.2497868     0.053273503
      5630.60       1.2193842     0.053457559
      5636.23       1.2301902     0.053374281
      5641.87       1.1665279     0.053434007
      5647.51       1.1693528     0.053429265
      5653.16       1.1238967     0.053359659
      5658.82       1.1109135     0.053236546
      5664.47       1.0737733     0.052825458
      5670.14       1.0580639     0.052789564
      5675.81       1.0586731     0.052268957
      5681.48       1.0060833     0.051936087
      5687.17      0.97827621     0.051504451
      5692.85      0.98336826     0.051083099
      5698.55       1.0085058     0.050628542
      5704.25       1.0301121     0.050063010
      5709.95       1.0338525     0.049539374
      5715.66       1.0139619     0.048752926
      5721.38      0.96812612     0.048324037
      5727.10      0.99417546     0.047488970
      5732.83       1.0040158     0.046876751
      5738.56      0.96683968     0.046140928
      5744.30      0.97755741     0.045498253
      5750.04      0.92516701     0.044736061
      5755.79      0.91139653     0.044075709
      5761.55      0.89591304     0.043182170
      5767.31      0.88439800     0.042636098
      5773.08      0.87411565     0.041750497
      5778.85      0.85087186     0.040991509
      5784.63      0.85584536     0.040341473
      5790.41      0.85705124     0.039605420
      5796.21      0.84423381     0.038981011
      5802.00      0.83260259     0.038182201
      5807.81      0.86460314     0.037694371
      5813.61      0.87960911     0.036947825
      5819.43      0.89268216     0.036327490
      5825.25      0.91347462     0.036762260
      5831.07      0.95789919     0.035423440
      5836.90       1.0188102     0.034847552
      5842.74       1.0750499     0.034474881
      5848.58       1.1044455     0.034197155
      5854.43       1.1511193     0.034270906
      5860.29       1.1552855     0.034132317
      5866.15       1.1699890     0.034123410
      5872.01       1.1903226     0.034130002
      5877.89       1.1769925     0.034075430
      5883.76       1.1669246     0.033833557
      5889.65       1.1512267     0.033831577
      5895.54       1.1320099     0.033533197
      5901.43       1.1012190     0.033388343
      5907.34       1.0537518     0.033400447
      5913.24       1.0145609     0.033236508
      5919.16       1.0012484     0.033349822
      5925.08      0.98098254     0.033653149
      5931.00      0.97760818     0.034218507
      5936.93      0.98065433     0.035426985
      5942.87      0.98866184     0.035178753
      5948.81      0.99929436     0.036046187
      5954.76       1.0234972     0.036736536
      5960.72       1.0404795     0.037713817
      5966.68       1.0462412     0.038777756
      5972.64       1.0323059     0.039753531
      5978.62       1.0307668     0.040938349
      5984.60       1.0272924     0.042180657
      5990.58      0.99522630     0.043178286
      5996.57      0.98456461     0.044443720
      6002.57      0.98686818     0.045789196
      6008.57      0.98633343     0.046774182
      6014.58      0.98665986     0.048022943
      6020.60      0.98512775     0.049266163
      6026.62      0.97805419     0.050221992
      6032.65      0.98476963     0.051493022
      6038.68       1.0143159     0.052961315
      6044.72       1.0245362     0.053696290
      6050.76       1.0163540     0.054792923
      6056.81       1.0002201     0.055842882
      6062.87      0.98114450     0.056703140
      6068.93       1.0315049     0.057238476
      6075.00       1.0754561     0.057966781
      6081.08       1.0717007     0.058578974
      6087.16       1.0542637     0.059242315
      6093.25       1.0759630     0.059304212
      6099.34       1.1147215     0.059424852
      6105.44       1.1480591     0.059333110
      6111.54       1.1934562     0.059015589
      6117.66       1.2167016     0.058479743
      6123.78       1.1874375     0.057559412
      6129.90       1.1906326     0.056632234
      6136.03       1.1676926     0.055531386
      6142.17       1.1474410     0.054282720
      6148.31       1.0842547     0.053214390
      6154.46       1.1165847     0.052149259
      6160.61       1.1321353     0.049888856
      6166.77       1.1115221     0.048349541
      6172.94       1.0772846     0.047085233
      6179.11       1.0707631     0.045737954
      6185.29       1.0864343     0.044371740
      6191.48       1.1106181     0.042873814
      6197.67       1.1628610     0.041235448
      6203.87       1.1853027     0.039457301
      6210.07       1.2211975     0.037645424
      6216.28       1.2493808     0.035659147
      6222.50       1.2331255     0.033822726
      6228.72       1.2083611     0.032062817
      6234.95       1.2010146     0.030413214
      6241.19       1.1926986     0.028900065
      6247.42       1.2278470     0.027543674
      6253.67       1.2922463     0.026361012
      6259.93       1.3550850     0.025369274
      6266.19       1.4247213     0.024466919
      6272.46       1.5117513     0.023859196
      6278.73       1.5572343     0.023116605
      6285.01       1.5725171     0.022646612
      6291.29       1.5986323     0.022293230
      6297.58       1.6151898     0.022052078
      6303.88       1.6326659     0.021918191
      6310.19       1.6377251     0.021824619
      6316.50       1.6473847     0.021895452
      6322.81       1.6282157     0.022057166
      6329.14       1.5943910     0.022305426
      6335.47       1.5476482     0.022636200
      6341.80       1.4769178     0.023045392
      6348.14       1.4039049     0.023483987
      6354.49       1.3325330     0.024036646
      6360.85       1.2735894     0.024651651
      6367.21       1.2339883     0.025322912
      6373.57       1.2092369     0.026341216
      6379.95       1.1750242     0.027613110
      6386.33       1.1417666     0.029295444
      6392.72       1.0929288     0.028728456
      6399.11       1.0361963     0.029546449
      6405.51      0.97152086     0.030835805
      6411.92      0.93899559     0.032580848
      6418.32      0.88776131     0.034627409
      6424.74      0.87277653     0.036277365
      6431.17      0.82472682     0.038247260
      6437.60      0.84359231     0.040227817
      6444.04      0.83491794     0.042951270
      6450.48      0.82969122     0.044200221
      6456.94      0.83510371     0.044311410
      6463.39      0.83719687     0.043971301
      6469.85      0.79214053     0.044034930
      6476.33      0.77910785     0.042520278
      6482.80      0.75586019     0.041993696
      6489.28      0.72153411     0.042190497
      6495.77      0.71803077     0.045603039
      6502.27      0.64855495     0.045841313
      6508.77      0.61758841     0.044671688
      6515.28      0.58955324     0.043568381
      6521.80      0.56507870     0.043677217
      6528.32      0.55245333     0.043183240
      6534.85      0.55061360     0.043422472
      6541.38      0.54154211     0.043434148
      6547.92      0.54339468     0.042171678
      6554.47      0.53576602     0.041549607
      6561.03      0.56274557     0.041198744
      6567.59      0.54579486     0.040794608
      6574.16      0.55854867     0.040851850
      6580.73      0.56290589     0.040529758
      6587.31      0.55768807     0.040417038
      6593.90      0.54246772     0.040443050
      6600.50      0.56190026     0.039807092
      6607.10      0.55580666     0.039543372
      6613.70      0.54157828     0.039113030
      6620.32      0.53383678     0.038918327
      6626.94      0.53380746     0.038482167
      6633.57      0.52458449     0.038063920
      6640.20      0.49829006     0.037958838
      6646.84      0.51972110     0.037670065
      6653.49      0.53196765     0.038072779
      6660.14      0.55949538     0.037270356
      6666.80      0.54849769     0.036878313
      6673.47      0.57300140     0.036674145
      6680.14      0.60145284     0.036648563
      6686.82      0.61376839     0.036664207
      6693.51      0.60978382     0.036596757
      6700.20      0.61868364     0.037215140
      6706.90      0.60971339     0.036585919
      6713.61      0.60741041     0.036435841
      6720.32      0.62957772     0.036401655
      6727.05      0.64025523     0.036940545
      6733.77      0.63289220     0.036458216
      6740.51      0.61651615     0.036102437
      6747.25      0.62052087     0.036046615
      6754.00      0.60252918     0.036079741
      6760.75      0.58242236     0.036114679
      6767.51      0.56412894     0.036083900
      6774.28      0.59123013     0.036302774
      6781.05      0.59722156     0.036371313
      6787.84      0.59242001     0.035975119
      6794.62      0.56496589     0.035525568
      6801.42      0.56201590     0.035631102
      6808.22      0.56376596     0.034824165
      6815.03      0.55051782     0.034396520
      6821.85      0.55069208     0.034365705
      6828.67      0.55007505     0.034671620
      6835.50      0.55559515     0.034631782
      6842.33      0.53840611     0.034808400
      6849.17      0.54691006     0.035195343
      6856.02      0.55868034     0.035958282
      6862.88      0.58107562     0.036094851
      6869.74      0.59124938     0.036686418
      6876.61      0.57682672     0.037252401
      6883.49      0.55634571     0.037449072
      6890.37      0.57293999     0.037660677
      6897.27      0.57902491     0.038158979
      6904.16      0.56137022     0.037550009
      6911.07      0.56221144     0.037626812
      6917.98      0.54405623     0.037778018
      6924.89      0.53878732     0.038215516
      6931.82      0.52311487     0.038918822
      6938.75      0.52462676     0.039008699
      6945.69      0.54235149     0.039252300
      6952.64      0.55287090     0.039608458
      6959.59      0.56289771     0.040425289
      6966.55      0.57874440     0.041716232
      6973.52      0.56935337     0.041169128
      6980.49      0.58699698     0.041344996
      6987.47      0.62145813     0.041466511
      6994.46      0.64124059     0.041546912
      7001.46      0.64665674     0.041606760
      7008.46      0.63689801     0.041532312
      7015.46      0.65303704     0.041681374
      7022.48      0.65910170     0.042005917
      7029.51      0.68845398     0.042703410
      7036.53      0.66131743     0.041934692
      7043.57      0.66928361     0.041819860
      7050.62      0.66874426     0.041477168
      7057.66      0.66899534     0.041175597
      7064.72      0.62384801     0.040790055
      7071.79      0.59956945     0.040333539
      7078.86      0.61457076     0.039733913
      7085.94      0.57278099     0.038945262
      7093.03      0.55503931     0.038136428
      7100.12      0.52527938     0.037211864
      7107.22      0.50670072     0.036316425
      7114.33      0.47448917     0.035368915
      7121.44      0.46634291     0.034276556
      7128.56      0.46387489     0.033153632
      7135.69      0.44135231     0.031979231
      7142.83      0.46131511     0.030771842
      7149.97      0.47074808     0.029355371
      7157.12      0.45988598     0.028146240
      7164.28      0.47463828     0.026965652
      7171.44      0.47440345     0.025831495
      7178.62      0.50123343     0.024759632
      7185.80      0.55915579     0.023764019
      7192.98      0.58828748     0.022856147
      7200.17      0.63270039     0.022511966
      7207.38      0.69411475     0.021401371
      7214.58      0.77298777     0.020686853
      7221.80      0.84520826     0.020194027
      7229.02      0.93950039     0.019889743
      7236.25       1.0455491     0.019736817
      7243.49       1.1467946     0.019664566
      7250.73       1.2450598     0.019764274
      7257.98       1.3467208     0.019966412
      7265.24       1.4437760     0.020260592
      7272.51       1.5266552     0.020638696
      7279.78       1.6198564     0.021081560
      7287.06       1.6681890     0.021588779
      7294.35       1.6897484     0.022155651
      7301.64       1.7115217     0.022888435
      7308.94       1.6929373     0.023578128
      7316.25       1.6713212     0.024362506
      7323.57       1.6271442     0.025265234
      7330.89       1.5256583     0.026397187
      7338.22       1.4261511     0.027940549
      7345.56       1.3265244     0.028892364
      7352.91       1.2241470     0.030205260
      7360.26       1.1151129     0.031589555
      7367.62       1.0133395     0.032939319
      7374.99      0.91836668     0.033941914
      7382.37      0.81520280     0.035155115
      7389.75      0.74717320     0.036825306
      7397.14      0.70242156     0.037973145
      7404.53      0.66768887     0.039438206
      7411.94      0.67104382     0.040463715
      7419.35      0.66966492     0.041629895
      7426.77      0.66050189     0.042693447
      7434.20      0.66621283     0.044147931
      7441.63      0.67599824     0.045034057
      7449.07      0.69546662     0.045611935
      7456.52      0.72748005     0.045922671
      7463.98      0.68241685     0.046034437
      7471.45      0.72133557     0.045168527
      7478.92      0.72269006     0.044129224
      7486.40      0.74501010     0.043379388
      7493.88      0.74475782     0.042522650
      7501.38      0.69515938     0.042084048
      7508.88      0.71043299     0.041154936
      7516.39      0.71407482     0.039556613
      7523.91      0.69686491     0.038451193
      7531.43      0.68992797     0.037488615
      7538.96      0.68220403     0.036402621
      7546.50      0.65833284     0.035398859
      7554.05      0.64335826     0.034480929
      7561.60      0.64079920     0.033359407
      7569.16      0.62997557     0.032614600
      7576.73      0.63608529     0.032104635
      7584.31      0.64381758     0.031115667
      7591.89      0.65409526     0.030465127
      7599.49      0.65693674     0.030048031
      7607.09      0.62829740     0.029876510
      7614.70      0.62529980     0.029149218
      7622.31      0.59313157     0.028759136
      7629.93      0.58211832     0.028596874
      7637.56      0.54067064     0.028363049
      7645.20      0.53167039     0.028300015
      7652.85      0.56577248     0.028201632
      7660.50      0.56264126     0.028231827
      7668.16      0.56122927     0.028254950
      7675.83      0.56750048     0.028500981
      7683.50      0.57134135     0.028668705
      7691.19      0.57553416     0.029009230
      7698.88      0.59125274     0.029386140
      7706.58      0.61514385     0.029894553
      7714.29      0.64448104     0.030497228
      7722.00      0.69192401     0.031070447
      7729.73      0.74051952     0.031898367
      7737.45      0.76886631     0.032670776
      7745.19      0.80922810     0.033609329
      7752.94      0.82213285     0.034663629
      7760.69      0.86523803     0.035660164
      7768.45      0.87642418     0.036937083
      7776.22      0.88780959     0.038080737
      7784.00      0.88368549     0.039672395
      7791.78      0.93600893     0.040875237
      7799.57      0.96039901     0.042083296
      7807.37      0.93531048     0.043635699
      7815.18      0.93105656     0.045382196
      7822.99      0.92488554     0.047098576
      7830.82      0.91501340     0.048453812
      7838.65      0.89493004     0.050026742
      7846.49      0.86659692     0.051616068
      7854.34      0.87199103     0.052795939
      7862.19      0.88282366     0.054398596
      7870.05      0.90455136     0.054562114
      7877.93      0.92849044     0.055127186
      7885.80      0.90750536     0.055568919
      7893.69      0.93851543     0.056574471
      7901.58      0.95668553     0.056755243
      7909.49      0.95486672     0.056159355
      7917.40      0.90495027     0.055869453
      7925.31      0.86532189     0.056517570
      7933.24      0.81539743     0.056403753
      7941.17      0.82424536     0.054704128
      7949.11      0.77750982     0.053421329
      7957.06      0.73017168     0.052250639
      7965.02      0.67364486     0.050872272
      7972.98      0.64370795     0.049090365
      7980.96      0.59582789     0.047160082
      7988.94      0.57150504     0.043938861
      7996.93      0.54174630     0.041254209
      8004.93      0.55314359     0.038921167
      8012.93      0.55225970     0.036450187
      8020.95      0.54910202     0.034038689
      8028.97      0.53259986     0.031717983
      8036.99      0.49772010     0.029519578
      8045.03      0.48922733     0.027507459
      8053.08      0.46493830     0.025519190
      8061.13      0.43260390     0.023542280
      8069.20      0.42149268     0.021997407
      8077.26      0.40275268     0.020668777
      8085.34      0.39350271     0.019369948
      8093.43      0.39685080     0.018272183
      8101.52      0.38777013     0.017269043
      8109.62      0.37080736     0.016344168
      8117.73      0.35556035     0.015640202
      8125.85      0.33911230     0.015076611
      8133.98      0.33268717     0.014497725
      8142.11      0.32380521     0.013927984
      8150.25      0.31671838     0.013514405
      8158.41      0.31450629     0.013215667
      8166.56      0.31119120     0.012988347
      8174.73      0.30756807     0.012842995
      8182.91      0.29921887     0.012803383
      8191.09      0.29236452     0.012862662
      8199.28      0.27973469     0.013034094
      8207.48      0.27153383     0.013249269
      8215.69      0.26930645     0.013280755
      8223.91      0.26279331     0.013567181
      8232.13      0.25864429     0.013961024
      8240.36      0.26428522     0.014515800
      8248.60      0.26474984     0.015073910
      8256.85      0.25987162     0.015658616
      8265.11      0.27178798     0.016406447
      8273.37      0.27233915     0.017158142
      8281.65      0.28117187     0.018029585
      8289.93      0.27471565     0.018840424
      8298.22      0.27404594     0.019920815
      8306.52      0.27584011     0.020793851
      8314.83      0.28616643     0.021417446
      8323.14      0.28984720     0.022112018
      8331.46      0.29697817     0.022603660
      8339.80      0.30245589     0.023079210
      8348.13      0.30592904     0.023329400
      8356.48      0.31168830     0.023384729
      8364.84      0.31342842     0.023141490
      8373.21      0.30767846     0.022803840
      8381.58      0.31206233     0.022499480
      8389.96      0.31847416     0.022126011
      8398.35      0.34221802     0.021271495
      8406.75      0.36650577     0.020570896
      8415.16      0.39773656     0.019882054
      8423.57      0.42560818     0.019382864
      8432.00      0.43417083     0.019109302
      8440.43      0.44204920     0.019157647
      8448.87      0.44738072     0.019221997
      8457.32      0.45785208     0.019326753
      8465.78      0.47131331     0.019547375
      8474.25      0.47934081     0.019850189
      8482.72      0.48580676     0.020296000
      8491.20      0.48542330     0.021048139
      8499.69      0.48669713     0.022259777
      8508.19      0.48173638     0.024064045
      8516.70      0.47849329     0.025992914
      8525.22      0.47120745     0.028717342
      8533.75      0.45454255     0.032098302
      8542.28      0.43349000     0.033201666
      8550.82      0.40179218     0.038547077
      8559.37      0.36225320     0.045468298
