# starting wavelength =        2889.3905
# ending wavelength =        9026.0767
# O2 telluric scale =       0.46428753
# O2 telluric shift =        3.1099504
# H2O telluric scale =        0
# H2O telluric shift =        0
      2890.76       1.5479622     0.040824648
      2893.65       1.6597807     0.025446821
      2896.54       1.7177418     0.020180347
      2899.44       1.7385071     0.017457172
      2902.34       1.7286563     0.016034286
      2905.24       1.7063436     0.015504333
      2908.15       1.6870559     0.015650480
      2911.06       1.6998367     0.015579187
      2913.97       1.7219859     0.015304651
      2916.88       1.7519561     0.015241533
      2919.80       1.7867525     0.015382224
      2922.72       1.7960468     0.015311277
      2925.64       1.7880399     0.015040322
      2928.57       1.7678980     0.014976466
      2931.50       1.7666806     0.015114299
      2934.43       1.7880789     0.015042759
      2937.36       1.8239177     0.014774572
      2940.30       1.8635676     0.014709365
      2943.24       1.8970849     0.014647369
      2946.18       1.9218254     0.014774150
      2949.13       1.9147321     0.014737140
      2952.08       1.8879482     0.015816117
      2955.03       1.8339117     0.014924240
      2957.99       1.8139172     0.015275309
      2960.94       1.7983095     0.016629156
      2963.90       1.7997990     0.017733146
      2966.87       1.8380044     0.017130463
      2969.84       1.8453979     0.015262707
      2972.81       1.8222452     0.013458283
      2975.78       1.7869953     0.011991404
      2978.76       1.7377918     0.012537190
      2981.73       1.7153537     0.011165693
      2984.72       1.7025042     0.010313032
      2987.70       1.6926672    0.0097815497
      2990.69       1.6741412    0.0091830107
      2993.68       1.6724791    0.0086525477
      2996.67       1.6544404    0.0081252321
      2999.67       1.6244516    0.0077998118
      3002.67       1.5932848    0.0073213895
      3005.67       1.5771125    0.0068965026
      3008.68       1.5687234    0.0065555701
      3011.69       1.5693325    0.0064010367
      3014.70       1.5785837    0.0064154181
      3017.71       1.5843282    0.0065692359
      3020.73       1.6009543    0.0068037373
      3023.75       1.6120610    0.0070577938
      3026.78       1.6152459    0.0073918068
      3029.80       1.6254242    0.0075569110
      3032.83       1.6474812    0.0078539287
      3035.87       1.6710439    0.0081509396
      3038.90       1.6985943    0.0084473184
      3041.94       1.7295237    0.0087442093
      3044.98       1.7544390    0.0090415873
      3048.03       1.7652297    0.0093277995
      3051.08       1.7674197    0.0096075881
      3054.13       1.7592729    0.0098541744
      3057.18       1.7396608    0.0098605462
      3060.24       1.7183647    0.0099004228
      3063.30       1.6981019    0.0098000835
      3066.36       1.6830931    0.0095847888
      3069.43       1.6782740    0.0093066908
      3072.50       1.6935366    0.0091685868
      3075.57       1.7136806    0.0088587510
      3078.65       1.7227423    0.0085403865
      3081.73       1.7328824    0.0082216566
      3084.81       1.7344838    0.0079031186
      3087.89       1.7263415    0.0075847163
      3090.98       1.7212054    0.0072664058
      3094.07       1.7095200    0.0069472691
      3097.17       1.7013387    0.0066461087
      3100.26       1.7053631    0.0063502251
      3103.36       1.7202018    0.0060264528
      3106.47       1.7254923    0.0058073839
      3109.58       1.7293849    0.0056588197
      3112.68       1.7442572    0.0055820481
      3115.80       1.7543394    0.0055621312
      3118.91       1.7605668    0.0055738370
      3122.03       1.7600877    0.0055935211
      3125.15       1.7596448    0.0056185888
      3128.28       1.7698968    0.0055902964
      3131.41       1.7918389    0.0056235826
      3134.54       1.8082108    0.0056570058
      3137.67       1.8137196    0.0056905646
      3140.81       1.8301010    0.0057239096
      3143.95       1.8392196    0.0057558383
      3147.10       1.8455193    0.0057864027
      3150.24       1.8481251    0.0058152213
      3153.39       1.8516924    0.0058365105
      3156.55       1.8572470    0.0058434484
      3159.70       1.8692114    0.0059033315
      3162.86       1.8772346    0.0058707815
      3166.03       1.8693097    0.0058264925
      3169.19       1.8656847    0.0057782878
      3172.36       1.8644335    0.0057288947
      3175.54       1.8784576    0.0056040147
      3178.71       1.8884180    0.0055525416
      3181.89       1.8918990    0.0055013702
      3185.07       1.8923015    0.0054504655
      3188.26       1.8860527    0.0053998058
      3191.45       1.8671188    0.0053488561
      3194.64       1.8484230    0.0053000950
      3197.83       1.8244594    0.0052517731
      3201.03       1.8023237    0.0052068295
      3204.23       1.7891372    0.0050995202
      3207.44       1.7817791    0.0051315846
      3210.64       1.7656466    0.0051126508
      3213.85       1.7533995    0.0051011452
      3217.07       1.7358543    0.0050935527
      3220.28       1.7175892    0.0050870621
      3223.51       1.7117861    0.0051424530
      3226.73       1.6995647    0.0054866088
      3229.96       1.6838011    0.0050684101
      3233.19       1.6720523    0.0053249500
      3236.42       1.6637338    0.0057498313
      3239.66       1.6480399    0.0060319520
      3242.90       1.6305827    0.0058631516
      3246.14       1.6215040    0.0055365848
      3249.39       1.6198660    0.0051935939
      3252.64       1.6204530    0.0050104476
      3255.89       1.6157345    0.0053342566
      3259.14       1.6186610    0.0050177858
      3262.40       1.6255970    0.0049511366
      3265.67       1.6318145    0.0049423628
      3268.93       1.6427104    0.0049339183
      3272.20       1.6562452    0.0049260839
      3275.47       1.6685737    0.0048631578
      3278.75       1.6763393    0.0049142450
      3282.03       1.6788992    0.0049049778
      3285.31       1.6828934    0.0048966288
      3288.60       1.6938175    0.0048334537
      3291.88       1.7045583    0.0048265734
      3295.18       1.7140015    0.0048760660
      3298.47       1.7295331    0.0048675800
      3301.77       1.7448859    0.0048052456
      3305.07       1.7464572    0.0047995599
      3308.38       1.7428770    0.0048516994
      3311.69       1.7411520    0.0048451752
      3315.00       1.7443453    0.0047854597
      3318.31       1.7487553    0.0047813312
      3321.63       1.7551010    0.0048338841
      3324.95       1.7559714    0.0048277607
      3328.28       1.7559581    0.0047685026
      3331.61       1.7543623    0.0047648711
      3334.94       1.7461716    0.0048161731
      3338.27       1.7483384    0.0047567349
      3341.61       1.7475785    0.0047529977
      3344.95       1.7448294    0.0047506179
      3348.30       1.7516024    0.0047496324
      3351.65       1.7487233    0.0047509428
      3355.00       1.7438087    0.0047567492
      3358.35       1.7320682    0.0047113697
      3361.71       1.7266854    0.0047798137
      3365.07       1.7225277    0.0048450567
      3368.44       1.7193223    0.0051622817
      3371.81       1.7102656    0.0048553084
      3375.18       1.6969320    0.0050995257
      3378.56       1.6849749    0.0054046931
      3381.94       1.6660508    0.0057407789
      3385.32       1.6494433    0.0057228696
      3388.70       1.6472378    0.0053683648
      3392.09       1.6504669    0.0051135611
      3395.48       1.6621132    0.0049316818
      3398.88       1.6774549    0.0052251341
      3402.28       1.6920830    0.0049191333
      3405.68       1.7004315    0.0048503588
      3409.09       1.7084454    0.0048310130
      3412.49       1.7132974    0.0048103137
      3415.91       1.7208924    0.0047850620
      3419.32       1.7309913    0.0047612706
      3422.74       1.7339621    0.0047363733
      3426.17       1.7375363    0.0047108718
      3429.59       1.7438767    0.0046874042
      3433.02       1.7503437    0.0046609708
      3436.45       1.7521942    0.0046379954
      3439.89       1.7539815    0.0046156717
      3443.33       1.7586106    0.0045951229
      3446.78       1.7720480    0.0045359325
      3450.22       1.7878646    0.0045879092
      3453.67       1.7951860    0.0045576856
      3457.13       1.8074038    0.0046423515
      3460.58       1.8234285    0.0046325964
      3464.04       1.8385657    0.0047309880
      3467.51       1.8464815    0.0047236686
      3470.98       1.8524436    0.0047660673
      3474.45       1.8564525    0.0048196042
      3477.92       1.8674974    0.0048616284
      3481.40       1.8746157    0.0049634960
      3484.88       1.8762960    0.0049567702
      3488.37       1.8857751    0.0050594603
      3491.86       1.8950275    0.0050496681
      3495.35       1.9053759    0.0051493668
      3498.84       1.9036521    0.0051293763
      3502.34       1.8955989    0.0051644223
      3505.84       1.8899247    0.0051844816
      3509.35       1.8909602    0.0051472411
      3512.86       1.8908135    0.0052255230
      3516.37       1.8931686    0.0051865302
      3519.89       1.9006662    0.0052639571
      3523.41       1.9138019    0.0052235891
      3526.93       1.9347665    0.0053017698
      3530.46       1.9562340    0.0052606414
      3533.99       1.9725222    0.0053383643
      3537.53       1.9752893    0.0053570836
      3541.06       1.9806040    0.0053122746
      3544.60       1.9826993    0.0053763777
      3548.15       1.9861571    0.0053106888
      3551.70       1.9934412    0.0053520392
      3555.25       2.0098115    0.0052625109
      3558.80       2.0280512    0.0052867981
      3562.36       2.0432381    0.0051895348
      3565.92       2.0560621    0.0051504774
      3569.49       2.0525689    0.0051120835
      3573.06       2.0459526    0.0050704962
      3576.64       2.0429997    0.0050872351
      3580.21       2.0401677    0.0049921072
      3583.79       2.0367885    0.0049578345
      3587.38       2.0328612    0.0049258017
      3590.96       2.0266856    0.0049069066
      3594.55       2.0192459    0.0048648593
      3598.15       2.0129141    0.0049554264
      3601.75       1.9941215    0.0050462199
      3605.35       1.9715637    0.0050964921
      3608.96       1.9501965    0.0052729017
      3612.56       1.9277007    0.0053392854
      3616.18       1.8985578    0.0054819656
      3619.79       1.8734209    0.0056742525
      3623.41       1.8551542    0.0057440024
      3627.04       1.8490637    0.0058901219
      3630.66       1.8472802    0.0060861549
      3634.29       1.8411622    0.0061503556
      3637.93       1.8338386    0.0062944088
      3641.57       1.8336610    0.0064902031
      3645.21       1.8341927    0.0065406380
      3648.86       1.8260928    0.0066680583
      3652.50       1.8231370    0.0067662143
      3656.16       1.8219926    0.0068814231
      3659.81       1.8250144    0.0069965016
      3663.47       1.8249606    0.0071125272
      3667.14       1.8239043    0.0072021409
      3670.80       1.8253670    0.0073151318
      3674.48       1.8289658    0.0074295926
      3678.15       1.8264106    0.0074464970
      3681.83       1.8119567    0.0076188018
      3685.51       1.8008409    0.0077114305
      3689.20       1.7846803    0.0076748363
      3692.88       1.7646281    0.0076603758
      3696.58       1.7466620    0.0076579885
      3700.27       1.7389318    0.0074838348
      3703.98       1.7355364    0.0071993082
      3707.68       1.7326973    0.0069630750
      3711.39       1.7370650    0.0068189572
      3715.10       1.7398307    0.0065665122
      3718.81       1.7447269    0.0062684347
      3722.53       1.7436037    0.0060194351
      3726.26       1.7371020    0.0057709123
      3729.98       1.7285042    0.0056043836
      3733.71       1.7226121    0.0053166005
      3737.45       1.7293423    0.0050792958
      3741.18       1.7297659    0.0048468522
      3744.93       1.7346536    0.0046378850
      3748.67       1.7343003    0.0044411158
      3752.42       1.7337268    0.0043733233
      3756.17       1.7324153    0.0043011713
      3759.93       1.7214214    0.0042661107
      3763.69       1.7046870    0.0042491910
      3767.45       1.6843101    0.0041918450
      3771.22       1.6700444    0.0041818616
      3774.99       1.6498511    0.0041738173
      3778.77       1.6302752    0.0042069099
      3782.54       1.6160929    0.0041951902
      3786.33       1.6155420    0.0041733348
      3790.11       1.6205043    0.0040928909
      3793.90       1.6208034    0.0040305775
      3797.70       1.6099321    0.0039469987
      3801.50       1.5964957    0.0038491204
      3805.30       1.5776309    0.0037453037
      3809.10       1.5562187    0.0036405316
      3812.91       1.5307207    0.0035338354
      3816.73       1.5133088    0.0034479762
      3820.54       1.5231044    0.0033403772
      3824.36       1.5310920    0.0032524093
      3828.19       1.5367357    0.0031783485
      3832.02       1.5405305    0.0031136611
      3835.85       1.5419610    0.0031046720
      3839.68       1.5428077    0.0032061002
      3843.52       1.5383309    0.0034612876
      3847.37       1.5286557    0.0039018080
      3851.22       1.5192738    0.0046808428
      3855.07       1.5348939    0.0051010598
      3858.92       1.5459270    0.0059857283
      3862.78       1.5562625    0.0074393129
      3866.64       1.5713996    0.0096378365
      3870.51       1.5779106     0.011351404
      3874.38       1.5984313     0.011245090
      3878.26       1.6032963     0.011262860
      3882.13       1.6037628     0.015141901
      3886.02       1.6064269     0.017395996
      3889.90       1.6087564     0.013400285
      3893.79       1.6193490     0.011757124
      3897.69       1.6288667     0.010439095
      3901.59       1.6384803    0.0096430764
      3905.49       1.6580785    0.0097781695
      3909.39       1.6753598    0.0087158210
      3913.30       1.6961808    0.0081145816
      3917.22       1.6989067    0.0076901324
      3921.13       1.6907694    0.0072784100
      3925.06       1.6887162    0.0068836392
      3928.98       1.6888425    0.0065039926
      3932.91       1.6906464    0.0061796030
      3936.84       1.6973622    0.0058756970
      3940.78       1.7057729    0.0057459494
      3944.72       1.7059080    0.0058161301
      3948.67       1.7095773    0.0061990883
      3952.61       1.6931552    0.0061114266
      3956.57       1.6713676    0.0061585237
      3960.52       1.6511791    0.0067964897
      3964.48       1.6282580    0.0075201451
      3968.45       1.5985214    0.0078319853
      3972.42       1.5794344    0.0073150783
      3976.39       1.5656486    0.0068879700
      3980.37       1.5491182    0.0065696803
      3984.35       1.5357837    0.0072704885
      3988.33       1.5158885    0.0066615349
      3992.32       1.5002090    0.0064710428
      3996.31       1.4848544    0.0066729341
      4000.31       1.4689519    0.0068486091
      4004.31       1.4527280    0.0070675686
      4008.31       1.4428567    0.0072937270
      4012.32       1.4443421    0.0075236029
      4016.33       1.4505482    0.0078568926
      4020.35       1.4601491    0.0080888427
      4024.37       1.4664831    0.0082634146
      4028.40       1.4709233    0.0084885844
      4032.42       1.4764793    0.0087092978
      4036.46       1.4747126    0.0089234488
      4040.50       1.4731313    0.0092453715
      4044.54       1.4752304    0.0093777129
      4048.58       1.4844261    0.0095711203
      4052.63       1.4994940    0.0097642748
      4056.68       1.5230784    0.0099570512
      4060.74       1.5442713     0.010075545
      4064.80       1.5615775     0.010387092
      4068.86       1.5790181     0.010558228
      4072.93       1.5792192     0.010720895
      4077.01       1.5727532     0.011053216
      4081.08       1.5705195     0.011982133
      4085.17       1.5653778     0.011032198
      4089.25       1.5660197     0.011439292
      4093.34       1.5651830     0.011794597
      4097.43       1.5710488     0.011641091
      4101.53       1.5760095     0.010119755
      4105.63       1.5865823    0.0082715653
      4109.74       1.5925350    0.0069871334
      4113.85       1.5822186    0.0061134055
      4117.96       1.5661100    0.0056235797
      4122.08       1.5605452    0.0047077334
      4126.20       1.5550141    0.0041822505
      4130.33       1.5527176    0.0037779006
      4134.46       1.5530039    0.0034438220
      4138.59       1.5500480    0.0032714366
      4142.73       1.5461169    0.0031629074
      4146.88       1.5459180    0.0030477740
      4151.02       1.5385793    0.0029900377
      4155.18       1.5250486    0.0029218357
      4159.33       1.5154890    0.0028234847
      4163.49       1.5063258    0.0027824580
      4167.65       1.4933611    0.0026918499
      4171.82       1.4810915    0.0026960486
      4175.99       1.4674262    0.0028635884
      4180.17       1.4570892    0.0025857701
      4184.35       1.4484682    0.0026950796
      4188.54       1.4398799    0.0028731234
      4192.72       1.4316828    0.0030246112
      4196.92       1.4283961    0.0030459132
      4201.11       1.4271662    0.0029433732
      4205.31       1.4163375    0.0028134207
      4209.52       1.4052448    0.0027949117
      4213.73       1.3982744    0.0029799925
      4217.94       1.3888079    0.0028199837
      4222.16       1.3749540    0.0028977868
      4226.38       1.3612312    0.0029586033
      4230.61       1.3484668    0.0030644246
      4234.84       1.3362198    0.0031797663
      4239.08       1.3228828    0.0033072654
      4243.32       1.3093471    0.0035201276
      4247.56       1.2973934    0.0036734560
      4251.81       1.2915291    0.0039018965
      4256.06       1.2881015    0.0040619724
      4260.32       1.2856165    0.0042992921
      4264.58       1.2826540    0.0044462456
      4268.84       1.2820699    0.0046110216
      4273.11       1.2853197    0.0047672925
      4277.38       1.2876721    0.0048304610
      4281.66       1.2953622    0.0047954127
      4285.94       1.2869228    0.0046785196
      4290.23       1.2723972    0.0044665654
      4294.52       1.2620571    0.0042638714
      4298.81       1.2529851    0.0040134878
      4303.11       1.2410589    0.0037572378
      4307.42       1.2289450    0.0035806792
      4311.72       1.2178689    0.0033493526
      4316.04       1.2087176    0.0032233244
      4320.35       1.2013332    0.0031017889
      4324.67       1.1942289    0.0030978225
      4329.00       1.1878535    0.0031035797
      4333.33       1.1849232    0.0031783816
      4337.66       1.1849798    0.0033243975
      4342.00       1.1886804    0.0036556123
      4346.34       1.1897997    0.0034867249
      4350.69       1.1934996    0.0037688170
      4355.04       1.1978053    0.0041755444
      4359.39       1.2047715    0.0045145212
      4363.75       1.2144187    0.0046187018
      4368.12       1.2190898    0.0044219446
      4372.48       1.2222424    0.0041565202
      4376.86       1.2236179    0.0040860351
      4381.23       1.2270338    0.0042128773
      4385.61       1.2368376    0.0038853481
      4390.00       1.2481826    0.0037608574
      4394.39       1.2522714    0.0036958070
      4398.79       1.2650232    0.0035874345
      4403.18       1.2711876    0.0034519474
      4407.59       1.2767716    0.0033828354
      4412.00       1.2812638    0.0032583084
      4416.41       1.2805389    0.0031597123
      4420.82       1.2816575    0.0030808017
      4425.25       1.2820826    0.0030368342
      4429.67       1.2798077    0.0030136191
      4434.10       1.2728582    0.0030185225
      4438.54       1.2666206    0.0030358298
      4442.97       1.2558092    0.0030615972
      4447.42       1.2522188    0.0030896593
      4451.86       1.2426527    0.0030915533
      4456.32       1.2384643    0.0031499844
      4460.77       1.2370698    0.0031844802
      4465.24       1.2380959    0.0031899525
      4469.70       1.2449668    0.0032362459
      4474.17       1.2488897    0.0033188169
      4478.65       1.2528140    0.0033953147
      4483.12       1.2601765    0.0034494976
      4487.61       1.2684864    0.0035510931
      4492.09       1.2730013    0.0036565945
      4496.59       1.2872093    0.0037858590
      4501.08       1.2971039    0.0038512509
      4505.58       1.3056257    0.0039570998
      4510.09       1.3105228    0.0040610713
      4514.60       1.3091738    0.0041541814
      4519.12       1.3045671    0.0042082370
      4523.63       1.2906510    0.0042397438
      4528.16       1.2790320    0.0042276069
      4532.69       1.2738365    0.0041803444
      4537.22       1.2690616    0.0041144611
      4541.76       1.2661166    0.0040129915
      4546.30       1.2630502    0.0039391720
      4550.85       1.2577599    0.0039016924
      4555.40       1.2617390    0.0038252724
      4559.95       1.2682129    0.0037489810
      4564.51       1.2650902    0.0036479853
      4569.08       1.2666165    0.0035740291
      4573.65       1.2741660    0.0035022278
      4578.22       1.2757851    0.0034324372
      4582.80       1.2732109    0.0033640758
      4587.38       1.2795810    0.0032963285
      4591.97       1.2842515    0.0032399630
      4596.56       1.2903666    0.0031750193
      4601.16       1.2959662    0.0031112887
      4605.76       1.2979551    0.0030520144
      4610.37       1.2997303    0.0030314931
      4614.98       1.3039038    0.0032084847
      4619.59       1.2998642    0.0035482067
      4624.21       1.2962555    0.0048676067
      4628.84       1.2965875    0.0055997331
      4633.47       1.2869795       1.2869795
      4638.10       1.2787022       1.2787022
      4642.74       1.2776313       1.2776313
      4647.38       1.2758035       1.2758035
      4652.03       1.2746197       1.2746197
      4656.68       1.2724556       1.2724556
      4661.34       1.2705873       1.2705873
      4666.00       1.2689437       1.2689437
      4670.67       1.2668980       1.2668980
      4675.33       1.2654827       1.2654827
      4680.01       1.2633918       1.2633918
      4684.69       1.2618212       1.2618212
      4689.38       1.2608072       1.2608072
      4694.07       1.2597429       1.2597429
      4698.76       1.2589105       1.2589105
      4703.46       1.2598031       1.2598031
      4708.16       1.2587532       1.2587532
      4712.87       1.2596139       1.2596139
      4717.58       1.2595295       1.2595295
      4722.30       1.2606917       1.2606917
      4727.03       1.2604062       1.2604062
      4731.75       1.2599848       1.2599848
      4736.48       1.2579737       1.2579737
      4741.22       1.2547165       1.2547165
      4745.96       1.2514104       1.2514104
      4750.71       1.2484253       1.2484253
      4755.46       1.2413050       1.2413050
      4760.22       1.2378960       1.2378960
      4764.97       1.2304781       1.2304781
      4769.74       1.2255124       1.2255124
      4774.51       1.2201104       1.2201104
      4779.29       1.2131081       1.2131081
      4784.07       1.2086003       1.2086003
      4788.85       1.2037243       1.2037243
      4793.64       1.1998076       1.1998076
      4798.43       1.1983794       1.1983794
      4803.23       1.1970442       1.1970442
      4808.03       1.1910807       1.1910807
      4812.84       1.1847746       1.1847746
      4817.66       1.1799555       1.1799555
      4822.48       1.1722861       1.1722861
      4827.30       1.1634876       1.1634876
      4832.12       1.1551989       1.1551989
      4836.96       1.1478153       1.1478153
      4841.79       1.1381945       1.1381945
      4846.63       1.1283500       1.1283500
      4851.48       1.1217123       1.1217123
      4856.33       1.1120553       1.1120553
      4861.19       1.1077927       1.1077927
      4866.05       1.1014420       1.1014420
      4870.92       1.0942955       1.0942955
      4875.79       1.0907363       1.0907363
      4880.66       1.0874722       1.0874722
      4885.55       1.0854647       1.0854647
      4890.43       1.0827741       1.0827741
      4895.32       1.0806778       1.0806778
      4900.22       1.0789100       1.0789100
      4905.12       1.0777902       1.0777902
      4910.02       1.0767804       1.0767804
      4914.94       1.0741012       1.0741012
      4919.85       1.0826768       1.0826768
      4924.77       1.1077051     0.012283782
      4929.70       1.1027569    0.0076096058
      4934.62       1.0918484    0.0066821134
      4939.56       1.0807313    0.0059859785
      4944.50       1.0697995    0.0056466456
      4949.44       1.0613401    0.0053497022
      4954.39       1.0532548    0.0050593838
      4959.35       1.0460671    0.0048943516
      4964.31       1.0396341    0.0046874348
      4969.27       1.0361569    0.0045619288
      4974.24       1.0315669    0.0043977380
      4979.22       1.0288955    0.0042803880
      4984.20       1.0242483    0.0041338679
      4989.18       1.0223758    0.0040180166
      4994.17       1.0184895    0.0038856638
      4999.16       1.0173109    0.0037303619
      5004.16       1.0169401    0.0036015759
      5009.17       1.0146067    0.0034600089
      5014.18       1.0126879    0.0033224726
      5019.19       1.0115082    0.0032045300
      5024.21       1.0112617    0.0030938021
      5029.23       1.0107954    0.0029976128
      5034.26       1.0103814    0.0029063496
      5039.30       1.0160739    0.0059474124
      5044.34       1.0186836    0.0053455507
      5049.39       1.0162267    0.0048782341
      5054.43       1.0125240    0.0047116607
      5059.49       1.0086534    0.0046038557
      5064.55       1.0102526    0.0045555460
      5069.61       1.0091587    0.0045550928
      5074.68       1.0103128    0.0045833213
      5079.76       1.0118589    0.0046208902
      5084.84       1.0116828    0.0046612690
      5089.92       1.0143800    0.0047038993
      5095.01       1.0154549    0.0046704574
      5100.11       1.0146400    0.0047720062
      5105.21       1.0119031    0.0047506371
      5110.31       1.0151381    0.0046806512
      5115.42       1.0127018    0.0045646979
      5120.54       1.0176947    0.0044161948
      5125.66       1.0180894    0.0042510075
      5130.79       1.0145899    0.0039834039
      5135.92       1.0161736    0.0038306852
      5141.05       1.0175971    0.0036837136
      5146.20       1.0191413    0.0035932719
      5151.34       1.0157298    0.0035089324
      5156.49       1.0138251    0.0035038800
      5161.65       1.0111137    0.0035762103
      5166.81       1.0075263    0.0037641328
      5171.98       1.0020817    0.0040145094
      5177.15      0.99288635    0.0042927164
      5182.33      0.98740123    0.0047106995
      5187.51      0.98150948    0.0050088847
      5192.70      0.97649579    0.0053153274
      5197.89      0.96439116    0.0055900560
      5203.09      0.95810031    0.0057970612
      5208.29      0.95369865    0.0059059914
      5213.50      0.94867405    0.0059014046
      5218.72      0.94617663    0.0057935228
      5223.93      0.93954000    0.0056502373
      5229.16      0.93775342    0.0055005117
      5234.39      0.93627138    0.0053458532
      5239.62      0.93046634    0.0051479161
      5244.86      0.92371427    0.0049903860
      5250.11      0.91594254    0.0048449546
      5255.36      0.90745551    0.0047137372
      5260.61      0.89894163    0.0045117076
      5265.87      0.89148170    0.0044642740
      5271.14      0.87981200    0.0043605678
      5276.41      0.87026444    0.0044360224
      5281.69      0.86308730    0.0047795818
      5286.97      0.86012038    0.0041399378
      5292.26      0.85345858    0.0043963755
      5297.55      0.84681837    0.0046950644
      5302.85      0.84201761    0.0049527223
      5308.15      0.83685110    0.0048531995
      5313.46      0.82992641    0.0046894942
      5318.77      0.82093257    0.0045988490
      5324.09      0.81519600    0.0048077964
      5329.42      0.81027216    0.0051063213
      5334.75      0.80875427    0.0048893310
      5340.08      0.80698129    0.0051755371
      5345.42      0.81137808    0.0052308956
      5350.77      0.81259724    0.0052692486
      5356.12      0.81053165    0.0052149921
      5361.48      0.80842170    0.0050138395
      5366.83      0.80761314    0.0048048726
      5372.20      0.80827528    0.0045792487
      5377.58      0.80719379    0.0043851656
      5382.95      0.80630032    0.0040620196
      5388.34      0.80736964    0.0038503207
      5393.72      0.80679263    0.0036648838
      5399.12      0.80712790    0.0034748514
      5404.52      0.80249122    0.0033820287
      5409.92      0.80154420    0.0033271869
      5415.33      0.79680495    0.0032890601
      5420.75      0.79322658    0.0032694700
      5426.17      0.78915835    0.0032527001
      5431.60      0.78431804    0.0031888657
      5437.03      0.77969580    0.0032252628
      5442.47      0.77216118    0.0032147762
      5447.91      0.76701130    0.0031525979
      5453.36      0.75804236    0.0031883325
      5458.81      0.75492733    0.0031776085
      5464.27      0.74852394    0.0031161716
      5469.73      0.74410526    0.0031517013
      5475.20      0.74378802    0.0030908210
      5480.68      0.74069462    0.0030740507
      5486.16      0.73488992    0.0031011649
      5491.65      0.72947755    0.0030194564
      5497.14      0.72878050    0.0029676748
      5502.64      0.72637209    0.0029336356
      5508.14      0.72920127    0.0027788881
      5513.65      0.72905030    0.0026734048
      5519.16      0.73472673    0.0025330828
      5524.68      0.73448324    0.0024269834
      5530.20      0.73337560    0.0023439622
      5535.73      0.72839901    0.0021957773
      5541.27      0.72576365    0.0021152091
      5546.81      0.72268978    0.0020488421
      5552.36      0.71844681    0.0020193231
      5557.91      0.71842736    0.0020102344
      5563.47      0.71713806    0.0020185282
      5569.04      0.71803393    0.0020246883
      5574.60      0.71291517    0.0020437398
      5580.18      0.71006645    0.0020568504
      5585.76      0.70537368    0.0020521185
      5591.35      0.69990142    0.0021155666
      5596.94      0.69648346    0.0021561553
      5602.53      0.69278843    0.0022360268
      5608.14      0.69329731    0.0023027297
      5613.75      0.69265802    0.0023572668
      5619.36      0.69467020    0.0024829356
      5624.98      0.69292283    0.0025378805
      5630.60      0.69269405    0.0026702556
      5636.23      0.68991857    0.0027177637
      5641.87      0.68777340    0.0028401269
      5647.51      0.69138040    0.0028640555
      5653.16      0.69261707    0.0029125715
      5658.82      0.69496872    0.0030021102
      5664.47      0.69909290    0.0030037802
      5670.14      0.70128898    0.0030887875
      5675.81      0.70464676    0.0030835823
      5681.48      0.70277662    0.0031647600
      5687.17      0.69863997    0.0031459529
      5692.85      0.69216446    0.0032067275
      5698.55      0.68642911    0.0031583866
      5704.25      0.67672365    0.0031881686
      5709.95      0.67414363    0.0031196219
      5715.66      0.66936908    0.0030984789
      5721.38      0.66946208    0.0030642249
      5727.10      0.66823456    0.0029904639
      5732.83      0.66603500    0.0030001849
      5738.56      0.66897688    0.0029174512
      5744.30      0.66856513    0.0029129739
      5750.04      0.66875736    0.0028159916
      5755.79      0.66772150    0.0027973912
      5761.55      0.66754133    0.0026936391
      5767.31      0.66611008    0.0026717601
      5773.08      0.66855423    0.0025717052
      5778.85      0.66585728    0.0025502857
      5784.63      0.66220092    0.0024614224
      5790.41      0.66242670    0.0024565359
      5796.21      0.66029236    0.0024249474
      5802.00      0.65722390    0.0023769015
      5807.81      0.65537372    0.0024002229
      5813.61      0.65268453    0.0023616107
      5819.43      0.65374186    0.0023940078
      5825.25      0.65735790    0.0023620911
      5831.07      0.65615712    0.0024104216
      5836.90      0.65420161    0.0024144315
      5842.74      0.65452902    0.0025032189
      5848.58      0.65112620    0.0026785224
      5854.43      0.64687199    0.0030481674
      5860.29      0.64047104    0.0031353640
      5866.15      0.63645145    0.0033843202
      5872.01      0.63584753    0.0039756629
      5877.89      0.63650424    0.0046032847
      5883.76      0.63380430    0.0049760927
      5889.65      0.63309516    0.0046192028
      5895.54      0.63365128    0.0042204912
      5901.43      0.63399986    0.0049012677
      5907.34      0.63416492    0.0042988672
      5913.24      0.63091180    0.0039187807
      5919.16      0.62255466    0.0037298376
      5925.08      0.61495155    0.0037682675
      5931.00      0.60772614    0.0037389776
      5936.93      0.60365664    0.0036352955
      5942.87      0.59991131    0.0036141620
      5948.81      0.59746862    0.0034768764
      5954.76      0.59775571    0.0033642906
      5960.72      0.59801621    0.0033105595
      5966.68      0.59999182    0.0031688265
      5972.64      0.59728203    0.0030607774
      5978.62      0.59424705    0.0030174551
      5984.60      0.59246343    0.0029142450
      5990.58      0.59266695    0.0028647878
      5996.57      0.59210488    0.0028780509
      6002.57      0.59170122    0.0028241118
      6008.57      0.59200469    0.0028116619
      6014.58      0.59306416    0.0028396078
      6020.60      0.59316548    0.0027939064
      6026.62      0.59202277    0.0027848238
      6032.65      0.59155967    0.0028142969
      6038.68      0.58996402    0.0027682982
      6044.72      0.59003099    0.0027577816
      6050.76      0.58716218    0.0027478178
      6056.81      0.58606169    0.0027386612
      6062.87      0.58560948    0.0027240148
      6068.93      0.58167637    0.0027078418
      6075.00      0.57560098    0.0026483369
      6081.08      0.57049166    0.0026496040
      6087.16      0.56537601    0.0025886964
      6093.25      0.55907656    0.0024829431
      6099.34      0.55240078    0.0023948913
      6105.44      0.54612066    0.0023465739
      6111.54      0.54074683    0.0022557151
      6117.66      0.53609031    0.0021461346
      6123.78      0.53264973    0.0020695150
      6129.90      0.52972231    0.0020428075
      6136.03      0.52873674    0.0020995888
      6142.17      0.52811853    0.0019845093
      6148.31      0.52709663    0.0020102517
      6154.46      0.52621132    0.0021713801
      6160.61      0.52331285    0.0023162288
      6166.77      0.52128210    0.0024058038
      6172.94      0.51769704    0.0025289765
      6179.11      0.51870241    0.0028181039
      6185.29      0.51719009    0.0034733699
      6191.48      0.51749451    0.0040353269
      6197.67      0.51869284    0.0049426777
      6203.87      0.52008442    0.0056672447
      6210.07      0.52394115    0.0070298260
      6216.28      0.52482426    0.0081892664
      6222.50      0.52397715    0.0095454696
      6228.72      0.52976634     0.010373912
      6234.95      0.54816885     0.010454682
      6241.19      0.55067478    0.0098808873
      6247.42      0.55383765    0.0089526987
      6253.67      0.56082268    0.0082711523
      6259.93      0.56932006    0.0073663497
      6266.19      0.57605831    0.0065561591
      6272.46      0.57654496    0.0059619062
      6278.73      0.58084911    0.0055872231
      6285.01      0.58951190    0.0054380894
      6291.29      0.59606670    0.0054606898
      6297.58      0.59871275    0.0056274676
      6303.88      0.59709999    0.0057437884
      6310.19      0.59228049    0.0058848170
      6316.50      0.58594939    0.0059327860
      6322.81      0.57538197    0.0060352248
      6329.14      0.56198728    0.0060721872
      6335.47      0.55359898    0.0060400146
      6341.80      0.55356841    0.0059549485
      6348.14      0.55714370    0.0058370012
      6354.49      0.56108585    0.0057982575
      6360.85      0.56225669    0.0055922082
      6367.21      0.56593368    0.0054013258
      6373.57      0.56139471    0.0051385487
      6379.95      0.56246155    0.0047924920
      6386.33      0.55517774    0.0043781314
      6392.72      0.54903000    0.0039223730
      6399.11      0.54475159    0.0035064029
      6405.51      0.54234904    0.0031098458
      6411.92      0.54363268    0.0027569161
      6418.32      0.54649905    0.0024917828
      6424.74      0.55212877    0.0023548531
      6431.17      0.55614188    0.0023380832
      6437.60      0.56195564    0.0024167417
      6444.04      0.56455038    0.0025497520
      6450.48      0.56600704    0.0026962478
      6456.94      0.56364287    0.0028538011
      6463.39      0.55767598    0.0030640413
      6469.85      0.55058298    0.0032664731
      6476.33      0.54025461    0.0034792421
      6482.80      0.53199982    0.0037048767
      6489.28      0.52213532    0.0039419928
      6495.77      0.51917637    0.0041870523
      6502.27      0.52300468    0.0044346492
      6508.77      0.53180263    0.0046877103
      6515.28      0.53877191    0.0049526773
      6521.80      0.54638599    0.0051321291
      6528.32      0.55033652    0.0054814705
      6534.85      0.55010948    0.0060969073
      6541.38      0.54081964    0.0071669517
      6547.92      0.52941717    0.0073432271
      6554.47      0.52756510    0.0079687259
      6561.03      0.53422125    0.0093827799
      6567.59      0.56014718     0.010492788
      6574.16      0.56786517    0.0097183816
      6580.73      0.56296674    0.0079746627
      6587.31      0.55053892    0.0064637098
      6593.90      0.54768328    0.0062296422
      6600.50      0.54148220    0.0047154343
      6607.10      0.53942190    0.0038872086
      6613.70      0.53908321    0.0034065468
      6620.32      0.53802205    0.0030515771
      6626.94      0.53780789    0.0028763539
      6633.57      0.53787342    0.0028006979
      6640.20      0.53754961    0.0027858425
      6646.84      0.53412883    0.0027815701
      6653.49      0.53090121    0.0027916294
      6660.14      0.53034249    0.0028785565
      6666.80      0.53014180    0.0031378437
      6673.47      0.52885361    0.0036287375
      6680.14      0.52635609    0.0043856633
      6686.82      0.52272519    0.0052944820
      6693.51      0.52360964    0.0065878246
      6700.20      0.52781620    0.0079494793
      6706.90      0.52946583     0.010158974
      6713.61      0.52377495     0.011611107
      6720.32      0.53343889     0.012619982
      6727.05      0.52493959     0.011782549
      6733.77      0.50251314    0.0084020634
      6740.51      0.50406575    0.0063271089
      6747.25      0.49981944    0.0056020545
      6754.00      0.49346307    0.0037248491
      6760.75      0.48351924    0.0031076266
      6767.51      0.47697887    0.0026587102
      6774.28      0.46872643    0.0025397957
      6781.05      0.46271273    0.0025255785
      6787.84      0.45737636    0.0023993427
      6794.62      0.45355208    0.0021526480
      6801.42      0.45384175    0.0020339212
      6808.22      0.45507088    0.0026743888
      6815.03      0.45672187    0.0059618074
      6821.85      0.45805544    0.0069917328
      6828.67      0.46173581    0.0095094788
      6835.50      0.46147242     0.011399426
      6842.33      0.46466410     0.014568894
      6849.17      0.46907235     0.020728573
      6856.02      0.46563739     0.023633274
      6862.88      0.46846158     0.031739633
      6869.74      0.46280163     0.046835687
      6876.61      0.45893954     0.053468948
      6883.49      0.44315552     0.045089886
      6890.37      0.42949244     0.043911861
      6897.27      0.42373381     0.069436844
      6904.16      0.42888140     0.040889319
      6911.07      0.43209330     0.030815808
      6917.98      0.43324158     0.025736297
      6924.89      0.43552945     0.022925490
      6931.82      0.44044389     0.019748709
      6938.75      0.43580338     0.016473964
      6945.69      0.43548979     0.014102087
      6952.64      0.43939064     0.012068893
      6959.59      0.43056532     0.010088957
      6966.55      0.42775427    0.0087114912
      6973.52      0.42808213    0.0074411298
      6980.49      0.42778132    0.0062334942
      6987.47      0.42634405    0.0053718644
      6994.46      0.42472012    0.0045960218
      7001.46      0.42354605    0.0038851634
      7008.46      0.42188085    0.0035973113
      7015.46      0.42207107    0.0036076644
      7022.48      0.42142408    0.0039079483
      7029.51      0.42353075    0.0041978677
      7036.53      0.42556149    0.0047863971
      7043.57      0.42715222    0.0054895406
      7050.62      0.43253254    0.0064982870
      7057.66      0.43213697    0.0070389696
      7064.72      0.43360970    0.0069485431
      7071.79      0.43429395    0.0064711594
      7078.86      0.43238285    0.0060723301
      7085.94      0.42916397    0.0062324962
      7093.03      0.42954333    0.0056488210
      7100.12      0.42881701    0.0054604450
      7107.22      0.42402792    0.0052197840
      7114.33      0.43514351    0.0050857901
      7121.44      0.44659156    0.0050199064
      7128.56      0.45595893    0.0048460550
      7135.69      0.46059413    0.0047419383
      7142.83      0.46083157    0.0046692595
      7149.97      0.46105865    0.0044479789
      7157.12      0.46469971    0.0042582246
      7164.28      0.46025068    0.0039711076
      7171.44      0.45178388    0.0037168732
      7178.62      0.45414346    0.0034248409
      7185.80      0.45652180    0.0031914733
      7192.98      0.45743151    0.0029992663
      7200.17      0.45619411    0.0028644334
      7207.38      0.45563707    0.0028507496
      7214.58      0.45617742    0.0029083701
      7221.80      0.45889664    0.0031214437
      7229.02      0.45837448    0.0033241712
      7236.25      0.45448278    0.0035522602
      7243.49      0.45620449    0.0038993237
      7250.73      0.45592212    0.0043372037
      7257.98      0.45585690    0.0049050169
      7265.24      0.45539230    0.0052547773
      7272.51      0.45417230    0.0054913744
      7279.78      0.45369892    0.0054469986
      7287.06      0.45590770    0.0055583823
      7294.35      0.45239063    0.0060069835
      7301.64      0.44373201    0.0057064950
      7308.94      0.43282006    0.0054450861
      7316.25      0.42175392    0.0056567260
      7323.57      0.40792047    0.0048164601
      7330.89      0.39917906    0.0046971596
      7338.22      0.39348123    0.0046018135
      7345.56      0.38849742    0.0045448362
      7352.91      0.38244257    0.0043674534
      7360.26      0.37474443    0.0041939366
      7367.62      0.36882814    0.0040936681
      7374.99      0.36415215    0.0040607996
      7382.37      0.35670576    0.0046124054
      7389.75      0.36008453    0.0043574081
      7397.14      0.37119117    0.0043232417
      7404.53      0.37321661    0.0041421788
      7411.94      0.36598272    0.0039464201
      7419.35      0.35881948    0.0035972392
      7426.77      0.35138593    0.0033311824
      7434.20      0.34566798    0.0029999183
      7441.63      0.34067530    0.0028144974
      7449.07      0.33488916    0.0026592152
      7456.52      0.33051618    0.0026501207
      7463.98      0.32769667    0.0026730911
      7471.45      0.32539811    0.0027750008
      7478.92      0.31783924    0.0028636603
      7486.40      0.31651483    0.0029782163
      7493.88      0.31402167    0.0031255632
      7501.38      0.31438735    0.0031810656
      7508.88      0.31369911    0.0032635228
      7516.39      0.31071236    0.0033211697
      7523.91      0.30622428    0.0033921101
      7531.43      0.30604672    0.0034387380
      7538.96      0.30880132    0.0036795911
      7546.50      0.31295146    0.0038600648
      7554.05      0.31800869    0.0041598087
      7561.60      0.32209597    0.0047988413
      7569.16      0.32398886    0.0055107887
      7576.73      0.32079087    0.0066103411
      7584.31      0.32120588    0.0071383479
      7591.89      0.33207619    0.0069947664
      7599.49      0.34201703    0.0066111650
      7607.09      0.34465229    0.0062543632
      7614.70      0.34882898    0.0057565128
      7622.31      0.35291571    0.0052419813
      7629.93      0.35542410    0.0046943724
      7637.56      0.35684497    0.0041838492
      7645.20      0.36112299    0.0037211537
      7652.85      0.36906239    0.0033769697
      7660.50      0.37618170    0.0029960795
      7668.16      0.37969181    0.0026524882
      7675.83      0.38240415    0.0023996006
      7683.50      0.38608062    0.0021466338
      7691.19      0.39085865    0.0019903494
      7698.88      0.39248250    0.0019184266
      7706.58      0.39436659    0.0019403690
      7714.29      0.39533856    0.0019939876
      7722.00      0.39693370    0.0020619099
      7729.73      0.40021502    0.0021009646
      7737.45      0.40315481    0.0021961148
      7745.19      0.40863249    0.0022677931
      7752.94      0.41324937    0.0022965712
      7760.69      0.41853525    0.0023496804
      7768.45      0.41996953    0.0024192350
      7776.22      0.42071810    0.0024677312
      7784.00      0.42283588    0.0024852627
      7791.78      0.42303507    0.0025385993
      7799.57      0.42320629    0.0025969105
      7807.37      0.42520071    0.0026747376
      7815.18      0.42571752    0.0026965091
      7822.99      0.42768104    0.0027415360
      7830.82      0.42618246    0.0027496288
      7838.65      0.42252144    0.0026988220
      7846.49      0.41995458    0.0026090182
      7854.34      0.41949929    0.0024741511
      7862.19      0.41480559    0.0023281953
      7870.05      0.41044451    0.0021895476
      7877.93      0.41053687    0.0021047545
      7885.80      0.40611569    0.0020835392
      7893.69      0.40426131    0.0021825166
      7901.58      0.40330671    0.0023726544
      7909.49      0.40186413    0.0026387098
      7917.40      0.39937634    0.0029321171
      7925.31      0.39613478    0.0031489376
      7933.24      0.38728768    0.0034386467
      7941.17      0.38470381    0.0036646656
      7949.11      0.38633406    0.0038171016
      7957.06      0.38065480    0.0040189235
      7965.02      0.38315442    0.0041465333
      7972.98      0.38848185    0.0041026054
      7980.96      0.38748438    0.0043613746
      7988.94      0.38292772    0.0046990810
      7996.93      0.38238236    0.0049907025
      8004.93      0.37854772    0.0050622861
      8012.93      0.38329140    0.0049327096
      8020.95      0.38983107    0.0047544474
      8028.97      0.38998349    0.0047584838
      8036.99      0.39093440    0.0048736404
      8045.03      0.38615126    0.0045987452
      8053.08      0.37535033    0.0045170455
      8061.13      0.36035317    0.0044724759
      8069.20      0.35317636    0.0043579098
      8077.26      0.34469137    0.0045039994
      8085.34      0.33469431    0.0041159559
      8093.43      0.32450001    0.0040871872
      8101.52      0.31081948    0.0041564829
      8109.62      0.29509513    0.0041392226
      8117.73      0.28598981    0.0039140417
      8125.85      0.27740824    0.0035999514
      8133.98      0.27646792    0.0032932746
      8142.11      0.28735694    0.0031139314
      8150.25      0.29335305    0.0031788878
      8158.41      0.29800892    0.0031047869
      8166.56      0.29718900    0.0030310600
      8174.73      0.29604862    0.0030370989
      8182.91      0.29090682    0.0030649965
      8191.09      0.28869413    0.0031133319
      8199.28      0.28101829    0.0031785079
      8207.48      0.28152337    0.0032294759
      8215.69      0.28878022    0.0033088099
      8223.91      0.28771559    0.0033982226
      8232.13      0.29137588    0.0034995712
      8240.36      0.28768363    0.0036087841
      8248.60      0.28647478    0.0037203292
      8256.85      0.27950259    0.0038273293
      8265.11      0.27609876    0.0038934936
      8273.37      0.26971651    0.0038759176
      8281.65      0.27041685    0.0037464135
      8289.93      0.27860895    0.0035430081
      8298.22      0.27875923    0.0033253392
      8306.52      0.28608301    0.0030806077
      8314.83      0.28979763    0.0028739990
      8323.14      0.29240547    0.0028361018
      8331.46      0.29157779    0.0029770561
      8339.80      0.29139483    0.0033049353
      8348.13      0.28911848    0.0037910838
      8356.48      0.28617907    0.0043645789
      8364.84      0.28634365    0.0049398280
      8373.21      0.27555715    0.0055675703
      8381.58      0.26782475    0.0060850185
      8389.96      0.25380326    0.0064972477
      8398.35      0.23186245    0.0069226284
      8406.75      0.20964394    0.0071984008
      8415.16      0.19391654    0.0074869242
      8423.57      0.17973833    0.0077945416
      8432.00      0.16645112    0.0081135017
      8440.43      0.15226199    0.0085027175
      8448.87      0.14545440    0.0089096492
      8457.32      0.15487722    0.0092200167
      8465.78      0.16242240    0.0097717393
      8474.25      0.18975620    0.0087474928
      8482.72      0.20269411    0.0083774851
      8491.20      0.20954949    0.0088336428
      8499.69      0.19701969    0.0071151762
      8508.19      0.19338905    0.0063686986
      8516.70      0.18646386    0.0052567493
      8525.22      0.18594494    0.0048907535
      8533.75      0.18188283    0.0046368800
      8542.28      0.18547310    0.0045556189
      8550.82      0.18608501    0.0043154487
      8559.37      0.19185002    0.0041823440
      8567.93      0.19130481    0.0044915405
      8576.50      0.19308605    0.0041617282
      8585.08      0.19869619    0.0040942936
      8593.66      0.19928726    0.0039889356
      8602.26      0.20600357    0.0038914659
      8610.86      0.20183479    0.0037153050
      8619.47      0.20494402    0.0035824666
      8628.09      0.20621336    0.0034505145
      8636.72      0.21085492    0.0033028673
      8645.36      0.20957546    0.0031823893
      8654.00      0.21038115    0.0030793071
      8662.66      0.20953034    0.0030001707
      8671.32      0.21366525    0.0029803748
      8679.99      0.21665712    0.0030077841
      8688.67      0.21682089    0.0030524775
      8697.36      0.22284045    0.0031758033
      8706.06      0.22975904    0.0032877589
      8714.76      0.23424901    0.0034388309
      8723.48      0.24114392    0.0037229298
      8732.21      0.24657947    0.0040185583
      8740.93      0.24857148    0.0043609117
      8749.68      0.26437151    0.0047752118
      8758.43      0.27215825    0.0050310553
      8767.19      0.27713725    0.0051001964
      8775.96      0.28120548    0.0051180789
      8784.73      0.27395922    0.0048996438
      8793.52      0.26620283    0.0047069363
      8802.31      0.26751549    0.0046172646
      8811.11      0.25248670    0.0046303209
      8819.92      0.24350026    0.0049612408
      8828.75      0.24343853    0.0052555571
      8837.57      0.24010658    0.0059700026
      8846.41      0.23751551    0.0068506744
      8855.26      0.23910956    0.0079702122
      8864.12      0.23639019    0.0087120438
      8872.98      0.25370026    0.0090165727
      8881.85      0.26257430    0.0088511345
      8890.73      0.24232766    0.0086864466
      8899.63      0.23286088    0.0097358442
      8908.52      0.22627715    0.0094521447
      8917.43      0.22174415     0.010352886
      8926.35      0.23647551     0.011395863
      8935.28      0.24556980     0.013024816
      8944.22      0.27794959     0.014308436
      8953.16      0.33508126     0.015203030
      8962.11      0.36682903     0.015287016
      8971.08      0.31720115     0.014271485
      8980.05      0.30254883     0.012130369
      8989.03      0.28669635     0.011712316
      8998.02      0.26159689     0.012046733
      9007.02      0.25604691     0.013107766
      9016.02      0.25287804     0.016360718
      9025.04      0.26950815     0.027468785
