# starting wavelength =        3005.4645
# ending wavelength =        9271.4026
# O2 telluric scale =        0
# O2 telluric shift =        0
# H2O telluric scale =        0
# H2O telluric shift =        0
      3005.67       1.0677014      0.11218914
      3008.68       1.0773186     0.096707408
      3011.69       1.0852764     0.073094957
      3014.70       1.0964028     0.069474325
      3017.71       1.1131273     0.061154255
      3020.73       1.1223329     0.050003368
      3023.75       1.1231757     0.048406707
      3026.78       1.1307396     0.044251831
      3029.80       1.1478311     0.039032395
      3032.83       1.1497443     0.037995034
      3035.87       1.1578727     0.036082990
      3038.90       1.1689450     0.033482089
      3041.94       1.1771666     0.032674453
      3044.98       1.1860896     0.031753813
      3048.03       1.2128206     0.030256846
      3051.08       1.2202152     0.029956130
      3054.13       1.2057605     0.029076936
      3057.18       1.2224834     0.028074777
      3060.24       1.2292167     0.028022540
      3063.30       1.2415758     0.027169229
      3066.36       1.2516205     0.026702383
      3069.43       1.2546638     0.027004089
      3072.50       1.2603737     0.026169094
      3075.57       1.2608949     0.025699026
      3078.65       1.2633947     0.025984921
      3081.73       1.2713423     0.026250277
      3084.81       1.2744678     0.026264527
      3087.89       1.2806043     0.026795086
      3090.98       1.2742583     0.027010677
      3094.07       1.2751339     0.027254046
      3097.17       1.2826401     0.028255648
      3100.26       1.2773438     0.028394303
      3103.36       1.2690476     0.023994380
      3106.47       1.2659618     0.024067025
      3109.58       1.2682448     0.023577866
      3112.68       1.2694229     0.023610631
      3115.80       1.2706626     0.024137345
      3118.91       1.2758754     0.024272702
      3122.03       1.2709228     0.024494869
      3125.15       1.2717023     0.024996829
      3128.28       1.2684225     0.025078431
      3131.41       1.2567475     0.025022352
      3134.54       1.2562013     0.025488156
      3137.67       1.2636639     0.025095857
      3140.81       1.2754767     0.024445924
      3143.95       1.2712492     0.025242619
      3147.10       1.2838058     0.023184879
      3150.24       1.2873088     0.022149716
      3153.39       1.2887175     0.022055650
      3156.55       1.2794151     0.020527607
      3159.70       1.2774062     0.019541943
      3162.86       1.2735393     0.019258932
      3166.03       1.2697161     0.018274369
      3169.19       1.2674013     0.017287284
      3172.36       1.2678240     0.016923723
      3175.54       1.2653274     0.016259642
      3178.71       1.2657746     0.015883638
      3181.89       1.2653282     0.015290220
      3185.07       1.2618556     0.015243187
      3188.26       1.2584607     0.016631900
      3191.45       1.2562477     0.015926706
      3194.64       1.2558974     0.015578729
      3197.83       1.2656788     0.014718199
      3201.03       1.2646721     0.014465873
      3204.23       1.2645037     0.014173295
      3207.44       1.2577096     0.013753234
      3210.64       1.2574388     0.013714025
      3213.85       1.2566318     0.013453127
      3217.07       1.2617411     0.013505498
      3220.28       1.2651980     0.013770095
      3223.51       1.2674379     0.013892660
      3226.73       1.2661065     0.013734424
      3229.96       1.2613639     0.014075957
      3233.19       1.2692312     0.014286391
      3236.42       1.2679741     0.014540055
      3239.66       1.2673893     0.014548818
      3242.90       1.2713125     0.014798211
      3246.14       1.2716407     0.015067377
      3249.39       1.2703389     0.015350452
      3252.64       1.2689767     0.015341216
      3255.89       1.2647312     0.015607781
      3259.14       1.2570226     0.015911868
      3262.40       1.2537624     0.016447673
      3265.67       1.2485631     0.016224026
      3268.93       1.2398555     0.016541695
      3272.20       1.2368729     0.017079645
      3275.47       1.2301809     0.017438970
      3278.75       1.2279129     0.017174625
      3282.03       1.2242032     0.017714810
      3285.31       1.2189614     0.018064266
      3288.60       1.2161263     0.017811775
      3291.88       1.2150795     0.018126866
      3295.18       1.2146028     0.018693437
      3298.47       1.2114523     0.019048268
      3301.77       1.2048442     0.018747969
      3305.07       1.1899316     0.019318830
      3308.38       1.1817710     0.019657255
      3311.69       1.1897220     0.020011301
      3315.00       1.1978269     0.020620350
      3318.31       1.1985258     0.020261280
      3321.63       1.1926088     0.020582394
      3324.95       1.1946315     0.020898669
      3328.28       1.2003777     0.021500691
      3331.61       1.2134566     0.021074707
      3334.94       1.2078346     0.021308367
      3338.27       1.2197906     0.021930317
      3341.61       1.2219617     0.022075192
      3344.95       1.2368992     0.021545435
      3348.30       1.2431414     0.022167162
      3351.65       1.2632142     0.022187155
      3355.00       1.2641505     0.022170916
      3358.35       1.2642384     0.021562713
      3361.71       1.2668654     0.022100581
      3365.07       1.2604735     0.021986914
      3368.44       1.2570794     0.021863401
      3371.81       1.2557990     0.021878207
      3375.18       1.2525026     0.021706722
      3378.56       1.2407500     0.021544429
      3381.94       1.2265871     0.021397118
      3385.32       1.2192194     0.021836255
      3388.70       1.2166771     0.021224581
      3392.09       1.2107555     0.021053437
      3395.48       1.2039863     0.021453814
      3398.88       1.1932657     0.021310592
      3402.28       1.1974334     0.020705086
      3405.68       1.1970769     0.020529377
      3409.09       1.1953298     0.020918548
      3412.49       1.1983461     0.020774856
      3415.91       1.2126906     0.020649245
      3419.32       1.2194828     0.020544158
      3422.74       1.2317596     0.020382074
      3426.17       1.2356138     0.020236942
      3429.59       1.2493044     0.020108993
      3433.02       1.2624321     0.020007734
      3436.45       1.2975132     0.019844336
      3439.89       1.3208485     0.019699446
      3443.33       1.3346296     0.020133160
      3446.78       1.3559638     0.019953491
      3450.22       1.3668655     0.019318423
      3453.67       1.3827032     0.019175451
      3457.13       1.3979715     0.019605247
      3460.58       1.4066427     0.019429425
      3464.04       1.4224618     0.019278747
      3467.51       1.4280383     0.018690326
      3470.98       1.4420252     0.019122457
      3474.45       1.4580785     0.018979539
      3477.92       1.4653972     0.018870874
      3481.40       1.4677981     0.019300134
      3484.88       1.4725503     0.018774567
      3488.37       1.4873454     0.018683445
      3491.86       1.4911166     0.018625125
      3495.35       1.4969775     0.019077337
      3498.84       1.5142146     0.019078129
      3502.34       1.5238590     0.018535351
      3505.84       1.5279063     0.018504660
      3509.35       1.5346588     0.018962473
      3512.86       1.5483247     0.018968897
      3516.37       1.5679691     0.018994083
      3519.89       1.5806495     0.018423688
      3523.41       1.5940076     0.018872459
      3526.93       1.6058372     0.018878924
      3530.46       1.6032135     0.018902688
      3533.99       1.6197852     0.018944556
      3537.53       1.6291731     0.018801921
      3541.06       1.6394156     0.018800351
      3544.60       1.6526528     0.018815347
      3548.15       1.6570425     0.018847374
      3551.70       1.6633221     0.019333047
      3555.25       1.6596053     0.018724413
      3558.80       1.6564809     0.018730114
      3562.36       1.6564367     0.019304319
      3565.92       1.6648319     0.019267921
      3569.49       1.6622759     0.019248391
      3573.06       1.6529158     0.019245533
      3576.64       1.6509532     0.019255883
      3580.21       1.6301876     0.019209243
      3583.79       1.6237415     0.019179514
      3587.38       1.6129415     0.019166325
      3590.96       1.6077406     0.019705409
      3594.55       1.6137755     0.019160787
      3598.15       1.6191354     0.019120638
      3601.75       1.6110713     0.019097121
      3605.35       1.6092933     0.019617999
      3608.96       1.6323939     0.019633958
      3612.56       1.6531513     0.019672680
      3616.18       1.6696209     0.019050739
      3619.79       1.6897288     0.019039464
      3623.41       1.7020230     0.019567932
      3627.04       1.7083165     0.019598202
      3630.66       1.7225196     0.019650130
      3634.29       1.7157662     0.019724249
      3637.93       1.7174749     0.019540148
      3641.57       1.7017702     0.019557967
      3645.21       1.6853159     0.019593345
      3648.86       1.6782770     0.019648553
      3652.50       1.6800510     0.019723418
      3656.16       1.6750912     0.019538850
      3659.81       1.6656404     0.019557293
      3663.47       1.6639020     0.019593027
      3667.14       1.6598043     0.019646408
      3670.80       1.6455938     0.019718449
      3674.48       1.6339015     0.019540838
      3678.15       1.6279503     0.019556833
      3681.83       1.6197002     0.019589318
      3685.51       1.6180119     0.020298708
      3689.20       1.6129245     0.020893221
      3692.88       1.6027260     0.021185845
      3696.58       1.5825523     0.023138355
      3700.27       1.5630645     0.023957626
      3703.98       1.5343369     0.028454734
      3707.68       1.5273018     0.022648212
      3711.39       1.5215759     0.022447566
      3715.10       1.5208663     0.026420914
      3718.81       1.5244850     0.027935015
      3722.53       1.5485626     0.029699441
      3726.26       1.5509316     0.031030316
      3729.98       1.5573013     0.030753717
      3733.71       1.5776985     0.030448739
      3737.45       1.5946625     0.028905661
      3741.18       1.6104581     0.026992103
      3744.93       1.6103861     0.025326217
      3748.67       1.6071338     0.023784216
      3752.42       1.6094541     0.023229361
      3756.17       1.6135856     0.029405932
      3759.93       1.6181321     0.025409069
      3763.69       1.6375492     0.022086136
      3767.45       1.6483909     0.021162311
      3771.22       1.6469398     0.019704849
      3774.99       1.6538804     0.018946169
      3778.77       1.6525449     0.018155414
      3782.54       1.6553274     0.018577435
      3786.33       1.6638322     0.018425892
      3790.11       1.6740717     0.017810547
      3793.90       1.6850960     0.017618888
      3797.70       1.6852186     0.017433778
      3801.50       1.6964532     0.017255673
      3805.30       1.7068414     0.017650180
      3809.10       1.7182438     0.017488606
      3812.91       1.7174893     0.016897734
      3816.73       1.7247027     0.016701800
      3820.54       1.7304741     0.016514254
      3824.36       1.7450741     0.016334723
      3828.19       1.7597158     0.016162850
      3832.02       1.7734589     0.016535683
      3835.85       1.7747621     0.015981014
      3839.68       1.7715961     0.015784144
      3843.52       1.7811276     0.015594842
      3847.37       1.7949265     0.015412678
      3851.22       1.7943188     0.015237306
      3855.07       1.7955784     0.015074280
      3858.92       1.7973216     0.015073322
      3862.78       1.7970099     0.014886109
      3866.64       1.7938537     0.014706558
      3870.51       1.7927577     0.014537359
      3874.38       1.7849509     0.014385348
      3878.26       1.7824075     0.014258795
      3882.13       1.7792570     0.013774419
      3886.02       1.7736195     0.014151279
      3889.90       1.7779943     0.014060041
      3893.79       1.7837407     0.014009477
      3897.69       1.7905170     0.013999064
      3901.59       1.7905344     0.014025395
      3905.49       1.7928370     0.014082595
      3909.39       1.7984296     0.013701035
      3913.30       1.8073393     0.014147112
      3917.22       1.8261722     0.014210015
      3921.13       1.8416186     0.014281860
      3925.06       1.8554621     0.014359659
      3928.98       1.8578529     0.014447794
      3932.91       1.8613480     0.014546034
      3936.84       1.8709746     0.014143496
      3940.78       1.8806995     0.014248087
      3944.72       1.8860910     0.014717115
      3948.67       1.8855276     0.014798479
      3952.61       1.8931225     0.014884687
      3956.57       1.8894616     0.014975721
      3960.52       1.8870696     0.015071584
      3964.48       1.8822589     0.014650196
      3968.45       1.8796622     0.014751836
      3972.42       1.8706531     0.014858268
      3976.39       1.8602613     0.015333261
      3980.37       1.8436179     0.015416201
      3984.35       1.8375464     0.015503679
      3988.33       1.8258831     0.015595681
      3992.32       1.8288578     0.015152365
      3996.31       1.8372297     0.015245875
      4000.31       1.8405731     0.015342773
      4004.31       1.8391674     0.015441060
      4008.31       1.8523347     0.015536419
      4012.32       1.8662516     0.015995398
      4016.33       1.8776440     0.016052579
      4020.35       1.8910730     0.016094722
      4024.37       1.8889911     0.015592252
      4028.40       1.8986810     0.015601582
      4032.42       1.9032918     0.015590401
      4036.46       1.9046125     0.015560163
      4040.50       1.8951221     0.015514163
      4044.54       1.8868317     0.015457003
      4048.58       1.8797794     0.015836693
      4052.63       1.8604829     0.015738186
      4056.68       1.8578779     0.015187690
      4060.74       1.8528859     0.015097656
      4064.80       1.8384773     0.015009876
      4068.86       1.8375446     0.014921092
      4072.93       1.8323264     0.014831819
      4077.01       1.8226038     0.014745214
      4081.08       1.8231387     0.014661321
      4085.17       1.8207070     0.014579980
      4089.25       1.8138218     0.014897303
      4093.34       1.8061068     0.014375806
      4097.43       1.7941754     0.014276080
      4101.53       1.7899443     0.014178640
      4105.63       1.7911197     0.014083455
      4109.74       1.7847684     0.013990441
      4113.85       1.7868049     0.013899606
      4117.96       1.7816992     0.013810759
      4122.08       1.7816856     0.013723912
      4126.20       1.7771487     0.013642663
      4130.33       1.7845720     0.013183953
      4134.46       1.7922244     0.013092818
      4138.59       1.7929459     0.013359616
      4142.73       1.8022742     0.013270665
      4146.88       1.8065025     0.013192021
      4151.02       1.8049122     0.013129775
      4155.18       1.8029574     0.013089696
      4159.33       1.8005552     0.013076358
      4163.49       1.7980620     0.013092268
      4167.65       1.7876938     0.013138038
      4171.82       1.7777153     0.012783648
      4175.99       1.7660712     0.012843730
      4180.17       1.7562936     0.012926020
      4184.35       1.7350415     0.013025820
      4188.54       1.7169881     0.013137708
      4192.72       1.7085352     0.013527193
      4196.92       1.6905297     0.013650219
      4201.11       1.6729604     0.013775658
      4205.31       1.6567361     0.013909046
      4209.52       1.6537427     0.014049556
      4213.73       1.6452581     0.014191690
      4217.94       1.6379658     0.013863509
      4222.16       1.6367174     0.013986416
      4226.38       1.6270639     0.014110424
      4230.61       1.6228573     0.014235508
      4234.84       1.6222664     0.014361664
      4239.08       1.6110766     0.014488889
      4243.32       1.6108609     0.014617146
      4247.56       1.6125106     0.014746438
      4251.81       1.6103241     0.014876783
      4256.06       1.6089583     0.015317208
      4260.32       1.5998793     0.015454410
      4264.58       1.5994885     0.015592941
      4268.84       1.5953198     0.015732787
      4273.11       1.5981818     0.015390491
      4277.38       1.6067927     0.015513571
      4281.66       1.6115126     0.015638742
      4285.94       1.6136346     0.015766519
      4290.23       1.6245089     0.015897460
      4294.52       1.6295025     0.016031873
      4298.81       1.6317612     0.016169953
      4303.11       1.6386813     0.016311678
      4307.42       1.6426544     0.016456790
      4311.72       1.6393681     0.016604852
      4316.04       1.6292254     0.016755276
      4320.35       1.6180070     0.016907433
      4324.67       1.6225677     0.017060681
      4329.00       1.6227169     0.017214645
      4333.33       1.6175387     0.017369423
      4337.66       1.6181983     0.017525616
      4342.00       1.6259301     0.017111596
      4346.34       1.6304694     0.017264446
      4350.69       1.6278237     0.017822963
      4355.04       1.6473799     0.017969144
      4359.39       1.6654628     0.018115935
      4363.75       1.6826715     0.018263600
      4368.12       1.6910330     0.018411031
      4372.48       1.7147049     0.018559335
      4376.86       1.7228566     0.018708105
      4381.23       1.7362258     0.018857295
      4385.61       1.7531891     0.019006919
      4390.00       1.7606323     0.019156946
      4394.39       1.7564873     0.019307340
      4398.79       1.7677894     0.019453762
      4403.18       1.7702900     0.019595424
      4407.59       1.7777205     0.019736401
      4412.00       1.7743539     0.019875038
      4416.41       1.7886979     0.020005568
      4420.82       1.8014602     0.020119841
      4425.25       1.8192353     0.020209072
      4429.67       1.8287520     0.020265188
      4434.10       1.8419540     0.019688989
      4438.54       1.8526627     0.019679908
      4442.97       1.8629258     0.019631280
      4447.42       1.8645745     0.019545188
      4451.86       1.8642031     0.019426263
      4456.32       1.8704676     0.019280878
      4460.77       1.8596575     0.019116605
      4465.24       1.8560534     0.018940927
      4469.70       1.8499031     0.018760089
      4474.17       1.8393154     0.018577778
      4478.65       1.8285428     0.018394044
      4483.12       1.8222276     0.018204029
      4487.61       1.8080726     0.018009114
      4492.09       1.8032812     0.017814000
      4496.59       1.7940736     0.017618753
      4501.08       1.7917364     0.017423436
      4505.58       1.7907815     0.017227917
      4510.09       1.7963534     0.017032230
      4514.60       1.8026899     0.016836393
      4519.12       1.8089386     0.016640402
      4523.63       1.8119482     0.016444319
      4528.16       1.8138192     0.016248005
      4532.69       1.8155721     0.016054963
      4537.22       1.8180053     0.015865723
      4541.76       1.8191407     0.015676905
      4546.30       1.8134866     0.015489625
      4550.85       1.8027868     0.015307397
      4555.40       1.7944463     0.015134731
      4559.95       1.7765043     0.014976269
      4564.51       1.7578522     0.014835709
      4569.08       1.7430839     0.014715902
      4573.65       1.7231360     0.014618303
      4578.22       1.7009088     0.014542765
      4582.80       1.6786905     0.014487961
      4587.38       1.6600151     0.014451372
      4591.97       1.6488739     0.014429349
      4596.56       1.6437784     0.014417818
      4601.16       1.6366320     0.014412621
      4605.76       1.6255566     0.014410141
      4610.37       1.6254981     0.014408268
      4614.98       1.6254494     0.014407039
      4619.59       1.6264310     0.014410315
      4624.21       1.6341037     0.014417409
      4628.84       1.6372967     0.014424373
      4633.47       1.6321523     0.014431280
      4638.10       1.6259629     0.014438159
      4642.74       1.6237987     0.014444998
      4647.38       1.6113956     0.014451876
      4652.03       1.6001040     0.014458692
      4656.68       1.5871031     0.014465507
      4661.34       1.5675875     0.014472379
      4666.00       1.5470795     0.014479263
      4670.67       1.5332399     0.014485760
      4675.33       1.5250006     0.014491893
      4680.01       1.5192641     0.014182514
      4684.69       1.5148918     0.014187747
      4689.38       1.5083754     0.014191902
      4694.07       1.5014791     0.014194253
      4698.76       1.4988406     0.014194110
      4703.46       1.4921659     0.014190842
      4708.16       1.4904247     0.014184037
      4712.87       1.4928242     0.014173467
      4717.58       1.4905219     0.014159175
      4722.30       1.4869434     0.014141437
      4727.03       1.4829347     0.014120659
      4731.75       1.4795545     0.014097557
      4736.48       1.4753854     0.014072837
      4741.22       1.4745999     0.014047260
      4745.96       1.4713530     0.014021474
      4750.71       1.4739499     0.013995854
      4755.46       1.4757141     0.013970503
      4760.22       1.4788577     0.013944935
      4764.97       1.4812509     0.013919212
      4769.74       1.4817168     0.013893941
      4774.51       1.4807765     0.013869128
      4779.29       1.4774923     0.013810968
      4784.07       1.4765967     0.013778733
      4788.85       1.4682780     0.013746889
      4793.64       1.4572734     0.013715414
      4798.43       1.4492385     0.013684360
      4803.23       1.4364886     0.013658370
      4808.03       1.4263268     0.013633862
      4812.84       1.4131339     0.013609840
      4817.66       1.4040723     0.013587255
      4822.48       1.3967298     0.013568377
      4827.30       1.3920204     0.013556143
      4832.12       1.3937463     0.013553643
      4836.96       1.3919336     0.013563755
      4841.79       1.3960579     0.013588780
      4846.63       1.3932386     0.013630341
      4851.48       1.3930361     0.013408808
      4856.33       1.4016586     0.013479226
      4861.19       1.4072573     0.013563004
      4866.05       1.4156607     0.013658086
      4870.92       1.4172972     0.013761901
      4875.79       1.4320645     0.014282973
      4880.66       1.4307952     0.014401011
      4885.55       1.4321885     0.014519898
      4890.43       1.4320909     0.014640716
      4895.32       1.4320121     0.014768090
      4900.22       1.4245936     0.014896678
      4905.12       1.4258010     0.015026356
      4910.02       1.4253454     0.014882271
      4914.94       1.4187736     0.014997098
      4919.85       1.4182485     0.015112885
      4924.77       1.4151979     0.015229550
      4929.70       1.4146208     0.015347220
      4934.62       1.4182366     0.015466006
      4939.56       1.4208976     0.015585643
      4944.50       1.4244487     0.015705026
      4949.44       1.4359058     0.016298127
      4954.39       1.4391873     0.016421976
      4959.35       1.4436653     0.016546453
      4964.31       1.4433566     0.016370559
      4969.27       1.4547219     0.016466698
      4974.24       1.4497541     0.016556993
      4979.22       1.4512565     0.016639840
      4984.20       1.4522301     0.016714294
      4989.18       1.4602108     0.016779972
      4994.17       1.4584668     0.016836767
      4999.16       1.4680209     0.016885497
      5004.16       1.4647930     0.016927422
      5009.17       1.4654982     0.017092984
      5014.18       1.4776978     0.017103655
      5019.19       1.4801615     0.017114572
      5024.21       1.4826809     0.017127024
      5029.23       1.4913136     0.017141329
      5034.26       1.4944920     0.017156219
      5039.30       1.4915703     0.017170094
      5044.34       1.4902272     0.017186135
      5049.39       1.4947215     0.017204412
      5054.43       1.4933914     0.016889853
      5059.49       1.4975098     0.017247873
      5064.55       1.4980047     0.018115822
      5069.61       1.4934687     0.018887702
      5074.68       1.5054908     0.019466153
      5079.76       1.5159325     0.021227004
      5084.84       1.5296462     0.018542633
      5089.92       1.5348433     0.018933581
      5095.01       1.5427694     0.019141552
      5100.11       1.5507018     0.020126417
      5105.21       1.5642418     0.021961297
      5110.31       1.5894146     0.025170340
      5115.42       1.5808253     0.027647520
      5120.54       1.5733691     0.034630702
      5125.66       1.5970573     0.038816861
      5130.79       1.5656691     0.024283796
      5135.92       1.5602462     0.023985799
      5141.05       1.5580487     0.024049623
      5146.20       1.5531580     0.023987623
      5151.34       1.5503342     0.023842911
      5156.49       1.5499979     0.048990611
      5161.65       1.5310792     0.034908595
      5166.81       1.5276386     0.031427028
      5171.98       1.5062476     0.025986776
      5177.15       1.5030073     0.022058060
      5182.33       1.5096113     0.020519402
      5187.51       1.5128806     0.019520489
      5192.70       1.5150058     0.018648866
      5197.89       1.5248672     0.018573408
      5203.09       1.5385012     0.022049447
      5208.29       1.5431663     0.019686936
      5213.50       1.5507597     0.018959226
      5218.72       1.5566222     0.018008349
      5223.93       1.5590987     0.017517523
      5229.16       1.5585264     0.017096647
      5234.39       1.5646172     0.017093322
      5239.62       1.5635233     0.017042685
      5244.86       1.5585354     0.017000348
      5250.11       1.5543797     0.016951029
      5255.36       1.5408032     0.016893567
      5260.61       1.5285290     0.016827536
      5265.87       1.5160733     0.016753084
      5271.14       1.5045093     0.016220355
      5276.41       1.4993299     0.016437916
      5281.69       1.4902629     0.016313668
      5286.97       1.4749882     0.016188841
      5292.26       1.4679446     0.016065669
      5297.55       1.4641540     0.015945713
      5302.85       1.4522374     0.015397643
      5308.15       1.4429560     0.015950412
      5313.46       1.4370300     0.016357813
      5318.77       1.4290849     0.016699861
      5324.09       1.4200513     0.017688172
      5329.42       1.4071896     0.015282091
      5334.75       1.4026328     0.015386273
      5340.08       1.3960216     0.015832081
      5345.42       1.3884338     0.016546568
      5350.77       1.3809009     0.017307193
      5356.12       1.3737321     0.018073700
      5361.48       1.3795187     0.018116315
      5366.83       1.3793244     0.018490389
      5372.20       1.3804658     0.017971530
      5377.58       1.3750157     0.018424715
      5382.95       1.3658420     0.017636277
      5388.34       1.3439236     0.016387492
      5393.72       1.3392558     0.015815123
      5399.12       1.3335918     0.015381360
      5404.52       1.3196804     0.015154512
      5409.92       1.2975727     0.020158228
      5415.33       1.2866701     0.018973536
      5420.75       1.2731438     0.017742754
      5426.17       1.2636581     0.017478591
      5431.60       1.2527916     0.017083010
      5437.03       1.2448967     0.017536757
      5442.47       1.2342384     0.017884625
      5447.91       1.2193839     0.018327279
      5453.36       1.2012572     0.018797125
      5458.81       1.1879947     0.019274019
      5464.27       1.1792090     0.019758595
      5469.73       1.1689028     0.020822630
      5475.20       1.1530193     0.021277878
      5480.68       1.1413965     0.021737132
      5486.16       1.1292988     0.022199719
      5491.65       1.1172906     0.022423780
      5497.14       1.1233732     0.023682574
      5502.64       1.1206813     0.024087952
      5508.14       1.1128597     0.024467588
      5513.65       1.1150530     0.024803152
      5519.16       1.1153031     0.024618261
      5524.68       1.1199030     0.025403683
      5530.20       1.1244502     0.025346729
      5535.73       1.1282615     0.025185048
      5541.27       1.1264902     0.024237842
      5546.81       1.1284427     0.023863637
      5552.36       1.1263241     0.023690244
      5557.91       1.1230854     0.023123194
      5563.47       1.1221915     0.022535367
      5569.04       1.1236417     0.021210877
      5574.60       1.1271244     0.020619854
      5580.18       1.1286805     0.020173222
      5585.76       1.1307698     0.019536540
      5591.35       1.1434930     0.018198979
      5596.94       1.1464261     0.017583478
      5602.53       1.1505830     0.017064665
      5608.14       1.1534104     0.016412778
      5613.75       1.1558376     0.015139398
      5619.36       1.1589394     0.014574646
      5624.98       1.1664900     0.014024522
      5630.60       1.1692686     0.013457534
      5636.23       1.1727054     0.012400153
      5641.87       1.1735619     0.011896236
      5647.51       1.1745807     0.011439401
      5653.16       1.1759738     0.011016607
      5658.82       1.1684659     0.010363058
      5664.47       1.1643907     0.010105128
      5670.14       1.1637716     0.010153601
      5675.81       1.1630468     0.010420661
      5681.48       1.1608814     0.010775656
      5687.17       1.1592985     0.011049818
      5692.85       1.1597993     0.012239186
      5698.55       1.1622452     0.012959120
      5704.25       1.1620243     0.010518010
      5709.95       1.1648726     0.011112393
      5715.66       1.1668964     0.011837458
      5721.38       1.1735954     0.012663008
      5727.10       1.1832895     0.013716618
      5732.83       1.1924635     0.014531435
      5738.56       1.2026508     0.015536236
      5744.30       1.2027463     0.014559961
      5750.04       1.2094615     0.015243107
      5755.79       1.2125381     0.014303654
      5761.55       1.2097037     0.013387613
      5767.31       1.2007403     0.012074345
      5773.08       1.1998390     0.012812328
      5778.85       1.1950622     0.015281520
      5784.63       1.1944577     0.013577698
      5790.41       1.1921353     0.012245657
      5796.21       1.1863845     0.011783054
      5802.00       1.1810410     0.011255311
      5807.81       1.1778126     0.010711192
      5813.61       1.1728201     0.010439678
      5819.43       1.1715672     0.010588511
      5825.25       1.1698099     0.010268729
      5831.07       1.1720828     0.010174071
      5836.90       1.1650587     0.010080351
      5842.74       1.1697198     0.010165737
      5848.58       1.1676532    0.0098234770
      5854.43       1.1631195    0.0097206361
      5860.29       1.1652192    0.0097847176
      5866.15       1.1587524    0.0094553738
      5872.01       1.1496196    0.0093444423
      5877.89       1.1442598    0.0092400412
      5883.76       1.1389961    0.0092913601
      5889.65       1.1338957    0.0089646829
      5895.54       1.1264278    0.0088593217
      5901.43       1.1160854    0.0087602416
      5907.34       1.1139852    0.0085906212
      5913.24       1.1087259    0.0084851017
      5919.16       1.1037029    0.0083875697
      5925.08       1.1001126    0.0082355841
      5931.00       1.0956223    0.0081375431
      5936.93       1.0916539    0.0080488922
      5942.87       1.0863510    0.0081014218
      5948.81       1.0814355    0.0082211160
      5954.76       1.0823329    0.0084985500
      5960.72       1.0760195    0.0087101479
      5966.68       1.0760505    0.0078306209
      5972.64       1.0711374    0.0078551946
      5978.62       1.0646814    0.0078286307
      5984.60       1.0541713    0.0082181312
      5990.58       1.0458642    0.0085343158
      5996.57       1.0313016    0.0086040817
      6002.57       1.0234748    0.0087776019
      6008.57       1.0118391    0.0090593384
      6014.58       1.0097848    0.0085606680
      6020.60       1.0036547    0.0082181697
      6026.62      0.99185694    0.0080161375
      6032.65      0.98809871    0.0075354800
      6038.68      0.98304039    0.0071816395
      6044.72      0.98039994    0.0069706753
      6050.76      0.97780363    0.0069508325
      6056.81      0.97560954    0.0069272330
      6062.87      0.97944647    0.0076225067
      6068.93      0.97985384    0.0072953556
      6075.00      0.97747267    0.0069967819
      6081.08      0.97378720    0.0069282855
      6087.16      0.96977067    0.0070391947
      6093.25      0.96586486    0.0072335943
      6099.34      0.95893275    0.0077591512
      6105.44      0.95150640    0.0079880083
      6111.54      0.94595076    0.0082788607
      6117.66      0.94218172    0.0089487975
      6123.78      0.93569157    0.0092144521
      6129.90      0.93006891    0.0095292112
      6136.03      0.91995519    0.0098586649
      6142.17      0.90706501     0.010543458
      6148.31      0.90598488     0.010896290
      6154.46      0.90105856     0.011607978
      6160.61      0.89918310     0.011943498
      6166.77      0.89456026     0.012289207
      6172.94      0.89651450     0.012977211
      6179.11      0.89736440     0.013302403
      6185.29      0.90181053     0.013629094
      6191.48      0.90122143     0.014575377
      6197.67      0.90137399     0.015108179
      6203.87      0.90242834     0.016014487
      6210.07      0.90963213     0.015108934
      6216.28      0.91512510     0.015364219
      6222.50      0.92235526     0.015634068
      6228.72      0.93189744     0.016619760
      6234.95      0.94020259     0.017191381
      6241.19      0.94525468     0.017222157
      6247.42      0.95408655     0.017889378
      6253.67      0.96098495     0.017136278
      6259.93      0.97050522     0.016454702
      6266.19      0.97811217     0.015960052
      6272.46      0.97107028     0.014611973
      6278.73      0.97272258     0.013965973
      6285.01      0.97571412     0.013142929
      6291.29      0.97781528     0.012170725
      6297.58      0.97178306     0.011937234
      6303.88      0.96803739     0.011432158
      6310.19      0.96703990     0.011838898
      6316.50      0.96768439     0.011294297
      6322.81      0.97203020     0.010552535
      6329.14      0.97072325     0.010186053
      6335.47      0.97103396    0.0097648662
      6341.80      0.97363207    0.0096119579
      6348.14      0.97798982    0.0096134477
      6354.49      0.97676645    0.0093268284
      6360.85      0.97987162    0.0092565308
      6367.21      0.98282357    0.0092057713
      6373.57      0.98485228    0.0091742796
      6379.95      0.99085680    0.0091996158
      6386.33      0.99366035    0.0091860667
      6392.72      0.99694051    0.0091870621
      6399.11       1.0043617    0.0092290298
      6405.51       1.0056080    0.0092263411
      6411.92       1.0061870    0.0090970734
      6418.32       1.0042891    0.0092876086
      6424.74       1.0058354    0.0093017454
      6431.17       1.0042400    0.0093708615
      6437.60       1.0041681    0.0093835576
      6444.04       1.0040221    0.0092745280
      6450.48       1.0003886    0.0094717579
      6456.94       1.0023872    0.0093686667
      6463.39       1.0012799    0.0095914454
      6469.85       1.0010903    0.0096289728
      6476.33      0.99448461    0.0095740732
      6482.80      0.99416038    0.0098455905
      6489.28      0.98793470    0.0098275488
      6495.77      0.98478823     0.010169210
      6502.27      0.98485325     0.010185004
      6508.77      0.98190783     0.010595560
      6515.28      0.97839136     0.010631786
      6521.80      0.97337657     0.010792490
      6528.32      0.96830576     0.011238068
      6534.85      0.96733276     0.011292074
      6541.38      0.96202728     0.011752914
      6547.92      0.95128707     0.011799415
      6554.47      0.94656287     0.012099802
      6561.03      0.94664337     0.012788770
      6567.59      0.94414965     0.013447156
      6574.16      0.94094305     0.013011726
      6580.73      0.94400812     0.013183310
      6587.31      0.94821638     0.013752004
      6593.90      0.94551757     0.014335090
      6600.50      0.94459254     0.014998282
      6607.10      0.94070731     0.016033084
      6613.70      0.94068951     0.016724109
      6620.32      0.94723823     0.017583792
      6626.94      0.94248103     0.017866080
      6633.57      0.93222806     0.017972341
      6640.20      0.93867461     0.017450673
      6646.84      0.94005923     0.016954433
      6653.49      0.93310657     0.016240849
      6660.14      0.92698945     0.015350805
      6666.80      0.92505026     0.015136814
      6673.47      0.92635320     0.014538597
      6680.14      0.92852363     0.016640657
      6686.82      0.92419674     0.015570466
      6693.51      0.92408015     0.014890308
      6700.20      0.92594212     0.014249024
      6706.90      0.93157838     0.014164421
      6713.61      0.93778850     0.013828165
      6720.32      0.93825003     0.013962982
      6727.05      0.93764839     0.013631689
      6733.77      0.93395434     0.013545318
      6740.51      0.93391633     0.013432474
      6747.25      0.92732364     0.013343401
      6754.00      0.92033861     0.013228782
      6760.75      0.91312723     0.013136853
      6767.51      0.90769076     0.013019676
      6774.28      0.90079863     0.012925189
      6781.05      0.89591356     0.012805760
      6787.84      0.90018905     0.012709325
      6794.62      0.89740170     0.012588451
      6801.42      0.89125663     0.012490952
      6808.22      0.88628366     0.012369465
      6815.03      0.88324406     0.012271647
      6821.85      0.88367702     0.012149810
      6828.67      0.88878780     0.012051892
      6835.50      0.88817953     0.011938598
      6842.33      0.88326776     0.011848226
      6849.17      0.87726165     0.011741404
      6856.02      0.87704623     0.011652362
      6862.88      0.87387826     0.011558612
      6869.74      0.87169379     0.011483179
      6876.61      0.86224220     0.011434795
      6883.49      0.85506253     0.011390145
      6890.37      0.84904960     0.011223244
      6897.27      0.84671939     0.011414418
      6904.16      0.84730125     0.011307332
      6911.07      0.84718464     0.011571375
      6917.98      0.84201845     0.011516170
      6924.89      0.82908570     0.011845631
      6931.82      0.82670386     0.012094756
      6938.75      0.82780539     0.012194991
      6945.69      0.83284204     0.012463460
      6952.64      0.82825830     0.012436709
      6959.59      0.83206353     0.012839699
      6966.55      0.81770233     0.012819102
      6973.52      0.80763560     0.013243207
      6980.49      0.80446186     0.013217477
      6987.47      0.80319982     0.013645933
      6994.46      0.80088811     0.013612296
      7001.46      0.79829631     0.014039140
      7008.46      0.78938964     0.013986903
      7015.46      0.78862303     0.014216298
      7022.48      0.79222606     0.014311221
      7029.51      0.79924123     0.014487921
      7036.53      0.79841734     0.014557935
      7043.57      0.80144899     0.014671989
      7050.62      0.79751463     0.014716248
      7057.66      0.80732240     0.014772777
      7064.72      0.80730766     0.014798085
      7071.79      0.81300336     0.014815323
      7078.86      0.82027795     0.014579324
      7085.94      0.81805390     0.014833384
      7093.03      0.81440290     0.014848272
      7100.12      0.80560103     0.014847807
      7107.22      0.80159984     0.014851263
      7114.33      0.79929506     0.014853038
      7121.44      0.79267098     0.014851103
      7128.56      0.78456042     0.014614853
      7135.69      0.77783883     0.014853149
      7142.83      0.77232693     0.014614351
      7149.97      0.76435048     0.014861050
      7157.12      0.74891337     0.014621827
      7164.28      0.73313340     0.014652050
      7171.44      0.72861389     0.014893574
      7178.62      0.72089834     0.014673170
      7185.80      0.71919513     0.014927178
      7192.98      0.70990444     0.014706194
      7200.17      0.70078879     0.014972560
      7207.38      0.70302198     0.014748565
      7214.58      0.69858748     0.014797482
      7221.80      0.68919355     0.015056939
      7229.02      0.68541487     0.014840543
      7236.25      0.68463572     0.015109323
      7243.49      0.68928302     0.014877094
      7250.73      0.68380406     0.014913041
      7257.98      0.68211505     0.014901436
      7265.24      0.68987933     0.014922261
      7272.51      0.69892737     0.014928978
      7279.78      0.68929415     0.014876638
      7287.06      0.67137881     0.014796480
      7294.35      0.67252590     0.014701404
      7301.64      0.67291900     0.014492831
      7308.94      0.67079107     0.014025952
      7316.25      0.66526434     0.013991367
      7323.57      0.66691302     0.013574486
      7330.89      0.66112579     0.013318378
      7338.22      0.65658782     0.012812807
      7345.56      0.65027875     0.012204160
      7352.91      0.64600832     0.011983588
      7360.26      0.64361280     0.011431813
      7367.62      0.64232811     0.010813158
      7374.99      0.63776104     0.010579584
      7382.37      0.63213480     0.010029010
      7389.75      0.62848345    0.0095206438
      7397.14      0.62291197    0.0092776490
      7404.53      0.61623032    0.0087772623
      7411.94      0.61461947    0.0085428894
      7419.35      0.60955150    0.0081274370
      7426.77      0.60238420    0.0077732121
      7434.20      0.60310000    0.0076523112
      7441.63      0.60252107    0.0073949589
      7449.07      0.59726875    0.0072435339
      7456.52      0.59582152    0.0072815988
      7463.98      0.59737922    0.0071515803
      7471.45      0.59919382    0.0071639218
      7478.92      0.59554536    0.0071860390
      7486.40      0.59583795    0.0072441111
      7493.88      0.59555064    0.0073194724
      7501.38      0.59392250    0.0073562817
      7508.88      0.59355605    0.0074295342
      7516.39      0.59285745    0.0075211549
      7523.91      0.59527199    0.0075719220
      7531.43      0.59577932    0.0076763158
      7538.96      0.58910310    0.0077871588
      7546.50      0.58992177    0.0078392343
      7554.05      0.58843203    0.0079545569
      7561.60      0.58740319    0.0079271087
      7569.16      0.58564530    0.0081506745
      7576.73      0.59172077    0.0083007685
      7584.31      0.58706412    0.0083020416
      7591.89      0.58571599    0.0085619452
      7599.49      0.58552884    0.0087595676
      7607.09      0.58544262    0.0087872808
      7614.70      0.58078951    0.0090871086
      7622.31      0.57284184    0.0093190391
      7629.93      0.57178923    0.0093529011
      7637.56      0.56969700    0.0096769709
      7645.20      0.57036124    0.0099139273
      7652.85      0.57331869    0.0099314075
      7660.50      0.57923628     0.010174172
      7668.16      0.58107133     0.010499665
      7675.83      0.57459633     0.010504692
      7683.50      0.56788934     0.010714698
      7691.19      0.56796278     0.011011427
      7698.88      0.56746769     0.010929984
      7706.58      0.57484468     0.011008181
      7714.29      0.57308896     0.011201907
      7722.00      0.56583345     0.010964965
      7729.73      0.55854905     0.010848768
      7737.45      0.55678103     0.010668872
      7745.19      0.54959834     0.010538742
      7752.94      0.54358517     0.010282133
      7760.69      0.53108912     0.010003519
      7768.45      0.52683122    0.0096304129
      7776.22      0.52629587    0.0095446281
      7784.00      0.52331398    0.0092598586
      7791.78      0.52060870    0.0089129234
      7799.57      0.51417442    0.0088184834
      7807.37      0.50883073    0.0085337409
      7815.18      0.50746511    0.0082647680
      7822.99      0.50559019    0.0079598405
      7830.82      0.50168441    0.0078864585
      7838.65      0.49490170    0.0076919052
      7846.49      0.49261933    0.0074698526
      7854.34      0.48774156    0.0073437809
      7862.19      0.48214491    0.0073715271
      7870.05      0.47699046    0.0072280250
      7877.93      0.47528404    0.0071915761
      7885.80      0.47140798    0.0071835896
      7893.69      0.46905350    0.0072934018
      7901.58      0.46651330    0.0071987489
      7909.49      0.46332328    0.0074334658
      7917.40      0.46421738    0.0077197861
      7925.31      0.46611494    0.0079283186
      7933.24      0.47029113    0.0073528657
      7941.17      0.47037884    0.0074219943
      7949.11      0.46930092    0.0076579302
      7957.06      0.47180808    0.0078850179
      7965.02      0.47667919    0.0082924887
      7972.98      0.47544504    0.0089461564
      7980.96      0.47074835    0.0098519856
      7988.94      0.47011669    0.0098062268
      7996.93      0.47467334    0.0096668506
      8004.93      0.47347186    0.0097729329
      8012.93      0.47440015     0.010041877
      8020.95      0.47607639     0.010037440
      8028.97      0.47473431     0.010250324
      8036.99      0.47681758     0.010256935
      8045.03      0.47335275     0.010813189
      8053.08      0.47210785     0.010790741
      8061.13      0.47661056     0.011852771
      8069.20      0.47974624     0.010808876
      8077.26      0.48463320     0.010074463
      8085.34      0.49242973    0.0095368077
      8093.43      0.49643326    0.0093405349
      8101.52      0.49454748    0.0092827527
      8109.62      0.49591864    0.0093186916
      8117.73      0.49284608    0.0093809595
      8125.85      0.49864939     0.010232237
      8133.98      0.49837320     0.010268123
      8142.11      0.49631463    0.0094471039
      8150.25      0.49633300    0.0091861026
      8158.41      0.49579008    0.0092908330
      8166.56      0.49189942    0.0094993141
      8174.73      0.48222143    0.0097361592
      8182.91      0.47467904    0.0099689775
      8191.09      0.46149562     0.010128768
      8199.28      0.44838361     0.010179863
      8207.48      0.44507900     0.010053866
      8215.69      0.43934693    0.0097579121
      8223.91      0.43326390    0.0092496715
      8232.13      0.43262690    0.0090727644
      8240.36      0.43302657    0.0086730181
      8248.60      0.43149543    0.0083217215
      8256.85      0.43296146    0.0080616963
      8265.11      0.43275631    0.0078058658
      8273.37      0.43477961    0.0079300948
      8281.65      0.44063377    0.0081958577
      8289.93      0.44205483    0.0078256379
      8298.22      0.44443730    0.0075245804
      8306.52      0.44501580    0.0073529211
      8314.83      0.44925172    0.0075318019
      8323.14      0.44917463    0.0077590558
      8331.46      0.45010050    0.0080588894
      8339.80      0.45913722    0.0072734297
      8348.13      0.46269106    0.0071500014
      8356.48      0.47001938    0.0072498452
      8364.84      0.47416426    0.0074356389
      8373.21      0.47664323    0.0076751023
      8381.58      0.47742923    0.0079426121
      8389.96      0.48254803    0.0082769792
      8398.35      0.48362980    0.0083910446
      8406.75      0.49040006    0.0085892132
      8415.16      0.49142596    0.0086827329
      8423.57      0.49208061    0.0087211033
      8432.00      0.49142166    0.0087258502
      8440.43      0.48760753    0.0084885398
      8448.87      0.48535393    0.0085364474
      8457.32      0.48224774    0.0086132733
      8465.78      0.47662907    0.0088507665
      8474.25      0.47746179    0.0098465775
      8482.72      0.47470569    0.0097997728
      8491.20      0.47472205    0.0098958175
      8499.69      0.47626978     0.010024617
      8508.19      0.47723260     0.010626031
      8516.70      0.47933451     0.011374240
      8525.22      0.48232708     0.012038972
      8533.75      0.47912866     0.012640329
      8542.28      0.48071986     0.013106867
      8550.82      0.48133506     0.012926046
      8559.37      0.49617498     0.012971600
      8567.93      0.50705321     0.012873959
      8576.50      0.50980297     0.012695839
      8585.08      0.52187544     0.012512954
      8593.66      0.52002191     0.012409157
      8602.26      0.52131637     0.012653882
      8610.86      0.51766300     0.014190693
      8619.47      0.52315773     0.013622763
      8628.09      0.53095555     0.013195493
      8636.72      0.53312536     0.012847913
      8645.36      0.53220013     0.012939268
      8654.00      0.53506684     0.012976131
      8662.66      0.53585675     0.012767782
      8671.32      0.53328288     0.012463671
      8679.99      0.52556672     0.012157430
      8688.67      0.51747168     0.011932905
      8697.36      0.51012154     0.011651143
      8706.06      0.49670641     0.011237615
      8714.76      0.48504213     0.010668847
      8723.48      0.47985989     0.010321013
      8732.21      0.47456888    0.0099138046
      8740.93      0.47055106    0.0095585550
      8749.68      0.46012124    0.0091949716
      8758.43      0.45869342    0.0086542877
      8767.19      0.45299953    0.0083429966
      8775.96      0.44620323    0.0080430591
      8784.73      0.44097569    0.0077771744
      8793.52      0.43408246    0.0075408485
      8802.31      0.43250178    0.0071946370
      8811.11      0.42928004    0.0070246324
      8819.92      0.42562970    0.0068816463
      8828.75      0.42333770    0.0067269774
      8837.57      0.41767020    0.0065530945
      8846.41      0.41824847    0.0064514191
      8855.26      0.41561869    0.0064007036
      8864.12      0.41472389    0.0064269770
      8872.98      0.41167785    0.0064885129
      8881.85      0.40910906    0.0064402453
      8890.73      0.40701155    0.0062786599
      8899.63      0.40479144    0.0061760850
      8908.52      0.40111036    0.0061295141
      8917.43      0.39603859    0.0061923629
      8926.35      0.39347613    0.0062481818
      8935.28      0.39101771    0.0063854839
      8944.22      0.38872222    0.0065428069
      8953.16      0.38471656    0.0066849368
      8962.11      0.38327762    0.0069279836
      8971.08      0.38092131    0.0072039742
      8980.05      0.38027866    0.0074040696
      8989.03      0.38359257    0.0077943376
      8998.02      0.37906027    0.0080896660
      9007.02      0.38003036    0.0082930797
      9016.02      0.37830343    0.0086617405
      9025.04      0.37894262    0.0090440353
      9034.07      0.37784950    0.0092532269
      9043.10      0.37734732    0.0096234846
      9052.14      0.37711486    0.0099753110
      9061.20      0.37608432     0.010124979
      9070.26      0.37894608     0.010414497
      9079.33      0.37733718     0.010674342
      9088.41      0.37691696     0.010765336
      9097.50      0.36985211     0.010945338
      9106.60      0.37522950     0.011239779
      9115.70      0.37882453     0.011210490
      9124.82      0.37800488     0.011563381
      9133.94      0.38088843     0.012265490
      9143.08      0.37930609     0.012939837
      9152.22      0.37783225     0.012887771
      9161.37      0.37603667     0.012924538
      9170.54      0.37391928     0.013055178
      9179.71      0.37174822     0.013512992
      9188.89      0.36313157     0.014021079
      9198.08      0.36089112     0.014727611
      9207.28      0.35497150     0.015507110
      9216.48      0.35302432     0.016479473
      9225.70      0.35069759     0.017469482
      9234.92      0.35016411     0.019055359
      9244.16      0.35346365     0.021134881
      9253.40      0.35953740     0.024486622
      9262.66      0.36272065     0.028239546
