# starting wavelength =        1516.0140
# ending wavelength =        2704.9921
# O2 telluric scale =        0
# O2 telluric shift =        0
# H2O telluric scale =        0
# H2O telluric shift =        0
      1517.12       1.1941285      0.73102068
      1518.63      0.99132231      0.72441779
      1520.15       1.0531111      0.71618898
      1521.67      0.96696522      0.70936142
      1523.19       1.0619690      0.70142322
      1524.72      0.85932215      0.68808388
      1526.24      0.80298880      0.68117127
      1527.77      0.89473285      0.67376554
      1529.30      0.97901913      0.66754713
      1530.83      0.98889208      0.66057059
      1532.36      0.86963871      0.65494775
      1533.89      0.80469342      0.64237851
      1535.42      0.84340915      0.63596821
      1536.96      0.83427859      0.62997817
      1538.50      0.87932674      0.62372523
      1540.03      0.88256069      0.61786491
      1541.57      0.81245764      0.60617173
      1543.12      0.78901848      0.60071680
      1544.66      0.69254980      0.59575798
      1546.20      0.68743418      0.59138954
      1547.75      0.82379343      0.58538261
      1549.30      0.93355098      0.57967355
      1550.85      0.79313649      0.56900202
      1552.40      0.83083920      0.56367348
      1553.95      0.79960336      0.55866611
      1555.50      0.85453903      0.55340517
      1557.06      0.72829070      0.54919678
      1558.62      0.58086022      0.53985051
      1560.18      0.57720839      0.53513123
      1561.74      0.59962775      0.53117708
      1563.30      0.55545594      0.52692039
      1564.86      0.59861063      0.52214265
      1566.43      0.65495473      0.51247669
      1567.99      0.58474880      0.50851925
      1569.56      0.52792073      0.50448575
      1571.13      0.57308086      0.50016666
      1572.70      0.49917987      0.50093115
      1574.27      0.44173744      0.50249464
      1575.85      0.37155525      0.50461036
      1577.42      0.38451902      0.50549571
      1579.00      0.47019873      0.49410566
      1580.58      0.29874396      0.47855052
      1582.16      0.35401514      0.47163215
      1583.74      0.30479749      0.46648914
      1585.33      0.21050920      0.46230452
      1586.91      0.19609880      0.45812565
      1588.50      0.20870191      0.44964365
      1590.09      0.29700976      0.44606478
      1591.68      0.38431257      0.44310579
      1593.27      0.31850506      0.44102491
      1594.86      0.39926326      0.43865085
      1596.46      0.39563441      0.43300749
      1598.06      0.47523228      0.43115531
      1599.65      0.51249944      0.42996919
      1601.25      0.54249385      0.42845375
      1602.85      0.56192540      0.42361465
      1604.46      0.56302058      0.42218355
      1606.06      0.62317340      0.42050167
      1607.67      0.62910458      0.41929668
      1609.28      0.49919302      0.41519045
      1610.89      0.52510808      0.41372019
      1612.50      0.49554602      0.41365079
      1614.11      0.46081273      0.41231243
      1615.72      0.51967026      0.40722960
      1617.34      0.45793220      0.40615043
      1618.96      0.46458883      0.40484354
      1620.57      0.38810445      0.40342411
      1622.20      0.40267505      0.39944501
      1623.82      0.42288741      0.39766858
      1625.44      0.42390387      0.39597002
      1627.07      0.40698044      0.39439850
      1628.69      0.55258888      0.38874434
      1630.32      0.69607330      0.38627676
      1631.95      0.77625470      0.38423723
      1633.59      0.84649842      0.38321472
      1635.22       1.0122686      0.37725817
      1636.86      0.98826517      0.37586252
      1638.49       1.0752805      0.37316442
      1640.13       1.0563224      0.37094956
      1641.77       1.0541563      0.36572437
      1643.41      0.96182996      0.36483307
      1645.06      0.98812658      0.36214931
      1646.70      0.97465095      0.35953481
      1648.35      0.92566350      0.35428630
      1650.00      0.85368915      0.35184372
      1651.65      0.88200473      0.34907869
      1653.30      0.93393850      0.34685118
      1654.95      0.87175645      0.34160953
      1656.61      0.84163950      0.33895972
      1658.26      0.74924528      0.33672807
      1659.92      0.69528100      0.33109436
      1661.58      0.75896425      0.32924975
      1663.24      0.74767307      0.32658535
      1664.91      0.70092890      0.32418461
      1666.57      0.74489010      0.31866675
      1668.24      0.78827868      0.31603199
      1669.91      0.77395180      0.31371925
      1671.58      0.73821487      0.31246371
      1673.25      0.72586073      0.30976216
      1674.92      0.70072481      0.30717817
      1676.60      0.67537207      0.30472816
      1678.27      0.67507091      0.29965840
      1679.95      0.71800996      0.29824611
      1681.63      0.76607174      0.29606806
      1683.31      0.73431657      0.29214590
      1685.00      0.72478485      0.29052553
      1686.68      0.71826497      0.28894194
      1688.37      0.76221615      0.28829750
      1690.06      0.77604172      0.28496852
      1691.75      0.74842712      0.28388731
      1693.44      0.70129002      0.28290797
      1695.13      0.66157035      0.28019390
      1696.83      0.59148298      0.28120637
      1698.52      0.59723430      0.28055380
      1700.22      0.68276960      0.27779714
      1701.92      0.64346223      0.27770836
      1703.63      0.60682592      0.27584649
      1705.33      0.63867158      0.27335435
      1707.03      0.64877002      0.26946304
      1708.74      0.63717507      0.26762583
      1710.45      0.63033505      0.26646247
      1712.16      0.68683701      0.26325758
      1713.87      0.70094918      0.26281753
      1715.59      0.67093542      0.26178274
      1717.30      0.67209662      0.25868057
      1719.02      0.69474077      0.25743531
      1720.74      0.65216730      0.25715676
      1722.46      0.67450415      0.25385615
      1724.18      0.64109019      0.25266813
      1725.91      0.63011213      0.25158849
      1727.63      0.62912359      0.24833699
      1729.36      0.61960539      0.24778506
      1731.09      0.55282688      0.24671255
      1732.82      0.42087497      0.24405874
      1734.55      0.40334008      0.24270508
      1736.29      0.35620988      0.24215667
      1738.03      0.34896356      0.23876350
      1739.76      0.35113598      0.23735943
      1741.50      0.31547094      0.23618749
      1743.24      0.27722826      0.23317193
      1744.99      0.27747601      0.23233972
      1746.73      0.28848433      0.23084786
      1748.48      0.23449589      0.22799170
      1750.23      0.24148334      0.22658761
      1751.98      0.27363518      0.22562830
      1753.73      0.27061141      0.22261480
      1755.48      0.33074104      0.22107724
      1757.24      0.36958752      0.21967482
      1759.00      0.37254580      0.21719318
      1760.76      0.38359840      0.21595119
      1762.52      0.39052553      0.21469195
      1764.28      0.34559488      0.21197652
      1766.04      0.28719005      0.21143507
      1767.81      0.22451886      0.21048006
      1769.58      0.21997443      0.20764892
      1771.35      0.21146457      0.20650983
      1773.12      0.12072889      0.20464336
      1774.89      0.11822708      0.20350213
      1776.67      0.11238840      0.20243610
      1778.44     0.088418735      0.20005062
      1780.22      0.11298350      0.19929882
      1782.00      0.11428523      0.19825718
      1783.79      0.13388029      0.19586737
      1785.57      0.13122791      0.19538135
      1787.36      0.12584567      0.19446561
      1789.14      0.11814859      0.19229123
      1790.93     0.064359538      0.19159872
      1792.72     0.053197786      0.18995489
      1794.52     0.045703041      0.18917367
      1796.31     0.037877579      0.18838479
      1798.11      0.11564428      0.18596172
      1799.90      0.13895804      0.18560193
      1801.70      0.19018457      0.18347110
      1803.51      0.22539022      0.18263892
      1805.31      0.23213093      0.18248515
      1807.12      0.21677496      0.18071240
      1808.92      0.20891032      0.18005558
      1810.73      0.24108568      0.17934614
      1812.54      0.26136957      0.17741723
      1814.36      0.31148249      0.17657479
      1816.17      0.34380937      0.17459489
      1817.99      0.36213611      0.17438538
      1819.80      0.38251148      0.17365983
      1821.62      0.38192509      0.17191327
      1823.45      0.40343208      0.17117093
      1825.27      0.43027481      0.16988041
      1827.09      0.44826751      0.16919529
      1828.92      0.49651483      0.16844979
      1830.75      0.52526754      0.16723409
      1832.58      0.54942755      0.16661521
      1834.41      0.62921685      0.16477984
      1836.25      0.65018403      0.16421764
      1838.08      0.69239863      0.16404733
      1839.92      0.71374857      0.16243256
      1841.76      0.71537206      0.16191966
      1843.61      0.74713149      0.16072109
      1845.45      0.76066032      0.16016471
      1847.29      0.74653943      0.15871467
      1849.14      0.76592928      0.15859618
      1850.99      0.76935450      0.15808383
      1852.84      0.80350941      0.15647112
      1854.69      0.80688997      0.15643672
      1856.55      0.76915992      0.15506111
      1858.41      0.81779416      0.15439321
      1860.26      0.83607664      0.15431743
      1862.12      0.84448979      0.15284381
      1863.99      0.87197198      0.15229295
      1865.85      0.87661061      0.15128977
      1867.72      0.86982974      0.15084504
      1869.58      0.89897512      0.14934192
      1871.45      0.91282039      0.14887804
      1873.33      0.94274438      0.14784147
      1875.20      0.98820133      0.14728971
      1877.07       1.0099687      0.14683400
      1878.95       1.0693406      0.14578565
      1880.83       1.0803030      0.14535235
      1882.71       1.0998571      0.14401432
      1884.59       1.0579926      0.14418427
      1886.48       1.0766828      0.14279916
      1888.37       1.0882039      0.14234041
      1890.25       1.1181245      0.14135386
      1892.15       1.1336062      0.14085288
      1894.04       1.1270300      0.14046022
      1895.93       1.1511797      0.13951351
      1897.83       1.1496006      0.13906870
      1899.73       1.1427926      0.13824025
      1901.62       1.1397084      0.13779725
      1903.53       1.1211836      0.13656493
      1905.43       1.1068983      0.13657501
      1907.34       1.0764292      0.13541842
      1909.24       1.0648923      0.13505513
      1911.15       1.0832488      0.13404888
      1913.06       1.0926954      0.13359737
      1914.98       1.1518478      0.13212247
      1916.89       1.1234986      0.13218535
      1918.81       1.1061980      0.13183098
      1920.73       1.0712658      0.13068042
      1922.65       1.0931879      0.13051736
      1924.57       1.0905471      0.12928072
      1926.50       1.0855608      0.12922421
      1928.42       1.0716998      0.12804636
      1930.35       1.0639067      0.12760895
      1932.28       1.0187779      0.12695539
      1934.21       1.0079781      0.12655432
      1936.15      0.98283768      0.12548752
      1938.08      0.94907894      0.12556118
      1940.02      0.94246396      0.12441898
      1941.96      0.93038904      0.12406953
      1943.91      0.91832129      0.12328998
      1945.85      0.92827810      0.12287010
      1947.79      0.89726852      0.12214781
      1949.74      0.87867997      0.12182411
      1951.69      0.88487664      0.12068384
      1953.64      0.85442800      0.12075176
      1955.60      0.85071199      0.11969920
      1957.55      0.84223592      0.11974447
      1959.51      0.89176897      0.11856900
      1961.47      0.90360586      0.11819138
      1963.43      0.89804567      0.11764282
      1965.40      0.88442716      0.11738063
      1967.36      0.87572116      0.11685087
      1969.33      0.88017583      0.11652474
      1971.30      0.88983587      0.11560947
      1973.27      0.89578395      0.11563496
      1975.24      0.89021876      0.11479436
      1977.22      0.88410716      0.11489525
      1979.20      0.88367695      0.11406208
      1981.18      0.85458356      0.11390189
      1983.16      0.85291355      0.11339215
      1985.14      0.85276239      0.11312819
      1987.12      0.82477820      0.11274124
      1989.11      0.81652456      0.11254911
      1991.10      0.79980076      0.11181140
      1993.09      0.77978520      0.11143746
      1995.09      0.79003217      0.11117913
      1997.08      0.76648112      0.11085670
      1999.08      0.75102051      0.11070790
      2001.08      0.73095252      0.10997645
      2003.08      0.75213383      0.11005694
      2005.08      0.76282300      0.10924964
      2007.09      0.74115198      0.10948399
      2009.09      0.76881638      0.10859139
      2011.10      0.78925765      0.10872092
      2013.11      0.76324370      0.10804532
      2015.13      0.76359620      0.10786058
      2017.14      0.80997399      0.10730337
      2019.16      0.82985194      0.10650774
      2021.18      0.81725538      0.10673142
      2023.20      0.83019090      0.10597071
      2025.22      0.85135264      0.10607213
      2027.25      0.83337481      0.10543590
      2029.28      0.82567148      0.10528277
      2031.31      0.78902697      0.10502030
      2033.34      0.78112725      0.10485883
      2035.37      0.79338802      0.10444226
      2037.41      0.79780742      0.10374798
      2039.44      0.80002602      0.10391370
      2041.48      0.79985720      0.10325160
      2043.53      0.79702372      0.10344663
      2045.57      0.81976460      0.10267126
      2047.61      0.83568922      0.10246625
      2049.66      0.81939096      0.10221927
      2051.71      0.82021036      0.10207601
      2053.76      0.83250744      0.10175166
      2055.82      0.81885315      0.10118282
      2057.87      0.81833097      0.10137839
      2059.93      0.80217553      0.10078678
      2061.99      0.80839884      0.10098510
      2064.05      0.79897927      0.10041044
      2066.12      0.79386096      0.10014035
      2068.18      0.79834972     0.099942296
      2070.25      0.77209181     0.099415769
      2072.32      0.74532494     0.099672502
      2074.39      0.70818644     0.099164417
      2076.47      0.71343017     0.099329497
      2078.55      0.71012635     0.098704620
      2080.62      0.73219736     0.098325157
      2082.71      0.71720896     0.098233401
      2084.79      0.68983563     0.098107690
      2086.87      0.68081005     0.098002290
      2088.96      0.67699038     0.097722735
      2091.05      0.67369793     0.097177510
      2093.14      0.67432331     0.097388843
      2095.23      0.65930337     0.096880473
      2097.33      0.64459280     0.096724398
      2099.43      0.63435010     0.096634570
      2101.52      0.62169253     0.096466616
      2103.63      0.62661020     0.096309188
      2105.73      0.64207464     0.096026916
      2107.84      0.65841829     0.095408218
      2109.94      0.66196979     0.095623637
      2112.05      0.66208545     0.095111962
      2114.17      0.64890526     0.095369654
      2116.28      0.65925459     0.094809868
      2118.40      0.64740191     0.094635970
      2120.52      0.66219182     0.094485140
      2122.64      0.65769715     0.094301372
      2124.76      0.66780236     0.093788368
      2126.88      0.69935482     0.093919321
      2129.01      0.72063187     0.093388405
      2131.14      0.73375429     0.093605971
      2133.27      0.72298942     0.093180413
      2135.40      0.72090997     0.093049338
      2137.54      0.71319171     0.093022049
      2139.68      0.71583365     0.092899216
      2141.82      0.73020996     0.092426088
      2143.96      0.72322295     0.092715853
      2146.10      0.70586385     0.092334673
      2148.25      0.70972789     0.092213305
      2150.40      0.71564193     0.092133418
      2152.55      0.72369663     0.092008249
      2154.70      0.73467386     0.091549187
      2156.86      0.74008574     0.091805307
      2159.01      0.73290096     0.091412411
      2161.17      0.72375611     0.091742991
      2163.33      0.71211041     0.091344944
      2165.50      0.73624244     0.091163042
      2167.66      0.74431136     0.091431791
      2169.83      0.74470407     0.090984112
      2172.00      0.76602953     0.090822451
      2174.17      0.78698536     0.090700370
      2176.35      0.80136955     0.090578063
      2178.52      0.82797877     0.090074438
      2180.70      0.85504565     0.090271591
      2182.88      0.86693198     0.090193137
      2185.07      0.85125701     0.090928720
      2187.25      0.85280669     0.091368042
      2189.44      0.87602044     0.091172343
      2191.63      0.87491169     0.090248541
      2193.82      0.87204001     0.089722014
      2196.01      0.88100638     0.089844786
      2198.21      0.87919006     0.089226613
      2200.41      0.89217225     0.088929513
      2202.61      0.90269606     0.088852286
      2204.81      0.89801814     0.088715570
      2207.02      0.91571347     0.088298485
      2209.22      0.91265953     0.088616402
      2211.43      0.92384047     0.088537474
      2213.64      0.93347581     0.088229359
      2215.86      0.92463455     0.088587424
      2218.07      0.92678834     0.088347335
      2220.29      0.94173389     0.088395083
      2222.51      0.95457936     0.088132335
      2224.73      0.93230987     0.088639424
      2226.96      0.93726737     0.088763494
      2229.19      0.93282823     0.088583490
      2231.42      0.93425634     0.089076118
      2233.65      0.92525941     0.088901147
      2235.88      0.90832812     0.089106109
      2238.12      0.90672795     0.088983315
      2240.36      0.91517437     0.089402030
      2242.60      0.92403659     0.089547002
      2244.84      0.94458785     0.089304755
      2247.08      0.95363763     0.089723160
      2249.33      0.95356146     0.089568556
      2251.58      0.96008404     0.089702759
      2253.83      0.97210229     0.089811193
      2256.09      0.96184299     0.089962263
      2258.34      0.97864900     0.089999612
      2260.60      0.97136600     0.089736772
      2262.86      0.94764556     0.090304796
      2265.12      0.93260264     0.090440072
      2267.39      0.91953271     0.090162675
      2269.66      0.93147199     0.090161261
      2271.93      0.93087039     0.090248920
      2274.20      0.95830891     0.090875094
      2276.47      0.97489137     0.091544359
      2278.75      0.99844285     0.091165058
      2281.03      0.98204800     0.091279534
      2283.31      0.99883868     0.090471910
      2285.59      0.99459098     0.090135917
      2287.88      0.99457819     0.089845116
      2290.17       1.0075547     0.089698914
      2292.46       1.0176104     0.089461354
      2294.75       1.0326001     0.089249110
      2297.04       1.0220106     0.088835477
      2299.34       1.0203458     0.089112101
      2301.64       1.0231217     0.088703020
      2303.94       1.0265205     0.088647562
      2306.25       1.0070654     0.088694131
      2308.55       1.0034858     0.088422861
      2310.86       1.0125736     0.088682510
      2313.17      0.99884813     0.088765167
      2315.49      0.99639222     0.088500837
      2317.80      0.98210743     0.088590923
      2320.12      0.96888634     0.088948226
      2322.44      0.96670446     0.088728833
      2324.76      0.99673270     0.088700625
      2327.09      0.98511927     0.088526073
      2329.41      0.98726392     0.088637761
      2331.74      0.97887814     0.089056625
      2334.08      0.97799291     0.088901856
      2336.41      0.98120548     0.089085003
      2338.75      0.99874544     0.089238220
      2341.08       1.0129918     0.089311873
      2343.43       1.0294641     0.089534736
      2345.77       1.0511111     0.089783889
      2348.12       1.0558802     0.089645897
      2350.46       1.0794305     0.089936710
      2352.81       1.0847353     0.090638778
      2355.17       1.0912681     0.090574779
      2357.52       1.0877301     0.091112651
      2359.88       1.0829853     0.091812647
      2362.24       1.0924551     0.092201731
      2364.60       1.1050066     0.092518198
      2366.97       1.1259371     0.091749168
      2369.33       1.1178706     0.091084490
      2371.70       1.1192247     0.090880526
      2374.08       1.1379680     0.090996071
      2376.45       1.1450814     0.090688861
      2378.83       1.1369984     0.091173838
      2381.20       1.1775005     0.091208304
      2383.59       1.1786923     0.090908153
      2385.97       1.1883727     0.090980681
      2388.36       1.2208249     0.090976487
      2390.75       1.2084556     0.091095715
      2393.14       1.2210023     0.091027429
      2395.53       1.2328538     0.091042269
      2397.93       1.2442775     0.091067858
      2400.32       1.2517335     0.090763608
      2402.72       1.2362429     0.090844372
      2405.13       1.2285445     0.090910283
      2407.53       1.2319887     0.090872696
      2409.94       1.2103159     0.090980828
      2412.35       1.2047767     0.091033256
      2414.76       1.2110118     0.091034315
      2417.18       1.2207388     0.090691867
      2419.59       1.2341363     0.090712172
      2422.01       1.2719365     0.090943691
      2424.44       1.2798046     0.090619695
      2426.86       1.2735657     0.090714543
      2429.29       1.2773936     0.090781833
      2431.72       1.2661648     0.090953909
      2434.15       1.2578438     0.090766547
      2436.58       1.2501929     0.090932668
      2439.02       1.2489033     0.091355432
      2441.46       1.2406816     0.091245311
      2443.90       1.2288929     0.091580162
      2446.34       1.2205935     0.091963019
      2448.79       1.2182674     0.092397085
      2451.24       1.2240602     0.092316434
      2453.69       1.2219362     0.092852139
      2456.14       1.2484617     0.093431512
      2458.60       1.2288358     0.094314329
      2461.06       1.2290837     0.094719899
      2463.52       1.2330636     0.094129466
      2465.98       1.2389532     0.093586288
      2468.45       1.2110312     0.093543115
      2470.92       1.2123908     0.093418374
      2473.39       1.2024573     0.093727374
      2475.86       1.1892101     0.094062743
      2478.34       1.1788936     0.094392811
      2480.82       1.1688705     0.094326753
      2483.30       1.1435181     0.094940527
      2485.78       1.1423376     0.095270653
      2488.27       1.1520648     0.095572932
      2490.76       1.1523770     0.095521648
      2493.25       1.1433786     0.095902035
      2495.74       1.1069707     0.096394984
      2498.24       1.1189293     0.096743338
      2500.74       1.1136634     0.096743232
      2503.24       1.0995995     0.097242169
      2505.74       1.1064050     0.097656930
      2508.25       1.0992498     0.098139880
      2510.75       1.0814984     0.098415908
      2513.26       1.0947397     0.098862665
      2515.78       1.0996996     0.099350925
      2518.29       1.0860791     0.099940866
      2520.81       1.1103724      0.10037462
      2523.33       1.1133661      0.10045005
      2525.86       1.1104514      0.10104250
      2528.38       1.1090491      0.10162199
      2530.91       1.1025948      0.10225472
      2533.44       1.1124325      0.10285431
      2535.98       1.1108108      0.10299443
      2538.51       1.1105572      0.10364290
      2541.05       1.1128020      0.10430627
      2543.59       1.1295528      0.10490300
      2546.13       1.1117339      0.10513107
      2548.68       1.1233123      0.10593525
      2551.23       1.1216166      0.10662304
      2553.78       1.1214437      0.10733851
      2556.34       1.1180840      0.10806128
      2558.89       1.1166568      0.10879665
      2561.45       1.1066648      0.10905469
      2564.01       1.0798539      0.10992250
      2566.58       1.1093768      0.11062320
      2569.14       1.0997941      0.11147374
      2571.71       1.0775606      0.11240048
      2574.28       1.0838830      0.11266551
      2576.86       1.0962868      0.11349591
      2579.44       1.0602254      0.11451087
      2582.01       1.0666713      0.11547540
      2584.60       1.0749289      0.11640060
      2587.18       1.0332110      0.11759806
      2589.77       1.0456805      0.11797839
      2592.36       1.0676039      0.11902026
      2594.95       1.0695563      0.12017507
      2597.55       1.0545252      0.12135564
      2600.14       1.0491410      0.12263077
      2602.74       1.0732891      0.12381473
      2605.35       1.0838179      0.12442046
      2607.95       1.0625528      0.12582628
      2610.56       1.1117597      0.12700865
      2613.17       1.1477167      0.12834942
      2615.79       1.1736074      0.12975116
      2618.40       1.1659875      0.13127273
      2621.02       1.1872191      0.13190188
      2623.64       1.1347031      0.13372671
      2626.26       1.1279367      0.13542087
      2628.89       1.1239586      0.13714950
      2631.52       1.1473165      0.13889266
      2634.15       1.1711199      0.14065083
      2636.79       1.1959988      0.14246770
      2639.42       1.2040160      0.14357563
      2642.06       1.2350020      0.14541369
      2644.70       1.2428218      0.14744146
      2647.35       1.2690512      0.14946590
      2650.00       1.2843594      0.15169672
      2652.65       1.4630810      0.15242597
      2655.30       1.4964391      0.15448586
      2657.96       1.5257401      0.15662891
      2660.61       1.5002544      0.15765091
      2663.27       1.5337590      0.15987681
      2665.94       1.4999437      0.16245463
      2668.60       1.4915021      0.16507734
      2671.27       1.4614501      0.16786389
      2673.94       1.4926481      0.17053667
      2676.62       1.5005899      0.17340286
      2679.29       1.4739570      0.17646832
      2681.97       1.4535767      0.17972939
      2684.66       1.4705725      0.18175608
      2687.34       1.4727661      0.18516766
      2690.03       1.5187896      0.18860559
      2692.72       1.5383918      0.19232004
      2695.41       1.5460478      0.19626928
      2698.11       1.5494642      0.20049679
      2700.81       1.5872493      0.20473787
      2703.51       1.5789322      0.20958977
