# starting wavelength =        3171.8248
# ending wavelength =        9102.9394
# O2 telluric scale =       0.76817489
# O2 telluric shift =        1.5049245
# H2O telluric scale =        0
# H2O telluric shift =        0
      3172.36      0.43081903      0.10495351
      3175.54      0.46030652      0.10349589
      3178.71      0.46425405      0.10143416
      3181.89      0.47601414      0.10068488
      3185.07      0.51394203      0.10046462
      3188.26      0.51425756     0.098497051
      3191.45      0.51639636     0.097797901
      3194.64      0.48750912     0.096384194
      3197.83      0.47423241     0.095696835
      3201.03      0.49976357     0.094344415
      3204.23      0.55109492     0.093669184
      3207.44      0.58494959     0.091853112
      3210.64      0.58644615     0.091713095
      3213.85      0.61138017     0.089960713
      3217.07      0.64383398     0.089826775
      3220.28      0.66007425     0.089213614
      3223.51      0.70007081     0.087502832
      3226.73      0.74397106     0.087408046
      3229.96      0.79393055     0.085756862
      3233.19      0.82630114     0.085669065
      3236.42      0.83674990     0.084075227
      3239.66      0.86303550     0.083995044
      3242.90      0.84232593     0.082456327
      3246.14      0.83641783     0.081898753
      3249.39      0.92013314     0.080898638
      3252.64      0.94128911     0.080354778
      3255.89      0.93916214     0.079400722
      3259.14      0.92043127     0.078870749
      3262.40      0.89813613     0.077489393
      3265.67      0.91352692     0.077445163
      3268.93      0.92880076     0.076099154
      3272.20      0.94197321     0.076076733
      3275.47      0.95833617     0.074765374
      3278.75      0.97556185     0.074764025
      3282.03      0.96791467     0.074308591
      3285.31      0.93381645     0.073070243
      3288.60      0.93313260     0.073064104
      3291.88      0.90490860     0.071858865
      3295.18      0.85162194     0.071872755
      3298.47      0.81506693     0.070699983
      3301.77      0.78387336     0.070733220
      3305.07      0.77345145     0.069592283
      3308.38      0.73456444     0.069644278
      3311.69      0.70399205     0.068534527
      3315.00      0.66399110     0.068202670
      3318.31      0.64611905     0.067525446
      3321.63      0.61880978     0.067206931
      3324.95      0.60059810     0.066563856
      3328.28      0.61801338     0.066258700
      3331.61      0.66071328     0.065648528
      3334.94      0.67496782     0.064667206
      3338.27      0.68546284     0.064778279
      3341.61      0.71312471     0.063827980
      3344.95      0.73922141     0.063534550
      3348.30      0.73771952     0.063031429
      3351.65      0.73592461     0.062751292
      3355.00      0.73422835     0.062276354
      3358.35      0.74596847     0.062009466
      3361.71      0.77857892     0.061561749
      3365.07      0.79778108     0.061307967
      3368.44      0.80621168     0.060886499
      3371.81      0.78802278     0.060645736
      3375.18      0.82665737     0.060249439
      3378.56      0.82029140     0.060021663
      3381.94      0.76496814     0.059649611
      3385.32      0.74461977     0.059434726
      3388.70      0.73448647     0.059085991
      3392.09      0.74853138     0.058883837
      3395.48      0.74117446     0.058557498
      3398.88      0.73133930     0.057826203
      3402.28      0.73657850     0.057667119
      3405.68      0.68071846     0.057353797
      3409.09      0.66983273     0.057207025
      3412.49      0.64231106     0.056913914
      3415.91      0.62614125     0.056779338
      3419.32      0.62354775     0.056505562
      3422.74      0.62958625     0.056383098
      3426.17      0.64157840     0.056127755
      3429.59      0.64984689     0.055499185
      3433.02      0.65697297     0.055779516
      3436.45      0.64765661     0.055165901
      3439.89      0.62119055     0.055459875
      3443.33      0.63835506     0.054860230
      3446.78      0.64747382     0.055167884
      3450.22      0.68412871     0.054581277
      3453.67      0.70135209     0.054902569
      3457.13      0.73840056     0.054328060
      3460.58      0.77637646     0.054191919
      3464.04      0.79043956     0.054099696
      3467.51      0.81396533     0.053976153
      3470.98      0.83151771     0.053895217
      3474.45      0.83443117     0.053783473
      3477.92      0.84077218     0.054132896
      3481.40      0.84057400     0.053613010
      3484.88      0.89968910     0.053536789
      3488.37      0.93053727     0.053463798
      3491.86      0.94582333     0.053397055
      3495.35      0.96331480     0.053334941
      3498.84      0.97173277     0.053276868
      3502.34      0.96248724     0.052802204
      3505.84      0.97335373     0.053175312
      3509.35      0.98674869     0.052714746
      3512.86      0.96450055     0.053091551
      3516.37      0.96996623     0.052644658
      3519.89      0.99217807     0.052609305
      3523.41      0.99594295     0.052591104
      3526.93       1.0303716     0.052561116
      3530.46       1.0163469     0.052553182
      3533.99      0.99136744     0.052527776
      3537.53      0.97851215     0.052520915
      3541.06      0.96902513     0.052508451
      3544.60      0.99910243     0.052504726
      3548.15       1.0090995     0.052502417
      3551.70      0.99465305     0.052500873
      3555.25       1.0042495     0.052092576
      3558.80       1.0193719     0.052508567
      3562.36       1.0308611     0.052099528
      3565.92       1.0211906     0.052526952
      3569.49       1.0405109     0.052116444
      3573.06       1.0354792     0.052146380
      3576.64       1.0486179     0.052570883
      3580.21       1.0695048     0.052171314
      3583.79       1.0890251     0.052213853
      3587.38       1.1074613     0.052203827
      3590.96       1.1167115     0.052243796
      3594.55       1.1252296     0.052243058
      3598.15       1.1432031     0.052279752
      3601.75       1.1491388     0.052328417
      3605.35       1.1463034     0.052320844
      3608.96       1.1236480     0.052364780
      3612.56       1.1181090     0.051981554
      3616.18       1.1295138     0.052404798
      3619.79       1.1495450     0.052029930
      3623.41       1.1652838     0.052061588
      3627.04       1.1446309     0.052489483
      3630.66       1.1153414     0.052105584
      3634.29       1.1100699     0.052138879
      3637.93       1.0999328     0.052150577
      3641.57       1.0734333     0.052175647
      3645.21       1.0486866     0.052598223
      3648.86      0.99558242     0.052211958
      3652.50      0.97946334     0.053068239
      3656.16      0.96890371     0.053538947
      3659.81      0.95530700     0.054529597
      3663.47      0.90174601     0.052679384
      3667.14      0.88312948     0.052681552
      3670.80      0.82965886     0.052304864
      3674.48      0.81214462     0.051931326
      3678.15      0.80870665     0.052509534
      3681.83      0.79962792     0.052806028
      3685.51      0.79598356     0.052752378
      3689.20      0.79527997     0.053581981
      3692.88      0.79512917     0.053585753
      3696.58      0.81533942     0.054077585
      3700.27      0.83345001     0.055014388
      3703.98      0.84966066     0.054951633
      3707.68      0.88816439     0.055386486
      3711.39      0.91576425     0.055354098
      3715.10      0.93430879     0.056040246
      3718.81       1.0170556     0.056258373
      3722.53       1.0577041     0.055970916
      3726.26       1.1076176     0.056492269
      3729.98       1.1433891     0.056385494
      3733.71       1.1358133     0.055599849
      3737.45       1.1765584     0.055861381
      3741.18       1.1850512     0.054955898
      3744.93       1.1633673     0.054523190
      3748.67       1.1781950     0.054579958
      3752.42       1.1800550     0.053592430
      3756.17       1.2144630     0.053042515
      3759.93       1.2186273     0.052498376
      3763.69       1.2219343     0.052045684
      3767.45       1.1968226     0.051535070
      3771.22       1.1499350     0.051097839
      3774.99       1.1286730     0.050721982
      3778.77       1.1018204     0.050437199
      3782.54       1.0971188     0.049905424
      3786.33       1.0601752     0.049888009
      3790.11       1.0092780     0.050508687
      3793.90      0.96755411     0.050352900
      3797.70      0.93659123     0.051585118
      3801.50      0.92635924     0.051022078
      3805.30      0.90489066     0.050105855
      3809.10      0.88834124     0.049263833
      3812.91      0.87754900     0.049154962
      3816.73      0.87083620     0.049507441
      3820.54      0.84299875     0.050261870
      3824.36      0.82591858     0.051093806
      3828.19      0.82159014     0.049138304
      3832.02      0.81926973     0.049094076
      3835.85      0.82757311     0.048544827
      3839.68      0.82709920     0.048110317
      3843.52      0.82910420     0.048126573
      3847.37      0.84204979     0.048547897
      3851.22      0.86074769     0.048489422
      3855.07      0.90757775     0.048749196
      3858.92      0.94689270     0.049052445
      3862.78      0.96194964     0.049312142
      3866.64      0.99604962     0.049615778
      3870.51       1.0273882     0.049902494
      3874.38       1.0451505     0.050150956
      3878.26       1.0501613     0.050343432
      3882.13       1.0511690     0.050484890
      3886.02       1.0942709     0.050546579
      3889.90       1.1088942     0.050102643
      3893.79       1.1272713     0.050549222
      3897.69       1.1430666     0.050231305
      3901.59       1.1547344     0.049593304
      3905.49       1.1650431     0.049240058
      3909.39       1.1757742     0.049193925
      3913.30       1.1836271     0.048713195
      3917.22       1.1706007     0.047961429
      3921.13       1.1879497     0.047422224
      3925.06       1.2373723     0.046872036
      3928.98       1.2584678     0.046477467
      3932.91       1.2327945     0.045930177
      3936.84       1.2284340     0.045417120
      3940.78       1.2367810     0.044958138
      3944.72       1.2517041     0.044275428
      3948.67       1.2771814     0.044279629
      3952.61       1.2795348     0.044052588
      3956.57       1.2810248     0.043585228
      3960.52       1.2923288     0.043666637
      3964.48       1.2795956     0.044058402
      3968.45       1.2722772     0.045195055
      3972.42       1.2960143     0.044342435
      3976.39       1.3144203     0.043567182
      3980.37       1.3439536     0.042857650
      3984.35       1.3709972     0.042725975
      3988.33       1.3982661     0.042656447
      3992.32       1.4273774     0.042521770
      3996.31       1.4474025     0.042391259
      4000.31       1.4922535     0.042264947
      4004.31       1.5204467     0.041872268
      4008.31       1.5527934     0.042074239
      4012.32       1.5527266     0.041950031
      4016.33       1.5591605     0.041830289
      4020.35       1.5786146     0.041445774
      4024.37       1.6005164     0.041335149
      4028.40       1.5877177     0.041229045
      4032.42       1.5847201     0.041427175
      4036.46       1.5785896     0.041384945
      4040.50       1.5873161     0.041968023
      4044.54       1.5811934     0.042617441
      4048.58       1.5632492     0.041401362
      4052.63       1.5148623     0.040579742
      4056.68       1.5141921     0.040715896
      4060.74       1.5071965     0.040533368
      4064.80       1.5085492     0.040519779
      4068.86       1.4902817     0.040425046
      4072.93       1.4614547     0.040600717
      4077.01       1.4715564     0.040830377
      4081.08       1.4568548     0.041275187
      4085.17       1.4257883     0.041552355
      4089.25       1.4019002     0.041592186
      4093.34       1.3985560     0.041865077
      4097.43       1.3819557     0.042120765
      4101.53       1.3596348     0.042346094
      4105.63       1.3368369     0.042163052
      4109.74       1.3001522     0.042675256
      4113.85       1.2910331     0.042772103
      4117.96       1.2606087     0.042808324
      4122.08       1.2358499     0.042702906
      4126.20       1.2216743     0.042275608
      4130.33       1.2540060     0.042115549
      4134.46       1.2608819     0.041905111
      4138.59       1.2717019     0.041652774
      4142.73       1.2691969     0.041627299
      4146.88       1.2482117     0.041118258
      4151.02       1.2342266     0.040798871
      4155.18       1.2116440     0.040476758
      4159.33       1.2161585     0.040165074
      4163.49       1.2185983     0.039877447
      4167.65       1.2293568     0.039629130
      4171.82       1.2424557     0.039163732
      4175.99       1.2691233     0.039030029
      4180.17       1.2854632     0.039187325
      4184.35       1.2906867     0.039246101
      4188.54       1.2887397     0.039493147
      4192.72       1.2946713     0.040033083
      4196.92       1.2903947     0.040202443
      4201.11       1.3065139     0.040439084
      4205.31       1.3017480     0.039871924
      4209.52       1.2910663     0.039364632
      4213.73       1.2640273     0.039454173
      4217.94       1.2697194     0.039551124
      4222.16       1.2638311     0.039364892
      4226.38       1.2652257     0.039705666
      4230.61       1.2558767     0.039816859
      4234.84       1.2580233     0.039935533
      4239.08       1.2695734     0.040061684
      4243.32       1.2629277     0.040195275
      4247.56       1.2697891     0.040031594
      4251.81       1.2480699     0.040177155
      4256.06       1.2156870     0.040329924
      4260.32       1.2280489     0.040489826
      4264.58       1.2208391     0.040656779
      4268.84       1.2070404     0.040830659
      4273.11       1.2029185     0.041011395
      4277.38       1.1991134     0.040874986
      4281.66       1.1782898     0.041062115
      4285.94       1.1813172     0.041255672
      4290.23       1.2052958     0.041668637
      4294.52       1.2452409     0.041874733
      4298.81       1.2352043     0.042086910
      4303.11       1.2307318     0.042304997
      4307.42       1.2398628     0.042528847
      4311.72       1.2583161     0.042423631
      4316.04       1.2911358     0.042652297
      4320.35       1.3049926     0.042886289
      4324.67       1.3320866     0.043125467
      4329.00       1.3574752     0.043369665
      4333.33       1.3718289     0.043618718
      4337.66       1.3849028     0.043872450
      4342.00       1.3976083     0.044130708
      4346.34       1.4055492     0.044393308
      4350.69       1.3823886     0.044299614
      4355.04       1.3837604     0.044567509
      4359.39       1.3691393     0.044839257
      4363.75       1.3474261     0.045114694
      4368.12       1.3318875     0.045393684
      4372.48       1.3216692     0.045676023
      4376.86       1.2806287     0.045961541
      4381.23       1.2531520     0.046250125
      4385.61       1.2515695     0.046541541
      4390.00       1.2518299     0.046835644
      4394.39       1.2471865     0.047132257
      4398.79       1.2146957     0.047043954
      4403.18       1.1861983     0.047340748
      4407.59       1.1782661     0.047639654
      4412.00       1.1770840     0.047940505
      4416.41       1.1655414     0.048243130
      4420.82       1.1338413     0.048547363
      4425.25       1.1235823     0.048853041
      4429.67       1.1511842     0.049159996
      4434.10       1.1480304     0.049468055
      4438.54       1.1549599     0.049777075
      4442.97       1.1774803     0.050086864
      4447.42       1.1867063     0.050397266
      4451.86       1.2217361     0.050708133
      4456.32       1.2518393     0.051019261
      4460.77       1.2899556     0.050920350
      4465.24       1.3342245     0.051229473
      4469.70       1.3529801     0.051538442
      4474.17       1.3822094     0.051847078
      4478.65       1.4145702     0.052155200
      4483.12       1.4461405     0.052462679
      4487.61       1.4675496     0.052769354
      4492.09       1.4679098     0.053075027
      4496.59       1.5025307     0.053379571
      4501.08       1.5363115     0.053682829
      4505.58       1.5528510     0.053984611
      4510.09       1.5806152     0.054284774
      4514.60       1.5887621     0.054583147
      4519.12       1.6100533     0.054879593
      4523.63       1.6166301     0.054907836
      4528.16       1.6533508     0.055197555
      4532.69       1.6495462     0.055484834
      4537.22       1.6773563     0.055769548
      4541.76       1.6910913     0.056051490
      4546.30       1.7100907     0.056330534
      4550.85       1.6782226     0.056606518
      4555.40       1.6955788     0.056879296
      4559.95       1.6894606     0.057148716
      4564.51       1.6815895     0.057414616
      4569.08       1.6765543     0.057676844
      4573.65       1.6506673     0.057935255
      4578.22       1.6558271     0.058189701
      4582.80       1.6662531     0.058440022
      4587.38       1.6598359     0.058686069
      4591.97       1.6540571     0.058628455
      4596.56       1.6721792     0.058860701
      4601.16       1.6738339     0.059088159
      4605.76       1.6825184     0.059310601
      4610.37       1.6905184     0.059527967
      4614.98       1.6748733     0.059740031
      4619.59       1.6688937     0.059946666
      4624.21       1.6406115     0.060147766
      4628.84       1.6475603     0.060343141
      4633.47       1.6561298     0.060532666
      4638.10       1.6571238     0.060396745
      4642.74       1.6712602     0.060571522
      4647.38       1.6581614     0.060740012
      4652.03       1.6522136     0.060902064
      4656.68       1.6832051     0.061057556
      4661.34       1.6953478     0.061206343
      4666.00       1.7105571     0.061348278
      4670.67       1.7344579     0.061483235
      4675.33       1.7555528     0.061611055
      4680.01       1.7867299     0.061382562
      4684.69       1.7870562     0.061489144
      4689.38       1.7953541     0.061588080
      4694.07       1.8354754     0.061679257
      4698.76       1.8911004     0.061762516
      4703.46       1.8873127     0.061837732
      4708.16       1.9108856     0.061904789
      4712.87       1.9189063     0.062727974
      4717.58       1.9382090     0.063579263
      4722.30       1.9455384     0.063554907
      4727.03       1.9486725     0.062748976
      4731.75       1.9474922     0.062233717
      4736.48       1.9556236     0.062510363
      4741.22       1.9565795     0.062312988
      4745.96       1.9944479     0.062256452
      4750.71       2.0160252     0.062306706
      4755.46       2.0031522     0.062848251
      4760.22       2.0176272     0.063017158
      4764.97       2.0271794     0.063237698
      4769.74       2.0351594     0.063492271
      4774.51       2.0363833     0.064272586
      4779.29       2.0029412     0.064875407
      4784.07       1.9563920     0.065161886
      4788.85       1.9901835     0.065423248
      4793.64       1.9994884     0.066267751
      4798.43       1.9822601     0.066468986
      4803.23       1.9910287     0.066608181
      4808.03       1.9730387     0.066676853
      4812.84       1.9711316     0.067390735
      4817.66       1.9879477     0.067336505
      4822.48       1.9566747     0.067411663
      4827.30       1.9875963     0.067152234
      4832.12       2.0070029     0.067184841
      4836.96       2.0219172     0.067336503
      4841.79       2.0240521     0.066775865
      4846.63       2.0286052     0.066144742
      4851.48       2.0511106     0.065458463
      4856.33       2.0284847     0.064733234
      4861.19       2.0032219     0.064527957
      4866.05       1.9569875     0.063751269
      4870.92       1.8805205     0.063274072
      4875.79       1.8529129     0.062551871
      4880.66       1.8461264     0.061894366
      4885.55       1.8106948     0.061797628
      4890.43       1.7557962     0.061372143
      4895.32       1.7005509     0.061155376
      4900.22       1.6395646     0.061254587
      4905.12       1.5849943     0.060794478
      4910.02       1.5328137     0.060157978
      4914.94       1.4922420     0.059362491
      4919.85       1.4731128     0.058880199
      4924.77       1.4606031     0.058390768
      4929.70       1.4625217     0.057589946
      4934.62       1.4540158     0.057631532
      4939.56       1.4145637     0.057113615
      4944.50       1.3798041     0.056589530
      4949.44       1.3543872     0.055775328
      4954.39       1.3274527     0.055244966
      4959.35       1.3068346     0.054708914
      4964.31       1.2816315     0.054684145
      4969.27       1.2660956     0.053860225
      4974.24       1.2775824     0.053301206
      4979.22       1.3069923     0.052737515
      4984.20       1.2950786     0.052169378
      4989.18       1.2879877     0.051353732
      4994.17       1.2957960     0.051276381
      4999.16       1.3108921     0.050689195
      5004.16       1.3228959     0.050098604
      5009.17       1.3306765     0.049292551
      5014.18       1.3266273     0.048691546
      5019.19       1.3523628     0.048087994
      5024.21       1.3589602     0.047970577
      5029.23       1.3667231     0.047359677
      5034.26       1.3614752     0.046561663
      5039.30       1.3635487     0.045943537
      5044.34       1.3494600     0.045324240
      5049.39       1.3454794     0.044704021
      5054.43       1.3351547     0.043910667
      5059.49       1.3161538     0.043293707
      5064.55       1.3117191     0.043141366
      5069.61       1.3255013     0.042513022
      5074.68       1.3286130     0.041885143
      5079.76       1.3258515     0.041105497
      5084.84       1.3170027     0.040483421
      5089.92       1.2970529     0.039862423
      5095.01       1.3073662     0.039242793
      5100.11       1.3027956     0.039057763
      5105.21       1.2940889     0.038297249
      5110.31       1.3125809     0.037676938
      5115.42       1.3159233     0.037059173
      5120.54       1.3253861     0.036444228
      5125.66       1.3199852     0.035832421
      5130.79       1.3231845     0.035223981
      5135.92       1.3271384     0.034514466
      5141.05       1.3214126     0.033912095
      5146.20       1.3150055     0.033696224
      5151.34       1.3089514     0.033097722
      5156.49       1.3065220     0.033288983
      5161.65       1.2998761     0.033522106
      5166.81       1.2973373     0.033825669
      5171.98       1.3143392     0.031539862
      5177.15       1.3030365     0.030377653
      5182.33       1.2931860     0.029663772
      5187.51       1.2790359     0.029174074
      5192.70       1.2742852     0.028809113
      5197.89       1.2697339     0.028467551
      5203.09       1.2582886     0.028497359
      5208.29       1.2572730     0.028242710
      5213.50       1.2619274     0.027992372
      5218.72       1.2712836     0.027730190
      5223.93       1.2787870     0.027443506
      5229.16       1.2762546     0.027059463
      5234.39       1.2792134     0.026701486
      5239.62       1.2746880     0.026302337
      5244.86       1.2563041     0.025862086
      5250.11       1.2520394     0.025383346
      5255.36       1.2607503     0.024870980
      5260.61       1.2682894     0.024221388
      5265.87       1.2807266     0.023575967
      5271.14       1.2837309     0.022983549
      5276.41       1.2824976     0.022388747
      5281.69       1.2799532     0.022046001
      5286.97       1.2774636     0.021453628
      5292.26       1.3034377     0.020877471
      5297.55       1.3139945     0.020322538
      5302.85       1.3113053     0.019793024
      5308.15       1.3110863     0.019289618
      5313.46       1.3230011     0.018814185
      5318.77       1.3252388     0.018370972
      5324.09       1.3269583     0.017962821
      5329.42       1.3350890     0.017592764
      5334.75       1.3377126     0.017264867
      5340.08       1.3352570     0.016984614
      5345.42       1.3465154     0.016760147
      5350.77       1.3562543     0.016604109
      5356.12       1.3422855     0.016375062
      5361.48       1.3313716     0.016369837
      5366.83       1.3246294     0.015987477
      5372.20       1.3183342     0.015643449
      5377.58       1.3077550     0.015332224
      5382.95       1.2935445     0.015145618
      5388.34       1.2750905     0.014969132
      5393.72       1.2663274     0.014802582
      5399.12       1.2620635     0.014645761
      5404.52       1.2484009     0.014498478
      5409.92       1.2419536     0.014360550
      5415.33       1.2421095     0.014174101
      5420.75       1.2463876     0.014052375
      5426.17       1.2363703     0.013939453
      5431.60       1.2358240     0.013835154
      5437.03       1.2272597     0.013739301
      5442.47       1.2294124     0.013651711
      5447.91       1.2215440     0.013572207
      5453.36       1.2164850     0.013706024
      5458.81       1.2181035     0.013862320
      5464.27       1.2196171     0.014044864
      5469.73       1.2163064     0.014258720
      5475.20       1.2141803     0.014511071
      5480.68       1.2202020     0.013696150
      5486.16       1.2210037     0.013382517
      5491.65       1.2298908     0.013276455
      5497.14       1.2345371     0.013235270
      5502.64       1.2415068     0.013309290
      5508.14       1.2368381     0.013432060
      5513.65       1.2355336     0.013591345
      5519.16       1.2385836     0.013778958
      5524.68       1.2444126     0.013988209
      5530.20       1.2403301     0.014213117
      5535.73       1.2465560     0.014447997
      5541.27       1.2492874     0.014686744
      5546.81       1.2435136     0.014923012
      5552.36       1.2385345     0.015150157
      5557.91       1.2426919     0.015361391
      5563.47       1.2280830     0.015550351
      5569.04       1.2079565     0.015569975
      5574.60       1.2090222     0.015727515
      5580.18       1.2112593     0.015743081
      5585.76       1.2025152     0.015725112
      5591.35       1.1970825     0.015675884
      5596.94       1.1864869     0.015599184
      5602.53       1.1757136     0.015500174
      5608.14       1.1714002     0.015384581
      5613.75       1.1605312     0.015259021
      5619.36       1.1502844     0.015130529
      5624.98       1.1507704     0.015006080
      5630.60       1.1476560     0.014893323
      5636.23       1.1465147     0.014800935
      5641.87       1.1345737     0.014739390
      5647.51       1.1344824     0.014724172
      5653.16       1.1281423     0.014791732
      5658.82       1.1267741     0.014983770
      5664.47       1.1178688     0.015426288
      5670.14       1.1163812     0.016549398
      5675.81       1.1122943     0.016266681
      5681.48       1.1053802     0.016027988
      5687.17       1.0955663     0.015824404
      5692.85       1.0892784     0.015649609
      5698.55       1.0866874     0.015498835
      5704.25       1.0845092     0.015613908
      5709.95       1.0860785     0.015662355
      5715.66       1.0786962     0.015776822
      5721.38       1.0709364     0.015891064
      5727.10       1.0669930     0.016004898
      5732.83       1.0612761     0.016118129
      5738.56       1.0610613     0.016230569
      5744.30       1.0621478     0.016342025
      5750.04       1.0561263     0.016452310
      5755.79       1.0528070     0.016561229
      5761.55       1.0391727     0.016592408
      5767.31       1.0359514     0.016695713
      5773.08       1.0386073     0.016797026
      5778.85       1.0485975     0.016896149
      5784.63       1.0511205     0.016992898
      5790.41       1.0471543     0.017087091
      5796.21       1.0580238     0.017178463
      5802.00       1.0629688     0.017397803
      5807.81       1.0612467     0.017398784
      5813.61       1.0660272     0.017477820
      5819.43       1.0585099     0.017732491
      5825.25       1.0567155     0.018012684
      5831.07       1.0548930     0.018323149
      5836.90       1.0551831     0.018670304
      5842.74       1.0565465     0.017924249
      5848.58       1.0558781     0.017818867
      5854.43       1.0486953     0.017828707
      5860.29       1.0503120     0.017911286
      5866.15       1.0456177     0.018042929
      5872.01       1.0496717     0.018208994
      5877.89       1.0480398     0.018341339
      5883.76       1.0459374     0.018644461
      5889.65       1.0367850     0.018861855
      5895.54       1.0352545     0.019079873
      5901.43       1.0389819     0.019292464
      5907.34       1.0372049     0.019493841
      5913.24       1.0437121     0.019587078
      5919.16       1.0496379     0.019732431
      5925.08       1.0652817     0.019848811
      5931.00       1.0698096     0.019932254
      5936.93       1.0701660     0.019979924
      5942.87       1.0802431     0.019891358
      5948.81       1.0848039     0.019812074
      5954.76       1.0909513     0.019670419
      5960.72       1.1006176     0.019498141
      5966.68       1.1030688     0.019299731
      5972.64       1.0961048     0.019080057
      5978.62       1.0839205     0.018729363
      5984.60       1.0690331     0.018488302
      5990.58       1.0669383     0.018242807
      5996.57       1.0679548     0.018040256
      6002.57       1.0677370     0.017702224
      6008.57       1.0711417     0.017478150
      6014.58       1.0689217     0.017272494
      6020.60       1.0691674     0.017091529
      6026.62       1.0776705     0.016943710
      6032.65       1.0717840     0.016747496
      6038.68       1.0590544     0.016713609
      6044.72       1.0565685     0.017003341
      6050.76       1.0475928     0.017344683
      6056.81       1.0458996     0.016922271
      6062.87       1.0463471     0.016613214
      6068.93       1.0481406     0.016336137
      6075.00       1.0490171     0.016085901
      6081.08       1.0463416     0.015989897
      6087.16       1.0479841     0.015847128
      6093.25       1.0545845     0.015746276
      6099.34       1.0519414     0.015644620
      6105.44       1.0487809     0.015542294
      6111.54       1.0465405     0.015326877
      6117.66       1.0472923     0.015223954
      6123.78       1.0471989     0.015180698
      6129.90       1.0596163     0.015074245
      6136.03       1.0623331     0.014857315
      6142.17       1.0595481     0.014751406
      6148.31       1.0630112     0.014645681
      6154.46       1.0567898     0.014428237
      6160.61       1.0564492     0.014379442
      6166.77       1.0491258     0.014272700
      6172.94       1.0472677     0.014166631
      6179.11       1.0476218     0.013953256
      6185.29       1.0433890     0.013847371
      6191.48       1.0267180     0.013797032
      6197.67       1.0161865     0.013590139
      6203.87       1.0062911     0.013485704
      6210.07      0.99637909     0.013382647
      6216.28      0.98706670     0.013281053
      6222.50      0.97614763     0.013134607
      6228.72      0.97201656     0.013034599
      6234.95      0.96547660     0.012936412
      6241.19      0.96582802     0.012747631
      6247.42      0.96575672     0.012654402
      6253.67      0.95935193     0.012608724
      6259.93      0.95682874     0.012517420
      6266.19      0.95195947     0.012340609
      6272.46      0.94757376     0.012255217
      6278.73      0.94595932     0.012216662
      6285.01      0.95207055     0.012050108
      6291.29      0.95674895     0.011971548
      6297.58      0.95702593     0.011895872
      6303.88      0.95770656     0.011738914
      6310.19      0.96252871     0.011715845
      6316.50      0.97181327     0.011648344
      6322.81      0.97183129     0.011505072
      6329.14      0.97696186     0.011443079
      6335.47      0.97786504     0.011432995
      6341.80      0.98701889     0.011304235
      6348.14      0.98693961     0.011251936
      6354.49      0.98571649     0.011203318
      6360.85      0.99152738     0.011139405
      6367.21      0.99357525     0.011097649
      6373.57      0.99641524     0.011059787
      6379.95      0.99976258     0.010962691
      6386.33      0.99431029     0.010982650
      6392.72      0.99706434     0.010956181
      6399.11      0.99572013     0.010874051
      6405.51      0.99645733     0.010908645
      6411.92       1.0037062     0.010836429
      6418.32       1.0098757     0.010826772
      6424.74       1.0166517     0.010821257
      6431.17       1.0171225     0.010818944
      6437.60       1.0187355     0.010821043
      6444.04       1.0300757     0.010827260
      6450.48       1.0374706     0.010783439
      6456.94       1.0388216     0.010856151
      6463.39       1.0517383     0.010823801
      6469.85       1.0638057     0.010843674
      6476.33       1.0734060     0.010930633
      6482.80       1.0863683     0.010911177
      6489.28       1.0917578     0.010941671
      6495.77       1.0989820     0.010997883
      6502.27       1.1050085     0.011034755
      6508.77       1.1106772     0.011075283
      6515.28       1.1154819     0.011074634
      6521.80       1.1222194     0.011192294
      6528.32       1.1309491     0.011198159
      6534.85       1.1367017     0.011251849
      6541.38       1.1437509     0.011381519
      6547.92       1.1440552     0.011396901
      6554.47       1.1445946     0.011459167
      6561.03       1.1487766     0.011556836
      6567.59       1.1488179     0.011623885
      6574.16       1.1413513     0.011694042
      6580.73       1.1433215     0.011802066
      6587.31       1.1339109     0.011876469
      6593.90       1.1291816     0.011910334
      6600.50       1.1100729     0.012070896
      6607.10       1.1006345     0.012109900
      6613.70       1.0981384     0.012190620
      6620.32       1.0888608     0.012360559
      6626.94       1.0845057     0.012403501
      6633.57       1.0767720     0.012489765
      6640.20       1.0601530     0.012625184
      6646.84       1.0604116     0.012713873
      6653.49       1.0587175     0.012761543
      6660.14       1.0531866     0.012945195
      6666.80       1.0516879     0.012993921
      6673.47       1.0448166     0.013182589
      6680.14       1.0426618     0.013231789
      6686.82       1.0316219     0.013327761
      6693.51       1.0285551     0.013520123
      6700.20       1.0183514     0.013570736
      6706.90       1.0100605     0.013669315
      6713.61       1.0075773     0.013816403
      6720.32       1.0115618     0.013915161
      6727.05       1.0073680     0.014063576
      6733.77      0.99884581     0.014162055
      6740.51      0.99070708     0.014210542
      6747.25      0.98083200     0.014408802
      6754.00      0.98524772     0.014455836
      6760.75      0.98205340     0.014551935
      6767.51      0.97266913     0.014699150
      6774.28      0.96465847     0.014793667
      6781.05      0.96278323     0.014939287
      6787.84      0.96255424     0.015031753
      6794.62      0.95271781     0.015070665
      6801.42      0.94339140     0.015264978
      6808.22      0.93319867     0.015299462
      6815.03      0.92806537     0.015492115
      6821.85      0.92488029     0.015521641
      6828.67      0.92036314     0.015711955
      6835.50      0.91402505     0.015735998
      6842.33      0.90710142     0.015819857
      6849.17      0.89002152     0.015941361
      6856.02      0.89258735     0.016021096
      6862.88      0.89178982     0.016136560
      6869.74      0.89520984     0.016146712
      6876.61      0.90012867     0.016320454
      6883.49      0.90597132     0.016323682
      6890.37      0.90317803     0.016388824
      6897.27      0.90458593     0.016487712
      6904.16      0.91107136     0.016547337
      6911.07      0.91500260     0.016637841
      6917.98      0.91932915     0.016691632
      6924.89      0.91157446     0.016773239
      6931.82      0.91059031     0.016820966
      6938.75      0.91458694     0.016893270
      6945.69      0.91593090     0.016860486
      6952.64      0.91288791     0.016901022
      6959.59      0.91027833     0.016956683
      6966.55      0.90486701     0.016991062
      6973.52      0.91277391     0.017037208
      6980.49      0.91820316     0.017065582
      6987.47      0.92503486     0.017102381
      6994.46      0.93540753     0.017042495
      7001.46      0.93444344     0.017152746
      7008.46      0.93298207     0.017085342
      7015.46      0.93532197     0.017189076
      7022.48      0.92848109     0.017114653
      7029.51      0.92306908     0.017212299
      7036.53      0.92291245     0.017131409
      7043.57      0.92496546     0.017138314
      7050.62      0.92599018     0.017136681
      7057.66      0.92164697     0.017136816
      7064.72      0.91575459     0.017131595
      7071.79      0.91510820     0.017125574
      7078.86      0.90762319     0.017032956
      7085.94      0.90661723     0.017105728
      7093.03      0.89813504     0.017010037
      7100.12      0.88890920     0.016993389
      7107.22      0.88361934     0.016980343
      7114.33      0.87609384     0.016959580
      7121.44      0.86805736     0.016945041
      7128.56      0.87681541     0.016920834
      7135.69      0.86978682     0.016816942
      7142.83      0.87065641     0.016878335
      7149.97      0.87116285     0.016772695
      7157.12      0.87039693     0.016747114
      7164.28      0.87005734     0.016804943
      7171.44      0.86948371     0.016699393
      7178.62      0.86951847     0.016757327
      7185.80      0.87154530     0.016651424
      7192.98      0.87742998     0.016625159
      7200.17      0.88484573     0.016604365
      7207.38      0.89997551     0.016578293
      7214.58      0.90213017     0.016478306
      7221.80      0.90774068     0.016534102
      7229.02      0.92382512     0.016437148
      7236.25      0.92785087     0.016413832
      7243.49      0.94503842     0.016472746
      7250.73      0.96001059     0.016379185
      7257.98      0.97094504     0.016361182
      7265.24      0.97026494     0.016350631
      7272.51      0.97641494     0.016335724
      7279.78      0.97504825     0.016248322
      7287.06      0.97800927     0.016318057
      7294.35      0.98240398     0.016310907
      7301.64      0.98840073     0.016230768
      7308.94      0.99341870     0.016231816
      7316.25      0.99654659     0.016230774
      7323.57      0.98398262     0.016237050
      7330.89      0.98579471     0.016248251
      7338.22      0.98728844     0.016253849
      7345.56      0.98377800     0.016271190
      7352.91      0.97364634     0.016214391
      7360.26      0.97205830     0.016239181
      7367.62      0.96469471     0.016337165
      7374.99      0.95795438     0.016290796
      7382.37      0.94365441     0.016328921
      7389.75      0.93987305     0.016357633
      7397.14      0.92392289     0.016403890
      7404.53      0.92071035     0.016456674
      7411.94      0.91912598     0.016430015
      7419.35      0.91214246     0.016557376
      7426.77      0.90623026     0.016626134
      7434.20      0.90015998     0.016612417
      7441.63      0.89726678     0.016694256
      7449.07      0.89401223     0.016748754
      7456.52      0.88920070     0.016840779
      7463.98      0.89167197     0.016940310
      7471.45      0.89340531     0.016950133
      7478.92      0.89355642     0.017117588
      7486.40      0.89102059     0.017235593
      7493.88      0.88014676     0.017259802
      7501.38      0.86275128     0.017388947
      7508.88      0.86748827     0.017581223
      7516.39      0.85856350     0.017619725
      7523.91      0.84153075     0.017767179
      7531.43      0.84275575     0.017922165
      7538.96      0.82530830     0.018029217
      7546.50      0.80450882     0.018194254
      7554.05      0.78592656     0.018366402
      7561.60      0.78306927     0.018431044
      7569.16      0.76750184     0.018614793
      7576.73      0.75722948     0.018855471
      7584.31      0.74474382     0.018929901
      7591.89      0.72923547     0.019128142
      7599.49      0.70875591     0.019332163
      7607.09      0.69645802     0.019541710
      7614.70      0.68339013     0.019678674
      7622.31      0.68926721     0.019894632
      7629.93      0.67682682     0.020115390
      7637.56      0.66131974     0.020206229
      7645.20      0.64917571     0.020431587
      7652.85      0.64951107     0.020717596
      7660.50      0.64690281     0.020815022
      7668.16      0.63531305     0.021048142
      7675.83      0.63505702     0.021284349
      7683.50      0.64529953     0.021523326
      7691.19      0.64735223     0.021624174
      7698.88      0.66952574     0.021925024
      7706.58      0.68583254     0.022167789
      7714.29      0.70371650     0.022609302
      7722.00      0.70834619     0.022947066
      7729.73      0.73550007     0.023070682
      7737.45      0.76281237     0.023098823
      7745.19      0.77906687     0.023109646
      7752.94      0.78975035     0.023405704
      7760.69      0.81219904     0.023656991
      7768.45      0.82368495     0.023957430
      7776.22      0.83360229     0.024169055
      7784.00      0.83886209     0.024534608
      7791.78      0.84780778     0.024961082
      7799.57      0.86002706     0.025576257
      7807.37      0.87933813     0.025886913
      7815.18      0.88852099     0.026110552
      7822.99      0.90447375     0.026404431
      7830.82      0.90422318     0.026755682
      7838.65      0.89831016     0.027145090
      7846.49      0.90489898     0.027414979
      7854.34      0.91474125     0.027835218
      7862.19      0.91712011     0.028253452
      7870.05      0.90158791     0.028658608
      7877.93      0.90153721     0.029299757
      7885.80      0.89388694     0.029508913
      7893.69      0.88579271     0.029806004
      7901.58      0.87700140     0.030050610
      7909.49      0.87050120     0.030238177
      7917.40      0.86271881     0.030366647
      7925.31      0.85544732     0.030285837
      7933.24      0.84711399     0.030313850
      7941.17      0.83370162     0.030292121
      7949.11      0.83603911     0.030031069
      7957.06      0.83201533     0.029942454
      7965.02      0.82826145     0.029671297
      7972.98      0.81507177     0.029572516
      7980.96      0.81129481     0.029489005
      7988.94      0.80094082     0.029442378
      7996.93      0.79747586     0.029559976
      8004.93      0.79133822     0.029687646
      8012.93      0.77741325     0.029689787
      8020.95      0.76141171     0.030232186
      8028.97      0.75628411     0.029668416
      8036.99      0.75270973     0.029160024
      8045.03      0.76151481     0.028949606
      8053.08      0.76180805     0.028852488
      8061.13      0.77263002     0.028638125
      8069.20      0.77377871     0.028579878
      8077.26      0.77700089     0.028558384
      8085.34      0.78340109     0.028589754
      8093.43      0.79353949     0.028697267
      8101.52      0.81374747     0.028916015
      8109.62      0.81034488     0.028981798
      8117.73      0.80446938     0.028548232
      8125.85      0.79855474     0.028255863
      8133.98      0.77700151     0.028197435
      8142.11      0.76271251     0.028133002
      8150.25      0.76788729     0.028063006
      8158.41      0.77007538     0.028411523
      8166.56      0.76382704     0.028777498
      8174.73      0.76122338     0.029230070
      8182.91      0.74580448     0.029031492
      8191.09      0.74874121     0.028100062
      8199.28      0.74258538     0.027595009
      8207.48      0.73408920     0.027418496
      8215.69      0.72976207     0.027687058
      8223.91      0.72096525     0.028213673
      8232.13      0.71906873     0.028056945
      8240.36      0.70540018     0.027890624
      8248.60      0.70481072     0.028296760
      8256.85      0.69434349     0.029066551
      8265.11      0.66782050     0.028810658
      8273.37      0.64417218     0.028847936
      8281.65      0.63948547     0.029200556
      8289.93      0.62104200     0.030221429
      8298.22      0.60040750     0.030125369
      8306.52      0.59353982     0.030111011
      8314.83      0.57704078     0.030352575
      8323.14      0.56345464     0.030654576
      8331.46      0.54118958     0.030982959
      8339.80      0.54452994     0.031310415
      8348.13      0.54767046     0.031614290
      8356.48      0.55234836     0.032150768
      8364.84      0.55979997     0.032287898
      8373.21      0.55804852     0.032333015
      8381.58      0.56367723     0.032150617
      8389.96      0.56037561     0.031933914
      8398.35      0.56662206     0.031140999
      8406.75      0.56261882     0.030742968
      8415.16      0.55319078     0.030301369
      8423.57      0.55021042     0.029958859
      8432.00      0.54517387     0.029524076
      8440.43      0.54170721     0.029114902
      8448.87      0.54964951     0.028755630
      8457.32      0.56062083     0.028479054
      8465.78      0.58692081     0.028335520
      8474.25      0.59753076     0.028529662
      8482.72      0.59855527     0.029131257
      8491.20      0.60383579     0.028087985
      8499.69      0.61399403     0.027380909
      8508.19      0.61910412     0.026688267
      8516.70      0.62643037     0.026296950
      8525.22      0.63907965     0.026301896
      8533.75      0.64352320     0.026477680
      8542.28      0.65032765     0.026940720
      8550.82      0.65293044     0.026887397
      8559.37      0.66028870     0.026472504
      8567.93      0.65976011     0.026594137
      8576.50      0.66919329     0.027123332
      8585.08      0.66581752     0.027159966
      8593.66      0.67117872     0.026834485
      8602.26      0.68792243     0.027204418
      8610.86      0.70378083     0.027708659
      8619.47      0.69910485     0.028049090
      8628.09      0.69198661     0.027826057
      8636.72      0.69645201     0.028016897
      8645.36      0.69127346     0.028285432
      8654.00      0.68614022     0.028561706
      8662.66      0.67897515     0.028988893
      8671.32      0.69099506     0.029520659
      8679.99      0.67916776     0.029496899
      8688.67      0.66398401     0.029692969
      8697.36      0.64309201     0.029943359
      8706.06      0.63215321     0.030237595
      8714.76      0.62151245     0.030567460
      8723.48      0.61298659     0.030926363
      8732.21      0.60155438     0.031559053
      8740.93      0.57773870     0.032049892
      8749.68      0.55632177     0.032294975
      8758.43      0.54845278     0.032622238
      8767.19      0.52851994     0.032891689
      8775.96      0.51324096     0.033324780
      8784.73      0.51445255     0.033784489
      8793.52      0.49240964     0.034260534
      8802.31      0.47357485     0.034679807
      8811.11      0.44660193     0.035150412
      8819.92      0.43216438     0.035775420
      8828.75      0.42997078     0.036206497
      8837.57      0.41108476     0.036499750
      8846.41      0.40279028     0.037022606
      8855.26      0.40092918     0.037270989
      8864.12      0.40437451     0.037454684
      8872.98      0.40022933     0.037399167
      8881.85      0.40473301     0.037428959
      8890.73      0.41718133     0.037546622
      8899.63      0.41532315     0.037067300
      8908.52      0.42817492     0.036831769
      8917.43      0.44819629     0.036535936
      8926.35      0.45526919     0.036186030
      8935.28      0.43991080     0.035557220
      8944.22      0.42914226     0.035245649
      8953.16      0.41143063     0.034762255
      8962.11      0.39687344     0.034016481
      8971.08      0.37865532     0.033484596
      8980.05      0.38580510     0.033388917
      8989.03      0.39066089     0.033595598
      8998.02      0.39432516     0.033972655
      9007.02      0.39589400     0.034360730
      9016.02      0.39365055     0.034670655
      9025.04      0.39878795     0.034909683
      9034.07      0.40226681     0.035264029
      9043.10      0.41009745     0.035854116
      9052.14      0.42909052     0.036798296
      9061.20      0.42822687     0.037700938
      9070.26      0.43041719     0.039580263
      9079.33      0.40486628     0.041653221
      9088.41      0.42104866     0.044390053
      9097.50      0.43550376     0.047799816
