# starting wavelength =        3394.4700
# ending wavelength =        9726.8300
# O2 telluric scale =        0
# O2 telluric shift =        0
# H2O telluric scale =        0
# H2O telluric shift =        0
      3395.48    -0.014128725     0.031951387
      3398.88   -0.0087001617     0.026961184
      3402.28    0.0021410225     0.023097855
      3405.68     0.011627023     0.020937591
      3409.09     0.018661582     0.018412517
      3412.49     0.022691803     0.015931493
      3415.91     0.025761215     0.014518422
      3419.32     0.034993797     0.013417779
      3422.74     0.042711091     0.012785510
      3426.17     0.051541263     0.012058590
      3429.59     0.057654549     0.011479311
      3433.02     0.068301619     0.010944469
      3436.45     0.075041433     0.010586978
      3439.89     0.074513499     0.010285055
      3443.33     0.075079600     0.010116723
      3446.78     0.083504022    0.0098822576
      3450.22     0.088151994    0.0096749545
      3453.67     0.090237675    0.0095487139
      3457.13     0.094623786    0.0093879692
      3460.58     0.092460892    0.0093086025
      3464.04     0.094947210    0.0093011672
      3467.51     0.093105945    0.0092913424
      3470.98     0.089392009    0.0092824572
      3474.45     0.088758443    0.0092742921
      3477.92     0.084164664    0.0093373087
      3481.40     0.078955627    0.0093276584
      3484.88     0.073541444    0.0092480551
      3488.37     0.068308318    0.0093130548
      3491.86     0.067332882    0.0093026640
      3495.35     0.066955057    0.0092929651
      3498.84     0.064191837    0.0093565007
      3502.34     0.064184340    0.0093481250
      3505.84     0.060243511    0.0092682349
      3509.35     0.058762788    0.0092584107
      3512.86     0.057425649    0.0093214600
      3516.37     0.052443616    0.0093128869
      3519.89     0.050563976    0.0093049518
      3523.41     0.051591017    0.0093693646
      3526.93     0.050866251    0.0092865330
      3530.46     0.047963630    0.0092777404
      3533.99     0.044142692    0.0093450515
      3537.53     0.043042023    0.0093347147
      3541.06     0.042588291    0.0093250197
      3544.60     0.047438183    0.0093159608
      3548.15     0.047244422    0.0093825006
      3551.70     0.048355197    0.0093007855
      3555.25     0.054200480    0.0092907355
      3558.80     0.059869928    0.0093558638
      3562.36     0.057152617    0.0093468824
      3565.92     0.061148959    0.0093384659
      3569.49     0.074480336    0.0093305873
      3573.06     0.080054299    0.0093972845
      3576.64     0.084965786    0.0093116695
      3580.21     0.092414513    0.0093027094
      3583.79     0.093198281    0.0092942923
      3587.38     0.095289979    0.0093630020
      3590.96     0.095455607    0.0093530059
      3594.55     0.099867256    0.0093435348
      3598.15     0.093736277    0.0093345644
      3601.75     0.093298683    0.0094034309
      3605.35     0.092767158    0.0093192863
      3608.96     0.088088836    0.0093092453
      3612.56     0.091832079    0.0093768139
      3616.18     0.089966952    0.0093676163
      3619.79     0.088150498    0.0093588619
      3623.41     0.089548803    0.0093505436
      3627.04     0.087331116    0.0094218324
      3630.66     0.085939730    0.0094118365
      3634.29     0.081560999    0.0094022693
      3637.93     0.082947951    0.0093931142
      3641.57     0.079026747    0.0093055562
      3645.21     0.072626433    0.0093782770
      3648.86     0.067506173    0.0093679384
      3652.50     0.063802175    0.0093579909
      3656.16     0.059754893    0.0093484275
      3659.81     0.055920807    0.0094190973
      3663.47     0.055231242    0.0094102308
      3667.14     0.057470836    0.0094017295
      3670.80     0.061089041    0.0093935951
      3674.48     0.059975371    0.0094665020
      3678.15     0.062084195    0.0094567542
      3681.83     0.066523797    0.0094474001
      3685.51     0.073799030    0.0094384312
      3689.20     0.075183587    0.0094341369
      3692.88     0.078171689    0.0094235099
      3696.58     0.080695697    0.0094132211
      3700.27     0.078144793    0.0094032522
      3703.98     0.076709348    0.0093935874
      3707.68     0.077470983    0.0094671812
      3711.39     0.072696528    0.0094580372
      3715.10     0.073001817    0.0094491696
      3718.81     0.067987766    0.0094405722
      3722.53     0.069945744    0.0094322465
      3726.26     0.073711192    0.0095091699
      3729.98     0.075585230    0.0094991217
      3733.71     0.073249875    0.0094893948
      3737.45     0.066623659    0.0094799669
      3741.18     0.063824725    0.0094708115
      3744.93     0.060246109    0.0095484351
      3748.67     0.055756199    0.0095397252
      3752.42     0.046502155    0.0095312537
      3756.17     0.043535041    0.0095229852
      3759.93     0.037645243    0.0095149086
      3763.69     0.029063195    0.0095933134
      3767.45     0.021647633    0.0095836828
      3771.22     0.020418679    0.0095742420
      3774.99     0.017213800    0.0095649767
      3778.77     0.013652645    0.0095558756
      3782.54     0.011476078    0.0096373630
      3786.33     0.011401311    0.0096285182
      3790.11     0.014179239    0.0096198138
      3793.90     0.015557506    0.0096112604
      3797.70     0.022343396    0.0096028239
      3801.50     0.024744931    0.0095945101
      3805.30     0.029233342    0.0096757043
      3809.10     0.037595909    0.0096659622
      3812.91     0.040115129    0.0096563805
      3816.73     0.045885174    0.0096469597
      3820.54     0.054988637    0.0096377034
      3824.36     0.061725939    0.0096286240
      3828.19     0.067051662    0.0097141721
      3832.02     0.065319788    0.0097051798
      3835.85     0.065907627    0.0096962981
      3839.68     0.071339711    0.0096874902
      3843.52     0.078640413    0.0096787631
      3847.37     0.084904568    0.0096701060
      3851.22     0.088724890    0.0097576046
      3855.07     0.099227854    0.0097477197
      3858.92      0.10427559    0.0097379304
      3862.78      0.11229587    0.0097282276
      3866.64      0.11554511    0.0097186038
      3870.51      0.12632482    0.0097090520
      3874.38      0.13114236    0.0096993796
      3878.26      0.13764433    0.0097887733
      3882.13      0.14239304    0.0097792611
      3886.02      0.14622466    0.0097698584
      3889.90      0.14832110    0.0097605398
      3893.79      0.15067163    0.0097512876
      3897.69      0.14896978    0.0097420931
      3901.59      0.15326594    0.0097329145
      3905.49      0.15533559    0.0098319496
      3909.39      0.15225622    0.0099238707
      3913.30      0.14755592    0.0099145503
      3917.22      0.14556568    0.0099052079
      3921.13      0.14521480    0.0098958343
      3925.06      0.14605263    0.0098864383
      3928.98      0.14958163    0.0098770315
      3932.91      0.15919323    0.0098675737
      3936.84      0.16231420    0.0099675973
      3940.78      0.16425253    0.0099575523
      3944.72      0.16839080    0.0099475506
      3948.67      0.16813557    0.0099375964
      3952.61      0.17225257    0.0099276997
      3956.57      0.16990744    0.0099178886
      3960.52      0.17954213     0.010022275
      3964.48      0.17700051     0.010012779
      3968.45      0.18151985     0.010003021
      3972.42      0.18026403     0.010106747
      3976.39      0.17930498     0.010096862
      3980.37      0.17951468     0.010087007
      3984.35      0.18005578     0.010077172
      3988.33      0.18488245     0.010067372
      3992.32      0.18645561     0.010057603
      3996.31      0.18464978     0.010168453
      4000.31      0.18783690     0.010158216
      4004.31      0.18640921     0.010147982
      4008.31      0.18553721     0.010137699
      4012.32      0.18503472     0.010251073
      4016.33      0.18465005     0.010241312
      4020.35      0.18277301     0.010231615
      4024.37      0.17309966     0.010221974
      4028.40      0.16808973     0.010335722
      4032.42      0.16342839     0.010324975
      4036.46      0.16628495     0.010314353
      4040.50      0.17205372     0.010303825
      4044.54      0.17387756     0.010293363
      4048.58      0.17927124     0.010282974
      4052.63      0.17636219     0.010272589
      4056.68      0.17596208     0.010139899
      4060.74      0.17483319     0.010129720
      4064.80      0.17343582     0.010119547
      4068.86      0.17214041     0.010109400
      4072.93      0.17333866     0.010099293
      4077.01      0.16886784     0.010089240
      4081.08      0.16370732     0.010079268
      4085.17      0.16448663     0.010069391
      4089.25      0.16384831     0.010059644
      4093.34      0.16218251     0.010050061
      4097.43      0.16105276     0.010040680
      4101.53      0.15382036     0.010031544
      4105.63      0.15466239     0.010022702
      4109.74      0.15419695    0.0098908403
      4113.85      0.16700672    0.0098801509
      4117.96      0.16970003    0.0098695756
      4122.08      0.17049349    0.0098591572
      4126.20      0.17491079    0.0098489184
      4130.33      0.17234993    0.0098388456
      4134.46      0.16964025    0.0098289666
      4138.59      0.16617124    0.0099419912
      4142.73      0.16166903    0.0099324176
      4146.88      0.15687548    0.0099230960
      4151.02      0.14926125    0.0097985614
      4155.18      0.14175615    0.0097871337
      4159.33      0.13427875    0.0097759640
      4163.49      0.12720559    0.0097650224
      4167.65      0.12013241    0.0097543512
      4171.82      0.11540109    0.0097439780
      4175.99      0.11604643    0.0097336562
      4180.17      0.11805470    0.0097237872
      4184.35      0.11904993    0.0097143531
      4188.54      0.12384384    0.0095948877
      4192.72      0.13359789    0.0097032531
      4196.92      0.13775616    0.0096917100
      4201.11      0.14551760    0.0096805232
      4205.31      0.15724766    0.0096697173
      4209.52      0.16140274    0.0096592634
      4213.73      0.16686463    0.0096491947
      4217.94      0.17577375    0.0095297175
      4222.16      0.18047536    0.0095206024
      4226.38      0.18281840    0.0095119139
      4230.61      0.18145392    0.0095036806
      4234.84      0.17651119    0.0096054299
      4239.08      0.17264238    0.0095943025
      4243.32      0.16911936    0.0095837156
      4247.56      0.17081985    0.0094648559
      4251.81      0.17381872    0.0094556735
      4256.06      0.17732995    0.0094471450
      4260.32      0.17421351    0.0094390400
      4264.58      0.17272125    0.0094315416
      4268.84      0.17607780    0.0094246774
      4273.11      0.17411530    0.0094108134
      4277.38      0.17859458    0.0094011413
      4281.66      0.18771696    0.0093921227
      4285.94      0.18839134    0.0093837816
      4290.23      0.19222460    0.0093761419
      4294.52      0.19450009    0.0092573498
      4298.81      0.19906299    0.0092469811
      4303.11      0.19953091    0.0093470409
      4307.42      0.19567322    0.0093379478
      4311.72      0.19142569    0.0093296411
      4316.04      0.19002552    0.0093219257
      4320.35      0.18685656    0.0092036385
      4324.67      0.18334754    0.0091933529
      4329.00      0.18429388    0.0091839333
      4333.33      0.18111381    0.0092844173
      4337.66      0.17923469    0.0092766509
      4342.00      0.17818660    0.0091612073
      4346.34      0.17757458    0.0091505124
      4350.69      0.17892815    0.0091407007
      4355.04      0.17399241    0.0091317965
      4359.39      0.17634599    0.0091302171
      4363.75      0.18064639    0.0091181590
      4368.12      0.17426810    0.0091070876
      4372.48      0.17447694    0.0090969965
      4376.86      0.17646264    0.0090879350
      4381.23      0.17258656    0.0090863120
      4385.61      0.16616999    0.0090742123
      4390.00      0.15977879    0.0090632661
      4394.39      0.15955536    0.0090535123
      4398.79      0.15497405    0.0089465234
      4403.18      0.14975489    0.0089391103
      4407.59      0.14321270    0.0090307273
      4412.00      0.13883275    0.0090201533
      4416.41      0.13311616    0.0089126393
      4420.82      0.13214308    0.0089046841
      4425.25      0.13217178    0.0088979520
      4429.67      0.13089917    0.0089868008
      4434.10      0.13317213    0.0088792241
      4438.54      0.13708219    0.0088709135
      4442.97      0.14683968    0.0088639057
      4447.42      0.15229672    0.0089537489
      4451.86      0.15973633    0.0088461300
      4456.32      0.16883342    0.0088374481
      4460.77      0.18319220    0.0088304036
      4465.24      0.19340180    0.0088247779
      4469.70      0.20582326    0.0088129274
      4474.17      0.21663762    0.0088043928
      4478.65      0.22697793    0.0087974026
      4483.12      0.23615493    0.0086915195
      4487.61      0.24164119    0.0087804353
      4492.09      0.24809440    0.0087721556
      4496.59      0.25594080    0.0087654684
      4501.08      0.25819568    0.0086591658
      4505.58      0.26342363    0.0087478062
      4510.09      0.27042194    0.0087398840
      4514.60      0.27572595    0.0086370173
      4519.12      0.28198534    0.0086264409
      4523.63      0.29216827    0.0087153298
      4528.16      0.30146120    0.0087080389
      4532.69      0.30690838    0.0086037546
      4537.22      0.32269111    0.0085939289
      4541.76      0.33629685    0.0086833351
      4546.30      0.35441431    0.0085816607
      4550.85      0.36551973    0.0085710651
      4555.40      0.37801051    0.0085624256
      4559.95      0.38684250    0.0085601298
      4564.51      0.39751114    0.0085486255
      4569.08      0.40552433    0.0085390800
      4573.65      0.40797469    0.0084425292
      4578.22      0.41902256    0.0085264389
      4582.80      0.42217164    0.0085163104
      4587.38      0.42029598    0.0084193769
      4591.97      0.41797314    0.0085041242
      4596.56      0.41774861    0.0084934957
      4601.16      0.41948749    0.0083965443
      4605.76      0.41986215    0.0084818063
      4610.37      0.42239544    0.0084707819
      4614.98      0.41691138    0.0083737624
      4619.59      0.41508181    0.0083674285
      4624.21      0.41757282    0.0084483655
      4628.84      0.41595161    0.0083515047
      4633.47      0.41368362    0.0083451630
      4638.10      0.41035816    0.0084261461
      4642.74      0.40821034    0.0083295724
      4647.38      0.40137953    0.0083233010
      4652.03      0.39363417    0.0084037082
      4656.68      0.38533599    0.0083073878
      4661.34      0.37771287    0.0083012762
      4666.00      0.37231252    0.0082935982
      4670.67      0.35908208    0.0082853598
      4675.33      0.35001777    0.0082796180
      4680.01      0.33855518    0.0082711233
      4684.69      0.33479010    0.0082634436
      4689.38      0.33126719    0.0082584052
      4694.07      0.32833439    0.0082494488
      4698.76      0.32343414    0.0082424346
      4703.46      0.31663139    0.0081481303
      4708.16      0.31766196    0.0082277831
      4712.87      0.31995892    0.0082216131
      4717.58      0.32252551    0.0081263144
      4722.30      0.32301176    0.0082065428
      4727.03      0.32316049    0.0081142672
      4731.75      0.32431181    0.0081046972
      4736.48      0.32347895    0.0081858488
      4741.22      0.31797838    0.0080921903
      4745.96      0.31358618    0.0080835999
      4750.71      0.30464414    0.0080803527
      4755.46      0.29838408    0.0080703307
      4760.22      0.29044767    0.0081508532
      4764.97      0.28375973    0.0080581402
      4769.74      0.27722503    0.0080496134
      4774.51      0.27606036    0.0080467729
      4779.29      0.27461454    0.0080367798
      4784.07      0.27680582    0.0079494257
      4788.85      0.27177265    0.0080245306
      4793.64      0.27747803    0.0080162164
      4798.43      0.28193512    0.0080127536
      4803.23      0.28786692    0.0080030684
      4808.03      0.29720008    0.0079165928
      4812.84      0.30488167    0.0079904358
      4817.66      0.31039923    0.0079029942
      4822.48      0.31821830    0.0079782698
      4827.30      0.31478257    0.0078898169
      4832.12      0.31610654    0.0078846775
      4836.96      0.31721921    0.0078774609
      4841.79      0.31481018    0.0078713666
      4846.63      0.31314797    0.0079448468
      4851.48      0.30720322    0.0078582340
      4856.33      0.30123531    0.0078546609
      4861.19      0.29482031    0.0078454485
      4866.05      0.29450421    0.0078411276
      4870.92      0.28918207    0.0078329561
      4875.79      0.29094274    0.0078279101
      4880.66      0.28954687    0.0078206901
      4885.55      0.29423500    0.0078148645
      4890.43      0.29831232    0.0077280485
      4895.32      0.31344819    0.0078023568
      4900.22      0.33407932    0.0077162079
      4905.12      0.35235280    0.0077897500
      4910.02      0.36871289    0.0077045249
      4914.94      0.38732320    0.0077776868
      4919.85      0.40749573    0.0076930554
      4924.77      0.42917428    0.0077656621
      4929.70      0.44502893    0.0076815868
      4934.62      0.46290285    0.0077538890
      4939.56      0.47739875    0.0076701199
      4944.50      0.48427005    0.0076621663
      4949.44      0.48523001    0.0076585423
      4954.39      0.48794985    0.0076504634
      4959.35      0.48062501    0.0076469281
      4964.31      0.46524758    0.0076387726
      4969.27      0.45155207    0.0076353383
      4974.24      0.43077493    0.0076272832
      4979.22      0.40955597    0.0076238958
      4984.20      0.39509723    0.0076158474
      4989.18      0.37951299    0.0076124510
      4994.17      0.36098909    0.0075316969
      4999.16      0.34040037    0.0076010818
      5004.16      0.32452747    0.0075207014
      5009.17      0.31528848    0.0075897744
      5014.18      0.31156480    0.0075098084
      5019.19      0.30215964    0.0075783545
      5024.21      0.30947596    0.0074990623
      5029.23      0.31889949    0.0075672013
      5034.26      0.32153469    0.0074885065
      5039.30      0.32518820    0.0075558846
      5044.34      0.33988317    0.0074779237
      5049.39      0.34880868    0.0074724010
      5054.43      0.34514212    0.0074679632
      5059.49      0.35132767    0.0074618357
      5064.55      0.36247175    0.0074582216
      5069.61      0.37072644    0.0074516288
      5074.68      0.37550336    0.0074489321
      5079.76      0.38391514    0.0074414955
      5084.84      0.39513378    0.0073634098
      5089.92      0.39808183    0.0074317006
      5095.01      0.40583503    0.0074264456
      5100.11      0.41864413    0.0074220768
      5105.21      0.44155463    0.0074160990
      5110.31      0.45945437    0.0073392966
      5115.42      0.47550570    0.0074059918
      5120.54      0.50018286    0.0073285130
      5125.66      0.52038079    0.0073966069
      5130.79      0.53184731    0.0073183266
      5135.92      0.54862715    0.0073160629
      5141.05      0.55999900    0.0073086916
      5146.20      0.55416901    0.0073052038
      5151.34      0.54975173    0.0073725780
      5156.49      0.55373604    0.0072950164
      5161.65      0.54849581    0.0072928682
      5166.81      0.55356999    0.0072853179
      5171.98      0.54195755    0.0072821557
      5177.15      0.54361946    0.0072090528
      5182.33      0.54732318    0.0072718655
      5187.51      0.54853065    0.0072697988
      5192.70      0.55650401    0.0071955001
      5197.89      0.56907631    0.0072592458
      5203.09      0.58313631    0.0071871264
      5208.29      0.60113425    0.0072496188
      5213.50      0.61933474    0.0072471807
      5218.72      0.63673925    0.0071740523
      5223.93      0.65236108    0.0072371527
      5229.16      0.66600321    0.0071664977
      5234.39      0.68428783    0.0071613187
      5239.62      0.69476077    0.0072248263
      5244.86      0.69998535    0.0071534961
      5250.11      0.70505386    0.0071488025
      5255.36      0.71561573    0.0071467101
      5260.61      0.71659825    0.0071408415
      5265.87      0.73672956    0.0071365939
      5271.14      0.74000930    0.0071341765
      5276.41      0.74895104    0.0071288095
      5281.69      0.76115540    0.0071248838
      5286.97      0.77811833    0.0070544774
      5292.26      0.79224223    0.0071170742
      5297.55      0.80859770    0.0071133625
      5302.85      0.82010231    0.0070431761
      5308.15      0.84167520    0.0071056498
      5313.46      0.85320264    0.0070340681
      5318.77      0.86664806    0.0070318712
      5324.09      0.87518630    0.0070945371
      5329.42      0.88208174    0.0070229258
      5334.75      0.88982397    0.0070205260
      5340.08      0.89106376    0.0070194726
      5345.42      0.88758970    0.0070121431
      5350.77      0.88019447    0.0070096721
      5356.12      0.86795331    0.0070084119
      5361.48      0.85603485    0.0070018697
      5366.83      0.85489039    0.0069991176
      5372.20      0.84536546    0.0069974779
      5377.58      0.83889248    0.0069297295
      5382.95      0.83752961    0.0069887110
      5388.34      0.83959342    0.0069866223
      5393.72      0.84601185    0.0069201850
      5399.12      0.85815276    0.0069166323
      5404.52      0.87415579    0.0069760024
      5409.92      0.89605640    0.0069744403
      5415.33      0.91786488    0.0069071773
      5420.75      0.94268139    0.0069040741
      5426.17      0.96926084    0.0069639638
      5431.60      0.99490535    0.0068987180
      5437.03       1.0252421    0.0068951718
      5442.47       1.0511910    0.0068925025
      5447.91       1.0704388    0.0069525049
      5453.36       1.0833197    0.0068869305
      5458.81       1.0933737    0.0068836477
      5464.27       1.1018091    0.0068811677
      5469.73       1.1065366    0.0068796610
      5475.20       1.1038632    0.0068756341
      5480.68       1.0960699    0.0068725571
      5486.16       1.0907508    0.0068701479
      5491.65       1.0836154    0.0068051588
      5497.14       1.0735654    0.0068654830
      5502.64       1.0619653    0.0068623627
      5508.14       1.0526203    0.0068600204
      5513.65       1.0426060    0.0067949048
      5519.16       1.0328906    0.0067937000
      5524.68       1.0222569    0.0068527849
      5530.20       1.0130849    0.0068500954
      5535.73      0.99993893    0.0067848150
      5541.27      0.98981780    0.0067833184
      5546.81      0.97490490    0.0067823372
      5552.36      0.96718897    0.0067818867
      5557.91      0.96320968    0.0067753129
      5563.47      0.95616934    0.0067735335
      5569.04      0.95048511    0.0067723313
      5574.60      0.94362685    0.0067716811
      5580.18      0.94372874    0.0067092179
      5585.76      0.94134891    0.0067071316
      5591.35      0.94048837    0.0067633523
      5596.94      0.93053991    0.0067620631
      5602.53      0.91803996    0.0067612930
      5608.14      0.90032559    0.0066996938
      5613.75      0.88414857    0.0066976202
      5619.36      0.85813984    0.0066959349
      5624.98      0.82462152    0.0067523227
      5630.60      0.78681022    0.0067513631
      5636.23      0.74171311    0.0066915429
      5641.87      0.68776227    0.0066894194
      5647.51      0.62902572    0.0066877105
      5653.16      0.57577375    0.0066861964
      5658.82      0.53475813    0.0066850764
      5664.47      0.49436461    0.0066841234
      5670.14      0.45932565    0.0066827948
      5675.81      0.43154832    0.0066808120
      5681.48      0.40864276    0.0066789863
      5687.17      0.40112922    0.0066775243
      5692.85      0.40103133    0.0066761973
      5698.55      0.40614059    0.0066752044
      5704.25      0.42082540    0.0066147626
      5709.95      0.44157254    0.0066142175
      5715.66      0.46419284    0.0066139018
      5721.38      0.50233693    0.0066137087
      5727.10      0.53754552    0.0066693172
      5732.83      0.57165265    0.0066682174
      5738.56      0.60913640    0.0066077501
      5744.30      0.64345855    0.0066069324
      5750.04      0.67335039    0.0066063954
      5755.79      0.70801586    0.0066058803
      5761.55      0.74736711    0.0066054812
      5767.31      0.78238210    0.0066052985
      5773.08      0.82071442    0.0066054731
      5778.85      0.86283700    0.0066061341
      5784.63      0.90695991    0.0065486956
      5790.41      0.94152026    0.0065488610
      5796.21      0.98308974    0.0065488287
      5802.00       1.0168957    0.0065493550
      5807.81       1.0458071    0.0065510729
      5813.61       1.0784557    0.0066084738
      5819.43       1.1052388    0.0066140898
      5825.25       1.1370644    0.0066202023
      5831.07       1.1760810    0.0066264832
      5836.90       1.1990067    0.0066336855
      5842.74       1.2267211    0.0065835135
      5848.58       1.2396381    0.0065884456
      5854.43       1.2512228    0.0065912392
      5860.29       1.2587841    0.0065929090
      5866.15       1.2644475    0.0065938582
      5872.01       1.2726183    0.0065936732
      5877.89       1.2850598    0.0065923817
      5883.76       1.2979641    0.0065908222
      5889.65       1.3103213    0.0065897839
      5895.54       1.3185696    0.0065890379
      5901.43       1.3189317    0.0065876082
      5907.34       1.3237017    0.0065854338
      5913.24       1.3257197    0.0065825061
      5919.16       1.3266186    0.0065792928
      5925.08       1.3225386    0.0065197028
      5931.00       1.3248079    0.0065165901
      5936.93       1.3273396    0.0065124672
      5942.87       1.3269430    0.0065081152
      5948.81       1.3224894    0.0065052179
      5954.76       1.3157912    0.0065034342
      5960.72       1.2915834    0.0065009619
      5966.68       1.2788097    0.0064980933
      5972.64       1.2630278    0.0064962856
      5978.62       1.2438136    0.0064953745
      5984.60       1.2273321    0.0064949833
      5990.58       1.2082693    0.0064948131
      5996.57       1.1903737    0.0064434228
      6002.57       1.1766407    0.0064440174
      6008.57       1.1616334    0.0064448025
      6014.58       1.1470484    0.0064456017
      6020.60       1.1339885    0.0064464353
      6026.62       1.1205262    0.0064474046
      6032.65       1.1035501    0.0064484913
      6038.68       1.0843914    0.0064495821
      6044.72       1.0689490    0.0064507958
      6050.76       1.0538993    0.0064520800
      6056.81       1.0434614    0.0064533891
      6062.87       1.0334543    0.0064548742
      6068.93       1.0188957    0.0064563790
      6075.00       1.0038668    0.0064580457
      6081.08      0.99800446    0.0064067627
      6087.16      0.99010141    0.0064079716
      6093.25      0.98370518    0.0064092280
      6099.34      0.98818280    0.0064105321
      6105.44      0.99557217    0.0064119124
      6111.54       1.0096618    0.0064133477
      6117.66       1.0262980    0.0064692705
      6123.78       1.0427983    0.0064708512
      6129.90       1.0678920    0.0064726244
      6136.03       1.0933985    0.0064242917
      6142.17       1.1144972    0.0064254535
      6148.31       1.1357460    0.0064267647
      6154.46       1.1581505    0.0064283347
      6160.61       1.1736711    0.0064305157
      6166.77       1.1974314    0.0064346472
      6172.94       1.2190768    0.0064395437
      6179.11       1.2326477    0.0064413411
      6185.29       1.2394287    0.0063948801
      6191.48       1.2405384    0.0064011693
      6197.67       1.2481643    0.0064110406
      6203.87       1.2416075    0.0064789163
      6210.07       1.2394638    0.0064946470
      6216.28       1.2360273    0.0065117975
      6222.50       1.2267346    0.0065288586
      6228.72       1.2088921    0.0064948934
      6234.95       1.1909480    0.0065067940
      6241.19       1.1718095    0.0065148053
      6247.42       1.1526058    0.0065181883
      6253.67       1.1265569    0.0065171536
      6259.93       1.0983811    0.0064571091
      6266.19       1.0726117    0.0064997702
      6272.46       1.0545963    0.0064897865
      6278.73       1.0330047    0.0064818770
      6285.01       1.0219859    0.0064781004
      6291.29       1.0083897    0.0064253468
      6297.58       1.0000619    0.0064205087
      6303.88      0.99066157    0.0064162340
      6310.19      0.98571764    0.0064663738
      6316.50      0.99282247    0.0064653298
      6322.81      0.99544708    0.0064156486
      6329.14       1.0052329    0.0064146601
      6335.47       1.0181346    0.0064144662
      6341.80       1.0316814    0.0064150867
      6348.14       1.0481488    0.0064166471
      6354.49       1.0663433    0.0064230926
      6360.85       1.0824717    0.0064249621
      6367.21       1.1001697    0.0064274756
      6373.57       1.1179639    0.0064304345
      6379.95       1.1370115    0.0063869776
      6386.33       1.1559036    0.0064439533
      6392.72       1.1786958    0.0064493018
      6399.11       1.1985234    0.0064568654
      6405.51       1.2193074    0.0064190045
      6411.92       1.2441585    0.0064272565
      6418.32       1.2664005    0.0064351293
      6424.74       1.2838380    0.0064934062
      6431.17       1.3037965    0.0064519163
      6437.60       1.3209809    0.0064576223
      6444.04       1.3339331    0.0064623931
      6450.48       1.3433452    0.0065154399
      6456.94       1.3551615    0.0064682439
      6463.39       1.3659891    0.0064695935
      6469.85       1.3772737    0.0064716435
      6476.33       1.3826529    0.0064244583
      6482.80       1.3841269    0.0064785277
      6489.28       1.3837654    0.0064821103
      6495.77       1.3828439    0.0064367696
      6502.27       1.3761977    0.0064378456
      6508.77       1.3743599    0.0064900897
      6515.28       1.3668149    0.0064918002
      6521.80       1.3548910    0.0064449081
      6528.32       1.3466718    0.0064468204
      6534.85       1.3380444    0.0064992992
      6541.38       1.3251235    0.0064520618
      6547.92       1.3156612    0.0064531376
      6554.47       1.3073188    0.0064557713
      6561.03       1.2965291    0.0064636729
      6567.59       1.2879411    0.0064663298
      6574.16       1.2802145    0.0064699881
      6580.73       1.2748718    0.0064283603
      6587.31       1.2672005    0.0064823923
      6593.90       1.2578516    0.0064862399
      6600.50       1.2475848    0.0064445726
      6607.10       1.2361015    0.0064990716
      6613.70       1.2207169    0.0064566962
      6620.32       1.2053138    0.0064616024
      6626.94       1.1889814    0.0065165076
      6633.57       1.1738755    0.0064741181
      6640.20       1.1522667    0.0064792627
      6646.84       1.1320823    0.0064853022
      6653.49       1.1162227    0.0064921520
      6660.14       1.1007009    0.0064975651
      6666.80       1.0872688    0.0064556077
      6673.47       1.0731804    0.0065106208
      6680.14       1.0630716    0.0065163405
      6686.82       1.0498216    0.0064739343
      6693.51       1.0443970    0.0065294432
      6700.20       1.0345722    0.0064883102
      6706.90       1.0275194    0.0064925886
      6713.61       1.0218458    0.0065487037
      6720.32       1.0174247    0.0065069401
      6727.05       1.0170679    0.0065117376
      6733.77       1.0170965    0.0065221187
      6740.51       1.0113745    0.0065287901
      6747.25       1.0087477    0.0065980717
      6754.00       1.0058502    0.0065819030
      6760.75      0.99637546    0.0065897862
      6767.51      0.98421352    0.0065943453
      6774.28      0.97067418    0.0066158917
      6781.05      0.95879573    0.0066232146
      6787.84      0.94538864    0.0067472703
      6794.62      0.92801393    0.0067943233
      6801.42      0.90838728    0.0069616493
      6808.22      0.89003578    0.0070230597
      6815.03      0.87105303    0.0071186499
      6821.85      0.85504836    0.0072742679
      6828.67      0.84259267    0.0072775467
      6835.50      0.83556962    0.0073634050
      6842.33      0.83493144    0.0072911842
      6849.17      0.83699821    0.0072516172
      6856.02      0.84810065    0.0071705673
      6862.88      0.85012911    0.0071014818
      6869.74      0.86166406    0.0070177509
      6876.61      0.87043221    0.0069761847
      6883.49      0.88203825    0.0068970837
      6890.37      0.89383550    0.0069074189
      6897.27      0.90742724    0.0068180235
      6904.16      0.92073262    0.0068440085
      6911.07      0.93950014    0.0067817904
      6917.98      0.95192938    0.0068159271
      6924.89      0.96187540    0.0067607500
      6931.82      0.97069735    0.0068057328
      6938.75      0.97995244    0.0067604052
      6945.69      0.98552320    0.0067643508
      6952.64      0.99092881    0.0067741545
      6959.59      0.99771188    0.0067327576
      6966.55      0.99808252    0.0067855973
      6973.52      0.99802838    0.0067403197
      6980.49      0.99467895    0.0067874353
      6987.47      0.98785199    0.0067404093
      6994.46      0.97809383    0.0067894538
      7001.46      0.97429329    0.0067453807
      7008.46      0.96362540    0.0067954757
      7015.46      0.96046432    0.0067512986
      7022.48      0.95204871    0.0067563224
      7029.51      0.94543695    0.0067605755
      7036.53      0.93853260    0.0067688818
      7043.57      0.93590988    0.0067784035
      7050.62      0.92788213    0.0067954551
      7057.66      0.92388575    0.0068096389
      7064.72      0.92254365    0.0068290755
      7071.79      0.92248891    0.0068009787
      7078.86      0.92107134    0.0068774614
      7085.94      0.92297486    0.0068700536
      7093.03      0.92796977    0.0069714946
      7100.12      0.93110954    0.0070002725
      7107.22      0.93832888    0.0071007529
      7114.33      0.94287406    0.0072358761
      7121.44      0.94906742    0.0072590271
      7128.56      0.96136635    0.0073240450
      7135.69      0.97503360    0.0073548400
      7142.83      0.98846213    0.0073846307
      7149.97       1.0074837    0.0073932831
      7157.12       1.0252218    0.0073936859
      7164.28       1.0533903    0.0073388073
      7171.44       1.0804600    0.0073800069
      7178.62       1.1103125    0.0073868382
      7185.80       1.1390045    0.0073506106
      7192.98       1.1692797    0.0074220174
      7200.17       1.2040942    0.0073858829
      7207.38       1.2359807    0.0073991809
      7214.58       1.2602643    0.0074523418
      7221.80       1.2768634    0.0073881615
      7229.02       1.2921852    0.0073649397
      7236.25       1.3025818    0.0073483301
      7243.49       1.3094604    0.0073286763
      7250.73       1.3054527    0.0073067970
      7257.98       1.3051405    0.0072843908
      7265.24       1.3043303    0.0072519019
      7272.51       1.3022927    0.0071754748
      7279.78       1.3010778    0.0072029745
      7287.06       1.3006559    0.0071832981
      7294.35       1.2994693    0.0071209906
      7301.64       1.3007802    0.0071114117
      7308.94       1.3010259    0.0071552274
      7316.25       1.3018625    0.0071057146
      7323.57       1.3073876    0.0071077939
      7330.89       1.3156043    0.0071552669
      7338.22       1.3261459    0.0071056345
      7345.56       1.3360178    0.0071075161
      7352.91       1.3405136    0.0071121885
      7360.26       1.3426021    0.0071133905
      7367.62       1.3518849    0.0071212173
      7374.99       1.3565062    0.0071310617
      7382.37       1.3620195    0.0070907055
      7389.75       1.3607427    0.0071459180
      7397.14       1.3592674    0.0071580308
      7404.53       1.3548915    0.0071207687
      7411.94       1.3482175    0.0071331567
      7419.35       1.3397369    0.0071915346
      7426.77       1.3263439    0.0071561330
      7434.20       1.3093736    0.0071695868
      7441.63       1.2895576    0.0071837422
      7449.07       1.2692380    0.0071996689
      7456.52       1.2504007    0.0072185366
      7463.98       1.2329025    0.0072807144
      7471.45       1.2122805    0.0073867021
      7478.92       1.1863286    0.0073929694
      7486.40       1.1563619    0.0073849417
      7493.88       1.1280197    0.0074693243
      7501.38       1.0988764    0.0076133269
      7508.88       1.0712809    0.0078086014
      7516.39       1.0424256    0.0081893390
      7523.91       1.0181767    0.0086829004
      7531.43      0.99065660    0.0092258701
      7538.96      0.96801724    0.0097388053
      7546.50      0.94363716     0.010375036
      7554.05      0.93046128     0.010925640
      7561.60      0.93084117     0.011272854
      7569.16      0.94251772     0.011214284
      7576.73      0.95684061     0.011016275
      7584.31      0.98209005     0.010721989
      7591.89       1.0163559     0.010152485
      7599.49       1.0456208    0.0095595113
      7607.09       1.0762222    0.0090609044
      7614.70       1.1060421    0.0086455884
      7622.31       1.1389293    0.0083269222
      7629.93       1.1769862    0.0080599562
      7637.56       1.2187516    0.0079481809
      7645.20       1.2596405    0.0078111606
      7652.85       1.3011288    0.0077399960
      7660.50       1.3452546    0.0076785421
      7668.16       1.3913731    0.0076334691
      7675.83       1.4361287    0.0076063007
      7683.50       1.4736511    0.0075495690
      7691.19       1.5125878    0.0075459664
      7698.88       1.5513207    0.0075510051
      7706.58       1.5820617    0.0075613660
      7714.29       1.6083107    0.0075745832
      7722.00       1.6256348    0.0076348514
      7729.73       1.6367865    0.0075987222
      7737.45       1.6436838    0.0076156624
      7745.19       1.6439419    0.0076328200
      7752.94       1.6425004    0.0076504059
      7760.69       1.6418296    0.0076686073
      7768.45       1.6390508    0.0076868577
      7776.22       1.6317366    0.0077056811
      7784.00       1.6234242    0.0077262448
      7791.78       1.6165211    0.0076956750
      7799.57       1.6106395    0.0077179387
      7807.37       1.6000163    0.0077416859
      7815.18       1.5905495    0.0077672285
      7822.99       1.5822159    0.0077934015
      7830.82       1.5770213    0.0078172456
      7838.65       1.5656683    0.0078377588
      7846.49       1.5540546    0.0078569320
      7854.34       1.5404085    0.0078755199
      7862.19       1.5323326    0.0078937527
      7870.05       1.5160927    0.0078584035
      7877.93       1.5030127    0.0078757448
      7885.80       1.4883916    0.0078933794
      7893.69       1.4753087    0.0079119825
      7901.58       1.4613480    0.0079321664
      7909.49       1.4450336    0.0079534054
      7917.40       1.4202112    0.0079743091
      7925.31       1.3954854    0.0079953975
      7933.24       1.3646019    0.0080163013
      7941.17       1.3429812    0.0080359688
      7949.11       1.3190157    0.0080537751
      7957.06       1.2981753    0.0080710271
      7965.02       1.2778010    0.0080892615
      7972.98       1.2613958    0.0081082511
      7980.96       1.2421701    0.0081259411
      7988.94       1.2178800    0.0081437774
      7996.93       1.2039040    0.0081654501
      8004.93       1.1891967    0.0081905297
      8012.93       1.1756994    0.0082209744
      8020.95       1.1571726    0.0082167661
      8028.97       1.1396847    0.0082611685
      8036.99       1.1211186    0.0083149587
      8045.03       1.1045755    0.0083833445
      8053.08       1.0856172    0.0084664464
      8061.13       1.0643315    0.0085600866
      8069.20       1.0434463    0.0086606539
      8077.26       1.0274828    0.0087710003
      8085.34       1.0146720    0.0088861342
      8093.43       1.0139154    0.0089793494
      8101.52       1.0071823    0.0089742859
      8109.62       1.0080860    0.0090065318
      8117.73      0.99691882    0.0090331839
      8125.85      0.98263169    0.0090504218
      8133.98      0.96507566    0.0090610612
      8142.11      0.94661884    0.0090641432
      8150.25      0.91807020    0.0090602452
      8158.41      0.87422880    0.0090540092
      8166.56      0.82789577    0.0089987793
      8174.73      0.76897509    0.0090053123
      8182.91      0.70662540    0.0090673861
      8191.09      0.63591618    0.0090645396
      8199.28      0.56942692    0.0090595728
      8207.48      0.49777590    0.0090514730
      8215.69      0.43796938    0.0089890336
      8223.91      0.38821538    0.0089821004
      8232.13      0.34632830    0.0089907945
      8240.36      0.31770006    0.0090128653
      8248.60      0.30075386    0.0090177608
      8256.85      0.30332947    0.0089380710
      8265.11      0.32530186    0.0089668440
      8273.37      0.35045709    0.0089510871
      8281.65      0.39194064    0.0089378940
      8289.93      0.44064851    0.0089316499
      8298.22      0.49070654    0.0088737884
      8306.52      0.53321751    0.0088671790
      8314.83      0.57305505    0.0088633301
      8323.14      0.60811549    0.0088647168
      8331.46      0.63122078    0.0088772838
      8339.80      0.65493130    0.0088862040
      8348.13      0.67114764    0.0088950840
      8356.48      0.69131466    0.0089062584
      8364.84      0.69662951    0.0088701168
      8373.21      0.70840087    0.0088863983
      8381.58      0.72269338    0.0089592150
      8389.96      0.74236939    0.0089772462
      8398.35      0.77189260    0.0089477539
      8406.75      0.81649055    0.0089681941
      8415.16      0.87675022    0.0089902755
      8423.57      0.94457688    0.0090696466
      8432.00       1.0274432    0.0090427888
      8440.43       1.1286934    0.0090656866
      8448.87       1.2365656    0.0090892173
      8457.32       1.3604480    0.0090610857
      8465.78       1.4866642    0.0091390835
      8474.25       1.6243966    0.0091598988
      8482.72       1.7708414    0.0091808187
      8491.20       1.9285191    0.0091492425
      8499.69       2.0943953    0.0091693680
      8508.19       2.2650876    0.0092486272
      8516.70       2.4467618    0.0092190602
      8525.22       2.6282194    0.0092391944
      8533.75       2.8213396    0.0092602112
      8542.28       3.0240324    0.0092901112
      8550.82       3.2067493    0.0093128953
      8559.37       3.3802782    0.0093370943
      8567.93       3.5473626    0.0093699725
      8576.50       3.6788964    0.0093932964
      8585.08       3.7771854    0.0093674423
      8593.66       3.8597078    0.0093920298
      8602.26       3.9107483    0.0094735791
      8610.86       3.9289118    0.0094462129
      8619.47       3.9276519    0.0094696840
      8628.09       3.8988647    0.0095503417
      8636.72       3.8573472    0.0095216068
      8645.36       3.8061383    0.0095447498
      8654.00       3.7351719    0.0095159998
      8662.66       3.6591704    0.0095982792
      8671.32       3.5877693    0.0096234387
      8679.99       3.5210842    0.0095960619
      8688.67       3.4521338    0.0096802234
      8697.36       3.3950452    0.0096540885
      8706.06       3.3285394    0.0096795974
      8714.76       3.2638681    0.0097148659
      8723.48       3.1956865    0.0097396138
      8732.21       3.1182286    0.0097655555
      8740.93       3.0170592    0.0098003141
      8749.68       2.9111202    0.0098260483
      8758.43       2.7973697    0.0098623191
      8767.19       2.6769829    0.0098883819
      8775.96       2.5597294    0.0098662296
      8784.73       2.4348649    0.0099547885
      8793.52       2.3149481    0.0099358931
      8802.31       2.1968505    0.0099727287
      8811.11       2.0786817     0.010022647
      8819.92       1.9595787     0.010063460
      8828.75       1.8520779     0.010127869
      8837.57       1.7479492     0.010193598
      8846.41       1.6581903     0.010220622
      8855.26       1.5620227     0.010381148
      8864.12       1.4798133     0.010460046
      8872.98       1.4111715     0.010670103
      8881.85       1.3575254     0.010786323
      8890.73       1.3185676     0.011026832
      8899.63       1.2844292     0.011153274
      8908.52       1.2571224     0.011300578
      8917.43       1.2546140     0.011449996
      8926.35       1.2598766     0.011519390
      8935.28       1.2787953     0.011550463
      8944.22       1.2985435     0.011539368
      8953.16       1.3184695     0.011508066
      8962.11       1.3381404     0.011481502
      8971.08       1.3591832     0.011482541
      8980.05       1.3737935     0.011446730
      8989.03       1.3768467     0.011542452
      8998.02       1.3908826     0.011549605
      9007.02       1.3897500     0.011711388
      9016.02       1.3959428     0.011735343
      9025.04       1.3804233     0.011817517
      9034.07       1.3655498     0.011902616
      9043.10       1.3666106     0.011963499
      9052.14       1.3634178     0.011995362
      9061.20       1.3665326     0.012029704
      9070.26       1.3608190     0.012049157
      9079.33       1.3639380     0.012067409
      9088.41       1.3826237     0.011996485
      9097.50       1.4043582     0.011899711
      9106.60       1.4306226     0.011784639
      9115.70       1.4478649     0.011685065
      9124.82       1.4659217     0.011586776
      9133.94       1.4830997     0.011446944
      9143.08       1.4963214     0.011401031
      9152.22       1.5053996     0.011381288
      9161.37       1.5119236     0.011357493
      9170.54       1.5102491     0.011344097
      9179.71       1.5072965     0.011436271
      9188.89       1.5026448     0.011577589
      9198.08       1.4885816     0.011851681
      9207.28       1.4780493     0.012196319
      9216.48       1.4517834     0.012626707
      9225.70       1.4321600     0.013134310
      9234.92       1.4153434     0.013658914
      9244.16       1.3945895     0.014171231
      9253.40       1.3811481     0.014692074
      9262.66       1.3560288     0.015082709
      9271.92       1.3327702     0.015258686
      9281.20       1.3190624     0.015404587
      9290.48       1.3160345     0.015504330
      9299.77       1.3009995     0.015501219
      9309.07       1.2852277     0.015366382
      9318.38       1.2664552     0.015248420
      9327.69       1.2483977     0.015065871
      9337.02       1.2261528     0.014911624
      9346.36       1.1999637     0.014720407
      9355.71       1.1836532     0.014632528
      9365.07       1.1670696     0.014504717
      9374.43       1.1475380     0.014464862
      9383.80       1.1297421     0.014426552
      9393.19       1.1036865     0.014416631
      9402.58       1.0829188     0.014324785
      9411.98       1.0659066     0.014267838
      9421.40       1.0592866     0.014118185
      9430.82       1.0611472     0.014011450
      9440.25       1.0625178     0.013824948
      9449.69       1.0708379     0.013663150
      9459.14       1.0859691     0.013380775
      9468.60       1.0969917     0.013191509
      9478.07       1.1212041     0.012982683
      9487.55       1.1409501     0.012852224
      9497.04       1.1567826     0.012671566
      9506.53       1.1822897     0.012494746
      9516.04       1.1963908     0.012354335
      9525.56       1.2047131     0.012138402
      9535.08       1.2114701     0.011957722
      9544.62       1.2134982     0.011716940
      9554.16       1.2137490     0.011492965
      9563.72       1.2130472     0.011375016
      9573.29       1.2161074     0.011471345
      9582.85       1.2139996     0.011596357
      9592.44       1.2122222     0.011756270
      9602.03       1.2039911     0.011952470
      9611.63       1.1969599     0.012211862
      9621.25       1.1857045     0.012565490
      9630.87       1.1681503     0.013015363
      9640.50       1.1529663     0.013605985
      9650.14       1.1356536     0.014281840
      9659.79       1.1165354     0.015304784
      9669.45       1.0944541     0.016627421
      9679.12       1.0695799     0.018337987
      9688.80       1.0437427     0.020599151
      9698.49       1.0217458     0.023565747
      9708.19       1.0049608     0.027234015
      9717.90      0.99568738     0.031721736
