# starting wavelength =        3900.6600
# ending wavelength =        9726.8300
# O2 telluric scale =        0
# O2 telluric shift =        0
# H2O telluric scale =        0
# H2O telluric shift =        0
      3901.59      0.58853779     0.076565224
      3905.49      0.61831802     0.064526454
      3909.39      0.62032631     0.055072412
      3913.30      0.63043878     0.047679132
      3917.22      0.64973781     0.041880086
      3921.13      0.66774124     0.037363067
      3925.06      0.68027640     0.033830720
      3928.98      0.69627358     0.030460615
      3932.91      0.69568959     0.028474140
      3936.84      0.68964496     0.026914461
      3940.78      0.72593610     0.025682321
      3944.72      0.77256822     0.024688908
      3948.67      0.78949548     0.023878558
      3952.61      0.77261561     0.023203293
      3956.57      0.74788484     0.022632299
      3960.52      0.71976766     0.022140340
      3964.48      0.70447591     0.021875831
      3968.45      0.69597236     0.021488254
      3972.42      0.70411800     0.021143435
      3976.39      0.69732357     0.020965459
      3980.37      0.68795294     0.020921636
      3984.35      0.68074822     0.020877927
      3988.33      0.67250578     0.020966975
      3992.32      0.64863830     0.020923077
      3996.31      0.63445574     0.020878929
      4000.31      0.63035988     0.020834888
      4004.31      0.61971614     0.020942045
      4008.31      0.60372509     0.020898224
      4012.32      0.57665979     0.020854536
      4016.33      0.55425781     0.020810972
      4020.35      0.53350161     0.020767536
      4024.37      0.52987098     0.020856800
      4028.40      0.51944329     0.020812750
      4032.42      0.50201289     0.020768758
      4036.46      0.49585909     0.020724842
      4040.50      0.49651930     0.020680999
      4044.54      0.50621345     0.020637232
      4048.58      0.51133297     0.020593557
      4052.63      0.52716796     0.020687512
      4056.68      0.53206165     0.020797629
      4060.74      0.53285587     0.020753564
      4064.80      0.53200849     0.020709583
      4068.86      0.53217523     0.020665696
      4072.93      0.53788924     0.020621920
      4077.01      0.54556169     0.020578261
      4081.08      0.58474835     0.020676594
      4085.17      0.58354194     0.020632877
      4089.25      0.55289145     0.020589304
      4093.34      0.52559836     0.020545889
      4097.43      0.51595599     0.020502641
      4101.53      0.51519916     0.020459579
      4105.63      0.54099017     0.020556946
      4109.74      0.55625155     0.020512303
      4113.85      0.55462726     0.020467947
      4117.96      0.55077093     0.020423779
      4122.08      0.54705584     0.020379842
      4126.20      0.53879202     0.020481392
      4130.33      0.54338051     0.020437657
      4134.46      0.54505828     0.020393989
      4138.59      0.54841031     0.020350562
      4142.73      0.54822993     0.020307379
      4146.88      0.55070060     0.020574310
      4151.02      0.56747294     0.020531018
      4155.18      0.58765791     0.020487832
      4159.33      0.60732064     0.020445035
      4163.49      0.62623440     0.020402637
      4167.65      0.65081337     0.020503494
      4171.82      0.65704345     0.020458997
      4175.99      0.66001396     0.020414850
      4180.17      0.65601791     0.020371079
      4184.35      0.65374502     0.020482802
      4188.54      0.64892276     0.020439469
      4192.72      0.64083531     0.020396540
      4196.92      0.62650439     0.020354035
      4201.11      0.62399157     0.020311963
      4205.31      0.62791815     0.020418035
      4209.52      0.61879458     0.020373242
      4213.73      0.61425719     0.020328894
      4217.94      0.61365630     0.020285020
      4222.16      0.61134240     0.020401672
      4226.38      0.61304649     0.020358441
      4230.61      0.62289966     0.020315762
      4234.84      0.62299288     0.020273662
      4239.08      0.61384605     0.020384348
      4243.32      0.60951835     0.020339121
      4247.56      0.61364963     0.020294536
      4251.81      0.61714670     0.020250631
      4256.06      0.62532272     0.020373167
      4260.32      0.63604649     0.020330375
      4264.58      0.63457278     0.020288415
      4268.84      0.63824881     0.020405394
      4273.11      0.67174649     0.020360163
      4277.38      0.69826644     0.020315462
      4281.66      0.69869090     0.020271604
      4285.94      0.69820457     0.020400696
      4290.23      0.69278994     0.020172917
      4294.52      0.68776628     0.020126580
      4298.81      0.66694494     0.020252294
      4303.11      0.64668565     0.020207125
      4307.42      0.62966914     0.020163072
      4311.72      0.61794385     0.020120143
      4316.04      0.61826060     0.020248478
      4320.35      0.61230567     0.020201569
      4324.67      0.61296433     0.020155794
      4329.00      0.61071102     0.020289230
      4333.33      0.59556348     0.020245424
      4337.66      0.58869113     0.020202872
      4342.00      0.58442243     0.020336330
      4346.34      0.56848441     0.020289133
      4350.69      0.55635738     0.020243300
      4355.04      0.55218216     0.020385103
      4359.39      0.56685339     0.020341683
      4363.75      0.58626214     0.020299796
      4368.12      0.59571738     0.020435798
      4372.48      0.60653045     0.020388809
      4376.86      0.63430121     0.020343527
      4381.23      0.65443526     0.020294725
      4385.61      0.65113848     0.020244707
      4390.00      0.66751336     0.020196544
      4394.39      0.66871792     0.020343870
      4398.79      0.66449821     0.020299143
      4403.18      0.65390097     0.020256547
      4407.59      0.64949124     0.020404290
      4412.00      0.64730241     0.020355859
      4416.41      0.64605564     0.020513702
      4420.82      0.64267550     0.020469287
      4425.25      0.63875007     0.020427293
      4429.67      0.63138332     0.020579936
      4434.10      0.62457368     0.020531872
      4438.54      0.62526297     0.020274082
      4442.97      0.61894611     0.020436640
      4447.42      0.62141510     0.020385391
      4451.86      0.63624389     0.020550192
      4456.32      0.64571771     0.020504244
      4460.77      0.64076822     0.020461298
      4465.24      0.63307129     0.020626404
      4469.70      0.64460276     0.020576413
      4474.17      0.67737782     0.020755756
      4478.65      0.70431483     0.020712304
      4483.12      0.72113686     0.020429625
      4487.61      0.72807332     0.020605088
      4492.09      0.73861823     0.020558785
      4496.59      0.74255121     0.020516269
      4501.08      0.74536235     0.020234216
      4505.58      0.76014952     0.020407974
      4510.09      0.77192574     0.020362795
      4514.60      0.78666456     0.020089976
      4519.12      0.79416568     0.020039017
      4523.63      0.80063872     0.020212298
      4528.16      0.81753587     0.020168781
      4532.69      0.82863932     0.019894300
      4537.22      0.83179671     0.019845358
      4541.76      0.83573824     0.020018772
      4546.30      0.83367121     0.019751559
      4550.85      0.83151639     0.019701048
      4555.40      0.83658634     0.019655086
      4559.95      0.83418355     0.019610656
      4564.51      0.82173559     0.019558287
      4569.08      0.80975835     0.019510465
      4573.65      0.79627431     0.019257685
      4578.22      0.78361570     0.019416714
      4582.80      0.77827235     0.019367775
      4587.38      0.77749463     0.019115280
      4591.97      0.78466369     0.019275452
      4596.56      0.79466802     0.019225592
      4601.16      0.80157232     0.018974233
      4605.76      0.81395622     0.019134767
      4610.37      0.82955006     0.019084234
      4614.98      0.84438847     0.018833887
      4619.59      0.85072921     0.018794306
      4624.21      0.85402241     0.018944194
      4628.84      0.84870880     0.018695367
      4633.47      0.83833143     0.018655939
      4638.10      0.82858563     0.018805199
      4642.74      0.81814032     0.018558172
      4647.38      0.80202058     0.018519074
      4652.03      0.78747261     0.018666343
      4656.68      0.77558962     0.018421029
      4661.34      0.76308629     0.018382463
      4666.00      0.76555173     0.018328004
      4670.67      0.76707217     0.018284864
      4675.33      0.77283289     0.018247294
      4680.01      0.78689494     0.018191290
      4684.69      0.80485705     0.018149584
      4689.38      0.81366797     0.018113722
      4694.07      0.82483154     0.018056948
      4698.76      0.83600039     0.018016886
      4703.46      0.84291227     0.017780151
      4708.16      0.85035291     0.017923259
      4712.87      0.84153817     0.017885223
      4717.58      0.82965067     0.017647468
      4722.30      0.82492564     0.017791140
      4727.03      0.82054475     0.017560725
      4731.75      0.81240575     0.017515856
      4736.48      0.80003393     0.017660814
      4741.22      0.77802123     0.017428544
      4745.96      0.76617029     0.017385983
      4750.71      0.75841539     0.017342937
      4755.46      0.75935801     0.017297456
      4760.22      0.75441953     0.017439878
      4764.97      0.75831634     0.017211543
      4769.74      0.76066701     0.017169487
      4774.51      0.75674193     0.017127667
      4779.29      0.75875775     0.017082636
      4784.07      0.75927006     0.016867519
      4788.85      0.75998126     0.016997303
      4793.64      0.75667961     0.016956034
      4798.43      0.76085378     0.016913253
      4803.23      0.75952697     0.016869247
      4808.03      0.75421060     0.016657782
      4812.84      0.76134268     0.016783840
      4817.66      0.76551391     0.016571104
      4822.48      0.76709784     0.016699725
      4827.30      0.78748574     0.016485618
      4832.12      0.79262839     0.016451782
      4836.96      0.81108922     0.016402136
      4841.79      0.82909334     0.016366435
      4846.63      0.84456019     0.016490262
      4851.48      0.85462419     0.016281777
      4856.33      0.85796912     0.016251481
      4861.19      0.86920147     0.016198159
      4866.05      0.86668736     0.016166433
      4870.92      0.86245940     0.016115443
      4875.79      0.85599114     0.016082343
      4880.66      0.83657300     0.016033510
      4885.55      0.82815590     0.015998922
      4890.43      0.82215671     0.015793185
      4895.32      0.80500612     0.015916930
      4900.22      0.78614061     0.015713270
      4905.12      0.78363045     0.015835030
      4910.02      0.78946546     0.015633993
      4914.94      0.79636174     0.015754565
      4919.85      0.81835333     0.015555438
      4924.77      0.82746827     0.015674473
      4929.70      0.84978741     0.015477191
      4934.62      0.87115738     0.015595200
      4939.56      0.89110431     0.015399240
      4944.50      0.90772227     0.015361408
      4949.44      0.92012510     0.015321379
      4954.39      0.93188267     0.015283445
      4959.35      0.93472824     0.015243744
      4964.31      0.93745740     0.015205808
      4969.27      0.93726799     0.015166483
      4974.24      0.93077841     0.015128893
      4979.22      0.92537624     0.015089806
      4984.20      0.91534537     0.015052388
      4989.18      0.89753455     0.015013452
      4994.17      0.88884118     0.014827623
      4999.16      0.88001924     0.014937540
      5004.16      0.86266682     0.014753145
      5009.17      0.84912995     0.014862074
      5014.18      0.83687794     0.014679160
      5019.19      0.81844207     0.014786699
      5024.21      0.80648670     0.014605779
      5029.23      0.79706446     0.014712161
      5034.26      0.79389058     0.014533064
      5039.30      0.78977439     0.014637614
      5044.34      0.78271996     0.014460595
      5049.39      0.78512358     0.014418870
      5054.43      0.77993373     0.014389652
      5059.49      0.78055499     0.014346939
      5064.55      0.78749534     0.014319429
      5069.61      0.79434071     0.014276000
      5074.68      0.79882345     0.014250363
      5079.76      0.81155016     0.014205505
      5084.84      0.82434265     0.014031175
      5089.92      0.83647607     0.014135960
      5095.01      0.84066373     0.014095563
      5100.11      0.84523072     0.014067049
      5105.21      0.85377961     0.014025458
      5110.31      0.86097726     0.013855243
      5115.42      0.86924207     0.013956133
      5120.54      0.88429758     0.013785297
      5125.66      0.89108399     0.013888467
      5130.79      0.88770006     0.013716770
      5135.92      0.88455059     0.013682987
      5141.05      0.87766553     0.013649587
      5146.20      0.87141598     0.013613696
      5151.34      0.86012231     0.013714652
      5156.49      0.85791231     0.013545976
      5161.65      0.85446377     0.013512832
      5166.81      0.85205020     0.013479480
      5171.98      0.84923593     0.013444632
      5177.15      0.85267860     0.013285756
      5182.33      0.85218496     0.013377522
      5187.51      0.85200258     0.013344945
      5192.70      0.85392321     0.013184860
      5197.89      0.85835635     0.013277867
      5203.09      0.86877022     0.013122369
      5208.29      0.88316421     0.013212796
      5213.50      0.90060959     0.013179955
      5218.72      0.90682308     0.013023594
      5223.93      0.90419361     0.013114664
      5229.16      0.89881547     0.012963363
      5234.39      0.89800178     0.012926201
      5239.62      0.89219063     0.013017545
      5244.86      0.89705979     0.012865965
      5250.11      0.90757476     0.012829968
      5255.36      0.91284138     0.012807892
      5260.61      0.91924212     0.012769969
      5265.87      0.92453750     0.012735062
      5271.14      0.93061421     0.012712586
      5276.41      0.94464067     0.012675848
      5281.69      0.95509836     0.012641800
      5286.97      0.96189591     0.012494554
      5292.26      0.96386503     0.012583037
      5297.55      0.96260732     0.012549641
      5302.85      0.96559655     0.012403640
      5308.15      0.97174740     0.012491547
      5313.46      0.98200458     0.012343715
      5318.77      0.98797242     0.012313594
      5324.09      0.98820157     0.012401369
      5329.42      0.99027634     0.012254396
      5334.75      0.99594255     0.012224190
      5340.08       1.0006365     0.012196415
      5345.42       1.0075941     0.012166475
      5350.77       1.0115358     0.012136416
      5356.12       1.0082425     0.012108550
      5361.48       1.0068194     0.012080199
      5366.83       1.0079101     0.012049931
      5372.20       1.0182418     0.012021673
      5377.58       1.0253914     0.011884337
      5382.95       1.0195493     0.011964464
      5388.34       1.0095461     0.011935709
      5393.72      0.99542333     0.011801471
      5399.12      0.98676593     0.011770639
      5404.52      0.98435961     0.011850936
      5409.92      0.98423427     0.011823444
      5415.33      0.98172364     0.011688974
      5420.75      0.98495002     0.011659287
      5426.17      0.98335433     0.011739966
      5431.60      0.98079994     0.011609743
      5437.03      0.97869284     0.011579506
      5442.47      0.97614067     0.011551020
      5447.91      0.97178187     0.011631409
      5453.36      0.97157349     0.011501755
      5458.81      0.96389589     0.011472443
      5464.27      0.95654484     0.011444569
      5469.73      0.96469767     0.011426285
      5475.20      0.97618886     0.011396014
      5480.68      0.97609820     0.011367441
      5486.16      0.97314062     0.011340065
      5491.65      0.98276415     0.011213535
      5497.14      0.97843125     0.011293615
      5502.64      0.97377064     0.011265353
      5508.14      0.96847896     0.011238469
      5513.65      0.96680774     0.011112799
      5519.16      0.96407786     0.011088201
      5524.68      0.96792614     0.011165691
      5530.20      0.96886224     0.011138634
      5535.73      0.96524106     0.011013817
      5541.27      0.96443532     0.010989086
      5546.81      0.96201041     0.010965296
      5552.36      0.95797134     0.010942451
      5557.91      0.94989431     0.010917187
      5563.47      0.93259114     0.010892386
      5569.04      0.93022448     0.010868605
      5574.60      0.94293762     0.010845804
      5580.18      0.94919976     0.010727872
      5585.76      0.95168240     0.010703166
      5591.35      0.95434508     0.010775001
      5596.94      0.96583224     0.010751563
      5602.53      0.95933722     0.010729048
      5608.14      0.95855619     0.010613782
      5613.75      0.95368189     0.010589583
      5619.36      0.94395875     0.010566093
      5624.98      0.93550108     0.010637656
      5630.60      0.92756529     0.010615316
      5636.23      0.90774939     0.010504128
      5641.87      0.89496078     0.010480334
      5647.51      0.87743211     0.010457294
      5653.16      0.86477928     0.010434660
      5658.82      0.85579072     0.010412744
      5664.47      0.83106582     0.010391189
      5670.14      0.81758889     0.010375797
      5675.81      0.81430376     0.010352814
      5681.48      0.82048118     0.010330181
      5687.17      0.82806340     0.010308217
      5692.85      0.84102573     0.010286566
      5698.55      0.85105927     0.010265526
      5704.25      0.86025084     0.010156536
      5709.95      0.87191854     0.010136548
      5715.66      0.87455127     0.010117000
      5721.38      0.87103472     0.010097746
      5727.10      0.87074454     0.010166806
      5732.83      0.87318259     0.010146190
      5738.56      0.87283651     0.010038614
      5744.30      0.87308274     0.010018785
      5750.04      0.87880228    0.0099994863
      5755.79      0.87451298    0.0099803143
      5761.55      0.88186043    0.0099614124
      5767.31      0.88308742    0.0099429489
      5773.08      0.88032716    0.0099251237
      5778.85      0.88716489    0.0099081959
      5784.63      0.89873287     0.010081422
      5790.41      0.91797829     0.010437867
      5796.21      0.93484681     0.010826203
      5802.00      0.95675476     0.011507652
      5807.81      0.97227413     0.012248154
      5813.61      0.99282666     0.010845699
      5819.43       1.0118611     0.010957377
      5825.25       1.0225218     0.011437741
      5831.07       1.0362901     0.012074050
      5836.90       1.0471999     0.012784416
      5842.74       1.0465745     0.013236914
      5848.58       1.0520099     0.013721221
      5854.43       1.0406811     0.013757125
      5860.29       1.0068003     0.013307634
      5866.15      0.99419172     0.012665923
      5872.01      0.99268797     0.011966760
      5877.89      0.97905320     0.011320305
      5883.76      0.96507452     0.010800360
      5889.65      0.95780255     0.010527257
      5895.54      0.94550613     0.012400987
      5901.43      0.94606764     0.011221321
      5907.34      0.95831277     0.010629548
      5913.24      0.96805325     0.010095867
      5919.16      0.98606016    0.0097519741
      5925.08       1.0042126    0.0094552539
      5931.00       1.0189319    0.0093567780
      5936.93       1.0364765    0.0093357574
      5942.87       1.0454129    0.0093145576
      5948.81       1.0454360    0.0092955109
      5954.76       1.0468251    0.0092781437
      5960.72       1.0539851    0.0092599481
      5966.68       1.0465293    0.0092413466
      5972.64       1.0324281    0.0092243434
      5978.62       1.0290114    0.0092087111
      5984.60       1.0141309    0.0091939141
      5990.58      0.99820132    0.0091795345
      5996.57      0.97835442    0.0090906784
      6002.57      0.96362407    0.0090777010
      6008.57      0.95226926    0.0090650880
      6014.58      0.95108783    0.0090525919
      6020.60      0.95068567    0.0090402449
      6026.62      0.95480252    0.0090281831
      6032.65      0.96571648    0.0090163790
      6038.68      0.97188321    0.0090046803
      6044.72      0.97376343    0.0089932551
      6050.76      0.98501000    0.0089820181
      6056.81      0.98984699    0.0089709190
      6062.87      0.99129792    0.0089601597
      6068.93      0.99721907    0.0089495254
      6075.00       1.0049442    0.0089392143
      6081.08      0.99878411    0.0088537585
      6087.16      0.99689067    0.0088431242
      6093.25      0.99673832    0.0088326560
      6099.34      0.99536296    0.0088223488
      6105.44      0.99354367    0.0088122536
      6111.54      0.99071701    0.0088023120
      6117.66      0.98350048    0.0088651730
      6123.78      0.98039006    0.0088555524
      6129.90      0.98031343    0.0088462928
      6136.03      0.98623209    0.0087668438
      6142.17      0.99593365    0.0087570547
      6148.31      0.99943272    0.0087475650
      6154.46      0.99836270    0.0087385248
      6160.61       1.0019071    0.0087304372
      6166.77       1.0086949    0.0087251548
      6172.94       1.0152480    0.0087210168
      6179.11       1.0266097    0.0087126523
      6185.29       1.0408957    0.0086374455
      6191.48       1.0609646    0.0086355039
      6197.67       1.0888698    0.0086385039
      6203.87       1.1261204    0.0087179007
      6210.07       1.1544027    0.0087288317
      6216.28       1.1871565    0.0087416733
      6222.50       1.2111765    0.0087543788
      6228.72       1.2386031    0.0086970677
      6234.95       1.2480490    0.0087029296
      6241.19       1.2572299    0.0087036297
      6247.42       1.2711158    0.0086982326
      6253.67       1.2907306    0.0086870754
      6259.93       1.2990479    0.0085959618
      6266.19       1.3080412    0.0086417984
      6272.46       1.3094583    0.0086193254
      6278.73       1.3165939    0.0085997339
      6285.01       1.3206066    0.0085856842
      6291.29       1.3219725    0.0085054423
      6297.58       1.3217821    0.0084903791
      6303.88       1.3204922    0.0084761955
      6310.19       1.3195280    0.0085324623
      6316.50       1.3261189    0.0085226683
      6322.81       1.3333375    0.0084475705
      6329.14       1.3288666    0.0084381264
      6335.47       1.3300884    0.0084298250
      6341.80       1.3227047    0.0084226968
      6348.14       1.3110243    0.0084168984
      6354.49       1.2859036    0.0084150359
      6360.85       1.2660294    0.0084098692
      6367.21       1.2566997    0.0084056431
      6373.57       1.2470402    0.0084020713
      6379.95       1.2374094    0.0083368204
      6386.33       1.2277779    0.0084027278
      6392.72       1.2126866    0.0084025847
      6399.11       1.2003143    0.0084054251
      6405.51       1.1853516    0.0083481479
      6411.92       1.1626624    0.0083520795
      6418.32       1.1494761    0.0083555707
      6424.74       1.1313490    0.0084233978
      6431.17       1.1173776    0.0083619821
      6437.60       1.1127764    0.0083629429
      6444.04       1.1091798    0.0083627799
      6450.48       1.0993622    0.0084240677
      6456.94       1.0869997    0.0083559399
      6463.39       1.0774577    0.0083516965
      6469.85       1.0645726    0.0083484446
      6476.33       1.0532269    0.0083469417
      6482.80       1.0420734    0.0086341581
      6489.28       1.0387493    0.0088997113
      6495.77       1.0319296    0.0093257604
      6502.27       1.0286548    0.0098103498
      6508.77       1.0197963     0.010636950
      6515.28       1.0207019     0.012184873
      6521.80       1.0225534     0.014058647
      6528.32       1.0285358     0.018294753
      6534.85       1.0443023     0.024611449
      6541.38       1.0190032     0.014639884
      6547.92       1.0172800     0.016102618
      6554.47       1.0260454     0.017888923
      6561.03       1.0290981     0.019363057
      6567.59       1.0257033     0.020594097
      6574.16       1.0046373     0.021196781
      6580.73      0.98003540     0.018776852
      6587.31      0.99142806     0.018230250
      6593.90      0.98753851     0.016460107
      6600.50      0.97472029     0.014448039
      6607.10      0.97572579     0.021519816
      6613.70      0.98060226     0.016436883
      6620.32      0.98848158     0.013742858
      6626.94      0.99033363     0.011477247
      6633.57      0.98755169     0.010322614
      6640.20      0.98103696    0.0096649954
      6646.84      0.97676394    0.0091010752
      6653.49      0.97540858    0.0087058735
      6660.14      0.97081778    0.0084536423
      6666.80      0.96872330    0.0081864399
      6673.47      0.96673659    0.0082530107
      6680.14      0.96515078    0.0082576399
      6686.82      0.96849616    0.0082010010
      6693.51      0.96865953    0.0082684617
      6700.20      0.96273291    0.0082137076
      6706.90      0.95253263    0.0082169078
      6713.61      0.94947036    0.0082854026
      6720.32      0.94656131    0.0082302297
      6727.05      0.94359320    0.0082343630
      6733.77      0.95230525    0.0082450488
      6740.51      0.95046298    0.0082517635
      6747.25      0.94744932    0.0083374252
      6754.00      0.94466459    0.0083153457
      6760.75      0.94349557    0.0083238461
      6767.51      0.93936302    0.0083277055
      6774.28      0.94135089    0.0083536443
      6781.05      0.94837670    0.0083615870
      6787.84      0.95251267    0.0085169380
      6794.62      0.96020079    0.0085752267
      6801.42      0.96972306    0.0087853305
      6808.22      0.97490828    0.0088618770
      6815.03      0.98262971    0.0089817116
      6821.85      0.98409340    0.0091771783
      6828.67      0.97805001    0.0091805943
      6835.50      0.97640730    0.0092882397
      6842.33      0.97619515    0.0091966835
      6849.17      0.97826251    0.0091464782
      6856.02      0.97536660    0.0090440289
      6862.88      0.97789527    0.0089568456
      6869.74      0.97105563    0.0088513208
      6876.61      0.96775570    0.0087990658
      6883.49      0.96207239    0.0086996191
      6890.37      0.95843527    0.0087130252
      6897.27      0.95623529    0.0086007665
      6904.16      0.95740306    0.0086341167
      6911.07      0.95938288    0.0085563413
      6917.98      0.95806905    0.0086001759
      6924.89      0.96096149    0.0085314629
      6931.82      0.96569796    0.0085891992
      6938.75      0.97382498    0.0085331198
      6945.69      0.98143823    0.0085391349
      6952.64      0.99062461    0.0085530259
      6959.59      0.99322129    0.0085021983
      6966.55       1.0030601    0.0085704438
      6973.52       1.0067959    0.0085148957
      6980.49       1.0151511    0.0085761221
      6987.47       1.0183016    0.0085185351
      6994.46       1.0276673    0.0085824360
      7001.46       1.0250325    0.0085287653
      7008.46       1.0256084    0.0085942222
      7015.46       1.0272397    0.0085405719
      7022.48       1.0328403    0.0085495665
      7029.51       1.0320762    0.0085570116
      7036.53       1.0326159    0.0085703748
      7043.57       1.0338409    0.0085846214
      7050.62       1.0350697    0.0086092210
      7057.66       1.0356429    0.0086295352
      7064.72       1.0322343    0.0086574124
      7071.79       1.0242267    0.0086247395
      7078.86       1.0173661    0.0087247602
      7085.94       1.0108010    0.0087185043
      7093.03      0.99925558    0.0088504744
      7100.12      0.98900231    0.0088903179
      7107.22      0.98176659    0.0090218706
      7114.33      0.97346177    0.0091972630
      7121.44      0.96919536    0.0092307061
      7128.56      0.97064354    0.0093182854
      7135.69      0.96889234    0.0093612640
      7142.83      0.97430678    0.0094043211
      7149.97      0.97796672    0.0094191783
      7157.12      0.99027762    0.0094248223
      7164.28       1.0108662    0.0093593220
      7171.44       1.0349435    0.0094163456
      7178.62       1.0574003    0.0094303586
      7185.80       1.0774730    0.0093889152
      7192.98       1.1026819    0.0094851445
      7200.17       1.1374178    0.0094441309
      7207.38       1.1683567    0.0094671126
      7214.58       1.1937028    0.0095403822
      7221.80       1.2225882    0.0094634718
      7229.02       1.2464624    0.0094397364
      7236.25       1.2754595    0.0094230950
      7243.49       1.3025804    0.0094042945
      7250.73       1.3291464    0.0093827275
      7257.98       1.3478580    0.0093587911
      7265.24       1.3640312    0.0093234650
      7272.51       1.3771174    0.0092308348
      7279.78       1.3844854    0.0092718814
      7287.06       1.3896537    0.0092531310
      7294.35       1.3910422    0.0091786458
      7301.64       1.3882688    0.0091729564
      7308.94       1.3808335    0.0092354454
      7316.25       1.3693937    0.0091775942
      7323.57       1.3634325    0.0091872850
      7330.89       1.3661744    0.0092548476
      7338.22       1.3637174    0.0091969005
      7345.56       1.3477914    0.0092065458
      7352.91       1.3322166    0.0092199196
      7360.26       1.3217576    0.0092270274
      7367.62       1.3142176    0.0092446832
      7374.99       1.3037739    0.0092650665
      7382.37       1.2937743    0.0092193076
      7389.75       1.2827467    0.0092978741
      7397.14       1.2658256    0.0093214942
      7404.53       1.2479302    0.0092798791
      7411.94       1.2293249    0.0093040095
      7419.35       1.2079637    0.0093872658
      7426.77       1.1832118    0.0093481949
      7434.20       1.1619834    0.0093740246
      7441.63       1.1414093    0.0094008829
      7449.07       1.1212897    0.0094301426
      7456.52       1.1072701    0.0094610651
      7463.98       1.0997155    0.0095500989
      7471.45       1.0929820    0.0096955938
      7478.92       1.0817818    0.0097098471
      7486.40       1.0757236    0.0097093454
      7493.88       1.0724461    0.0098288170
      7501.38       1.0764480     0.010026709
      7508.88       1.0821035     0.010290979
      7516.39       1.0883825     0.010800935
      7523.91       1.0973419     0.011460302
      7531.43       1.1013975     0.012184991
      7538.96       1.1058403     0.012872182
      7546.50       1.1087065     0.013727684
      7554.05       1.1041261     0.014475610
      7561.60       1.0955709     0.014959452
      7569.16       1.0848524     0.014903587
      7576.73       1.1019579     0.014663720
      7584.31       1.1034725     0.014288808
      7591.89       1.0914518     0.013544544
      7599.49       1.0880099     0.012765053
      7607.09       1.0757391     0.012108846
      7614.70       1.0650186     0.011565857
      7622.31       1.0574697     0.011150262
      7629.93       1.0473438     0.010801287
      7637.56       1.0445667     0.010659556
      7645.20       1.0516498     0.010484877
      7652.85       1.0563774     0.010399291
      7660.50       1.0648866     0.010326107
      7668.16       1.0727539     0.010275068
      7675.83       1.0809162     0.010248360
      7683.50       1.0960761     0.010180836
      7691.19       1.1071663     0.010186337
      7698.88       1.1018064     0.010203736
      7706.58       1.1056788     0.010228511
      7714.29       1.1111473     0.010257296
      7722.00       1.1187466     0.010348593
      7729.73       1.1131002     0.010309302
      7737.45       1.1046678     0.010343441
      7745.19       1.1091012     0.010377976
      7752.94       1.1057559     0.010413181
      7760.69       1.1102215     0.010449306
      7768.45       1.1144651     0.010485612
      7776.22       1.1145413     0.010522799
      7784.00       1.1174364     0.010562439
      7791.78       1.1218509     0.010530715
      7799.57       1.1285665     0.010572807
      7807.37       1.1308336     0.010617040
      7815.18       1.1382846     0.010663834
      7822.99       1.1415219     0.010711613
      7830.82       1.1405824     0.010756369
      7838.65       1.1406453     0.010796713
      7846.49       1.1278920     0.010835290
      7854.34       1.1241848     0.010873106
      7862.19       1.1053524     0.010910462
      7870.05       1.0962075     0.010872207
      7877.93       1.0853905     0.010908404
      7885.80       1.0793108     0.010945091
      7893.69       1.0760359     0.010983198
      7901.58       1.0729644     0.011023612
      7909.49       1.0671664     0.011065608
      7917.40       1.0556711     0.011107235
      7925.31       1.0468925     0.011149188
      7933.24       1.0416461     0.011190978
      7941.17       1.0359485     0.011231120
      7949.11       1.0410676     0.011268719
      7957.06       1.0400136     0.011305634
      7965.02       1.0396980     0.011344054
      7972.98       1.0433392     0.011383625
      7980.96       1.0351305     0.011421374
      7988.94       1.0412834     0.011459259
      7996.93       1.0390585     0.011502545
      8004.93       1.0355792     0.011550689
      8012.93       1.0378871     0.011606494
      8020.95       1.0434480     0.011614873
      8028.97       1.0416418     0.011690567
      8036.99       1.0411993     0.011779775
      8045.03       1.0387133     0.011889765
      8053.08       1.0286336     0.012020875
      8061.13       1.0155944     0.012167362
      8069.20       1.0233067     0.012324197
      8077.26       1.0258731     0.012495269
      8085.34       1.0293343     0.012673452
      8093.43       1.0248955     0.012821335
      8101.52       1.0395320     0.012832062
      8109.62       1.0311975     0.012893939
      8117.73       1.0247153     0.012947326
      8125.85       1.0282800     0.012986935
      8133.98       1.0249582     0.013016812
      8142.11       1.0338650     0.013035850
      8150.25       1.0357388     0.013045060
      8158.41       1.0304510     0.013050980
      8166.56       1.0292073     0.012988061
      8174.73       1.0275405     0.013012331
      8182.91       1.0352142     0.013118780
      8191.09       1.0272784     0.013129401
      8199.28       1.0254641     0.013136825
      8207.48       1.0067956     0.013139563
      8215.69       1.0149618     0.013064895
      8223.91       1.0221109     0.013069050
      8232.13       1.0240568     0.013096513
      8240.36       1.0153129     0.013144128
      8248.60       1.0201684     0.013166396
      8256.85       1.0201623     0.013066033
      8265.11       1.0168151     0.013124108
      8273.37       1.0196371     0.013115501
      8281.65       1.0276263     0.013110606
      8289.93       1.0282591     0.013115944
      8298.22       1.0317017     0.013047089
      8306.52       1.0413244     0.013051521
      8314.83       1.0494206     0.013059936
      8323.14       1.0554696     0.013076086
      8331.46       1.0647660     0.013112394
      8339.80       1.0657816     0.013139780
      8348.13       1.0653112     0.013167063
      8356.48       1.0696461     0.013197790
      8364.84       1.0537984     0.013160118
      8373.21       1.0561691     0.013198483
      8381.58       1.0433282     0.013322769
      8389.96       1.0366537     0.013363864
      8398.35       1.0222551     0.013335924
      8406.75       1.0320528     0.013380653
      8415.16       1.0330889     0.013427910
      8423.57       1.0366110     0.013562748
      8432.00       1.0268360     0.013538706
      8440.43       1.0347918     0.013587378
      8448.87       1.0381197     0.013637080
      8457.32       1.0590692     0.013611008
      8465.78       1.0865246     0.013744467
      8474.25       1.0980322     0.013790247
      8482.72       1.1034057     0.013836229
      8491.20       1.1214708     0.013804814
      8499.69       1.1390328     0.013849585
      8508.19       1.1726628     0.013985644
      8516.70       1.1981786     0.013957115
      8525.22       1.2266472     0.014002019
      8533.75       1.2707736     0.014048293
      8542.28       1.3107858     0.014111694
      8550.82       1.3692724     0.014160755
      8559.37       1.4325425     0.014212024
      8567.93       1.5091958     0.014280166
      8576.50       1.5835637     0.014330195
      8585.08       1.6465919     0.014306938
      8593.66       1.7002918     0.014358941
      8602.26       1.7545487     0.014500035
      8610.86       1.7923341     0.014474388
      8619.47       1.8152273     0.014524834
      8628.09       1.8213585     0.014664989
      8636.72       1.8156800     0.014637094
      8645.36       1.8205077     0.014687126
      8654.00       1.8138888     0.014659017
      8662.66       1.7962872     0.014802079
      8671.32       1.7762982     0.014855365
      8679.99       1.7486213     0.014829279
      8688.67       1.7275519     0.014975668
      8697.36       1.7022280     0.014951387
      8706.06       1.6706197     0.015005301
      8714.76       1.6562236     0.015077997
      8723.48       1.6411962     0.015130823
      8732.21       1.6400098     0.015185548
      8740.93       1.6454588     0.015257663
      8749.68       1.6232046     0.015312159
      8758.43       1.6052001     0.015386734
      8767.19       1.5878215     0.015441800
      8775.96       1.5720706     0.015423226
      8784.73       1.5501249     0.015577888
      8793.52       1.5287558     0.015564222
      8802.31       1.5139392     0.015636017
      8811.11       1.4870479     0.015731878
      8819.92       1.4588168     0.015810093
      8828.75       1.4301905     0.015928836
      8837.57       1.3951411     0.016046083
      8846.41       1.3593002     0.016104381
      8855.26       1.3204604     0.016373353
      8864.12       1.2615973     0.016513672
      8872.98       1.2140605     0.016861745
      8881.85       1.1861945     0.017062214
      8890.73       1.1727037     0.017460067
      8899.63       1.1701106     0.017677910
      8908.52       1.1590000     0.017927558
      8917.43       1.1398004     0.018185518
      8926.35       1.1382415     0.018312990
      8935.28       1.1309101     0.018384173
      8944.22       1.1286265     0.018383471
      8953.16       1.1211141     0.018353907
      8962.11       1.1065319     0.018327045
      8971.08       1.0962919     0.018347205
      8980.05       1.0763458     0.018306148
      8989.03       1.0736987     0.018475875
      8998.02       1.0641504     0.018503991
      9007.02       1.0479836     0.018780831
      9016.02       1.0259224     0.018836662
      9025.04       1.0025774     0.018984369
      9034.07      0.97499651     0.019141406
      9043.10      0.97442979     0.019259307
      9052.14      0.97202239     0.019326120
      9061.20      0.99024286     0.019400911
      9070.26      0.98893970     0.019448216
      9079.33      0.99452033     0.019497949
      9088.41       1.0098435     0.019401627
      9097.50       1.0152545     0.019483138
      9106.60       1.0256793     0.019301894
      9115.70       1.0502358     0.019234483
      9124.82       1.0647328     0.019183691
      9133.94       1.0863528     0.019143347
      9143.08       1.0918812     0.019148222
      9152.22       1.1144809     0.019034492
      9161.37       1.1376974     0.019068088
      9170.54       1.1521635     0.019090028
      9179.71       1.1444124     0.019267157
      9188.89       1.1235821     0.019541643
      9198.08       1.0909752     0.019971001
      9207.28       1.0714376     0.020428447
      9216.48       1.0424615     0.021165930
      9225.70       1.0070516     0.022069122
      9234.92      0.97949876     0.022998570
      9244.16      0.95413107     0.023995056
      9253.40      0.91785492     0.024964657
      9262.66      0.88523532     0.025707598
      9271.92      0.88438300     0.026034182
      9281.20      0.88533156     0.026287443
      9290.48      0.86623293     0.026417771
      9299.77      0.85543914     0.026234489
      9309.07      0.86707086     0.026078048
      9318.38      0.86364192     0.025706375
      9327.69      0.87646864     0.025486971
      9337.02      0.88620249     0.025139727
      9346.36      0.89700507     0.024833335
      9355.71      0.90111140     0.024596174
      9365.07      0.93051833     0.024525284
      9374.43      0.96017327     0.024407501
      9383.80      0.96006485     0.024427023
      9393.19      0.95204822     0.024378735
      9402.58      0.94892533     0.024223974
      9411.98      0.95990817     0.024118634
      9421.40      0.98032207     0.023883103
      9430.82      0.98564006     0.023640854
      9440.25       1.0000509     0.023335620
      9449.69       1.0152021     0.023071317
      9459.14       1.0165215     0.022660684
      9468.60      0.99019887     0.022271222
      9478.07      0.98208851     0.022035476
      9487.55      0.98401395     0.021738452
      9497.04      0.98635826     0.021451832
      9506.53      0.99934138     0.021254129
      9516.04       1.0177131     0.020937457
      9525.56       1.0366949     0.020578756
      9535.08       1.0415675     0.020276672
      9544.62       1.0535272     0.019878186
      9554.16       1.0505063     0.019503287
      9563.72       1.0563432     0.019195417
      9573.29       1.0668016     0.019352765
      9582.85       1.0774457     0.019556768
      9592.44       1.0809956     0.019813812
      9602.03       1.0842295     0.020128378
      9611.63       1.0970154     0.020553574
      9621.25       1.1090846     0.021123736
      9630.87       1.1153733     0.021842928
      9640.50       1.1238631     0.022803390
      9650.14       1.1350244     0.024116482
      9659.79       1.1494046     0.025849435
      9669.45       1.1640153     0.028089682
      9679.12       1.1791115     0.030986708
      9688.80       1.1903541     0.034815997
      9698.49       1.2048142     0.039840452
      9708.19       1.2137105     0.046054855
      9717.90       1.2173570     0.053658635
