# starting wavelength =        3314.8800
# ending wavelength =        10463.800
# O2 telluric scale =        0
# O2 telluric shift =        0
# H2O telluric scale =        0
# H2O telluric shift =        0
      3315.00      0.31122643     0.030905169
      3318.31      0.30821623     0.025052333
      3321.63      0.30505537     0.021310689
      3324.95      0.30604197     0.018421278
      3328.28      0.30701264     0.016809916
      3331.61      0.30836940     0.014934731
      3334.94      0.31118708     0.013093387
      3338.27      0.31450795     0.012040198
      3341.61      0.31740411     0.011218004
      3344.95      0.31970487     0.010744816
      3348.30      0.32525960     0.010187921
      3351.65      0.33146161    0.0097357003
      3355.00      0.33581225    0.0093335032
      3358.35      0.33872779    0.0090400907
      3361.71      0.34370623    0.0087864097
      3365.07      0.34891689    0.0086471552
      3368.44      0.35496205    0.0084434452
      3371.81      0.36133859    0.0083158367
      3375.18      0.36717730    0.0081552935
      3378.56      0.37472027    0.0080078189
      3381.94      0.37969865    0.0080434760
      3385.32      0.38960204    0.0080109269
      3388.70      0.39748282    0.0079225831
      3392.09      0.40409917    0.0079574650
      3395.48      0.41216011    0.0079249767
      3398.88      0.41989047    0.0078935674
      3402.28      0.42563600    0.0078723909
      3405.68      0.43069201    0.0078399230
      3409.09      0.43609686    0.0078082903
      3412.49      0.44041935    0.0078433860
      3415.91      0.44409508    0.0077554412
      3419.32      0.44770540    0.0077237593
      3422.74      0.44970571    0.0077593701
      3426.17      0.45052407    0.0077263848
      3429.59      0.45114604    0.0076401102
      3433.02      0.45288426    0.0076763696
      3436.45      0.45210324    0.0076431897
      3439.89      0.45176403    0.0076109912
      3443.33      0.45207797    0.0075942734
      3446.78      0.45071698    0.0075608875
      3450.22      0.44708047    0.0075284395
      3453.67      0.44454446    0.0075636262
      3457.13      0.44191690    0.0075326736
      3460.58      0.43939596    0.0074470555
      3464.04      0.43587893    0.0074811893
      3467.51      0.43217031    0.0074499939
      3470.98      0.43212619    0.0074194632
      3474.45      0.43070802    0.0073998562
      3477.92      0.42903893    0.0073682663
      3481.40      0.42817673    0.0073376152
      3484.88      0.42705555    0.0073736082
      3488.37      0.42735827    0.0073415744
      3491.86      0.42659482    0.0072568416
      3495.35      0.42687748    0.0072943421
      3498.84      0.42511521    0.0072618090
      3502.34      0.42465674    0.0072301427
      3505.84      0.42487474    0.0071992894
      3509.35      0.42525772    0.0072347117
      3512.86      0.42445029    0.0071515453
      3516.37      0.42606243    0.0071201700
      3519.89      0.42622189    0.0071545481
      3523.41      0.42687972    0.0071243476
      3526.93      0.42918178    0.0070948331
      3530.46      0.43190250    0.0070758475
      3533.99      0.43376620    0.0070452362
      3537.53      0.43706524    0.0070152041
      3541.06      0.43957905    0.0069858850
      3544.60      0.44266226    0.0070209636
      3548.15      0.44569934    0.0069903281
      3551.70      0.45059206    0.0069074250
      3555.25      0.45230616    0.0069447490
      3558.80      0.45468106    0.0069135029
      3562.36      0.45830865    0.0068830626
      3565.92      0.46116132    0.0068530996
      3569.49      0.46182550    0.0068881607
      3573.06      0.46269471    0.0068078456
      3576.64      0.46499071    0.0067773901
      3580.21      0.46599795    0.0067474903
      3583.79      0.46598809    0.0067815202
      3587.38      0.46448451    0.0067525883
      3590.96      0.46203117    0.0067240528
      3594.55      0.46004166    0.0066962030
      3598.15      0.45697366    0.0066766436
      3601.75      0.45022530    0.0066476518
      3605.35      0.44576760    0.0066190383
      3608.96      0.44060207    0.0066556685
      3612.56      0.43469284    0.0066258164
      3616.18      0.43256129    0.0065964699
      3619.79      0.42991557    0.0065676586
      3623.41      0.42760369    0.0066029142
      3627.04      0.42636959    0.0065240037
      3630.66      0.42807757    0.0064945478
      3634.29      0.42919313    0.0064655456
      3637.93      0.43082838    0.0064996989
      3641.57      0.43362245    0.0064713427
      3645.21      0.43708830    0.0064434881
      3648.86      0.44204688    0.0064161121
      3652.50      0.44663004    0.0063891196
      3656.16      0.45037384    0.0064229958
      3659.81      0.45219925    0.0063421028
      3663.47      0.45737698    0.0063145516
      3667.14      0.46055090    0.0062872525
      3670.80      0.46146664    0.0063235102
      3674.48      0.45993963    0.0062950062
      3678.15      0.45600560    0.0062668564
      3681.83      0.44886242    0.0062392461
      3685.51      0.44014003    0.0062742602
      3689.20      0.42797123    0.0062470603
      3692.88      0.41454646    0.0062201696
      3696.58      0.40278218    0.0061936972
      3700.27      0.39045710    0.0061143615
      3703.98      0.37655250    0.0061481784
      3707.68      0.36015060    0.0061211063
      3711.39      0.34649140    0.0060942938
      3715.10      0.33466017    0.0060678127
      3718.81      0.32375876    0.0061050122
      3722.53      0.31305148    0.0060772989
      3726.26      0.30039996    0.0060499553
      3729.98      0.28839730    0.0060230024
      3733.71      0.27995606    0.0059963143
      3737.45      0.27263865    0.0060318884
      3741.18      0.26862734    0.0060054160
      3744.93      0.26726942    0.0059794002
      3748.67      0.26719823    0.0059536236
      3752.42      0.26378079    0.0059280693
      3756.17      0.26028144    0.0059101672
      3759.93      0.25862181    0.0058837395
      3763.69      0.25690639    0.0058577196
      3767.45      0.25929209    0.0058318345
      3771.22      0.26142620    0.0058062028
      3774.99      0.26284655    0.0057807947
      3778.77      0.26565016    0.0058183620
      3782.54      0.26890416    0.0057919834
      3786.33      0.27330723    0.0057658096
      3790.11      0.27919729    0.0057399677
      3793.90      0.28149285    0.0057142978
      3797.70      0.28936022    0.0057497534
      3801.50      0.29361654    0.0057242303
      3805.30      0.30271710    0.0056990144
      3809.10      0.31531541    0.0056739586
      3812.91      0.32981785    0.0056491860
      3816.73      0.34736054    0.0056245704
      3820.54      0.36578857    0.0056624188
      3824.36      0.38808845    0.0056368870
      3828.19      0.41499004    0.0056114020
      3832.02      0.44789332    0.0055863191
      3835.85      0.48440908    0.0055614011
      3839.68      0.52326388    0.0055366267
      3843.52      0.55857634    0.0055732479
      3847.37      0.59443042    0.0055484898
      3851.22      0.62885439    0.0055240959
      3855.07      0.66507454    0.0054996685
      3858.92      0.70430841    0.0054755080
      3862.78      0.74308731    0.0054515744
      3866.64      0.78097888    0.0054277399
      3870.51      0.81727626    0.0054667525
      3874.38      0.85135281    0.0054420912
      3878.26      0.88225655    0.0054176745
      3882.13      0.91067825    0.0053933341
      3886.02      0.93192706    0.0053692535
      3889.90      0.95165802    0.0053452940
      3893.79      0.96966486    0.0053215481
      3897.69      0.98659270    0.0053588128
      3901.59       1.0016723    0.0053350147
      3905.49       1.0160234    0.0053114423
      3909.39       1.0317162    0.0052878255
      3913.30       1.0447853    0.0052645220
      3917.22       1.0553264    0.0052413377
      3921.13       1.0664469    0.0052182372
      3925.06       1.0764738    0.0052495752
      3928.98       1.0857161    0.0052888936
      3932.91       1.0904249    0.0052656671
      3936.84       1.0902139    0.0052425065
      3940.78       1.0883989    0.0052195759
      3944.72       1.0904113    0.0051967130
      3948.67       1.0922708    0.0051738825
      3952.61       1.0942165    0.0051512237
      3956.57       1.0989221    0.0051287185
      3960.52       1.1038167    0.0051062241
      3964.48       1.1095732    0.0051484187
      3968.45       1.1164237    0.0051257214
      3972.42       1.1246227    0.0051029804
      3976.39       1.1346571    0.0050804489
      3980.37       1.1473971    0.0050581042
      3984.35       1.1609119    0.0050910815
      3988.33       1.1758038    0.0050687462
      3992.32       1.1894508    0.0050467329
      3996.31       1.2022155    0.0050244792
      4000.31       1.2109393    0.0050025510
      4004.31       1.2240247    0.0049806686
      4008.31       1.2326222    0.0050236896
      4012.32       1.2393923    0.0050019049
      4016.33       1.2392685    0.0049801815
      4020.35       1.2361879    0.0049586976
      4024.37       1.2310077    0.0049370714
      4028.40       1.2228036    0.0049717150
      4032.42       1.2119614    0.0049499230
      4036.46       1.1978232    0.0049282898
      4040.50       1.1814055    0.0049068382
      4044.54       1.1636443    0.0048854349
      4048.58       1.1474541    0.0048642117
      4052.63       1.1298874    0.0048429335
      4056.68       1.1113061    0.0048218452
      4060.74       1.0947273    0.0048009384
      4064.80       1.0762334    0.0047800978
      4068.86       1.0589120    0.0047594153
      4072.93       1.0401987    0.0046784775
      4077.01       1.0178630    0.0046583155
      4081.08      0.99931200    0.0046382387
      4085.17      0.97981519    0.0046183539
      4089.25      0.96062095    0.0045986832
      4093.34      0.94185820    0.0045790522
      4097.43      0.92314002    0.0045596508
      4101.53      0.90796173    0.0045403450
      4105.63      0.89544400    0.0045211792
      4109.74      0.88222379    0.0045022385
      4113.85      0.87126375    0.0044833691
      4117.96      0.86444366    0.0044647527
      4122.08      0.86069993    0.0044463506
      4126.20      0.85813020    0.0044280548
      4130.33      0.85842570    0.0043518811
      4134.46      0.85777912    0.0043332713
      4138.59      0.85858918    0.0043147566
      4142.73      0.85516292    0.0042965906
      4146.88      0.85364228    0.0042785122
      4151.02      0.84848412    0.0042605730
      4155.18      0.84253011    0.0042429424
      4159.33      0.83544922    0.0042747392
      4163.49      0.83044011    0.0042572169
      4167.65      0.82737745    0.0042399571
      4171.82      0.82276407    0.0041702761
      4175.99      0.81858798    0.0041524236
      4180.17      0.81910336    0.0041348867
      4184.35      0.82019363    0.0041173990
      4188.54      0.82287675    0.0041003051
      4192.72      0.82839137    0.0040833553
      4196.92      0.83580731    0.0040665772
      4201.11      0.84379181    0.0040502014
      4205.31      0.85075752    0.0040339718
      4209.52      0.86097340    0.0039691249
      4213.73      0.87008997    0.0039989278
      4217.94      0.87866289    0.0039821189
      4222.16      0.88595666    0.0039654901
      4226.38      0.89398933    0.0039492942
      4230.61      0.89727097    0.0039333010
      4234.84      0.90054702    0.0039175502
      4239.08      0.90185536    0.0038547355
      4243.32      0.90232896    0.0038397192
      4247.56      0.90234372    0.0038250126
      4251.81      0.90160795    0.0038106383
      4256.06      0.89841488    0.0038379732
      4260.32      0.89780283    0.0038224997
      4264.58      0.89798453    0.0038072996
      4268.84      0.89895343    0.0037465249
      4273.11      0.90232099    0.0037321886
      4277.38      0.90591828    0.0037182128
      4281.66      0.90841809    0.0037045059
      4285.94      0.91395920    0.0036911573
      4290.23      0.92115897    0.0036781166
      4294.52      0.93146626    0.0036579320
      4298.81      0.93338638    0.0036440487
      4303.11      0.93550826    0.0036305629
      4307.42      0.93369735    0.0036173733
      4311.72      0.92869550    0.0036045804
      4316.04      0.92264878    0.0035921297
      4320.35      0.91628944    0.0035339428
      4324.67      0.90703329    0.0035602517
      4329.00      0.90071630    0.0035473632
      4333.33      0.89438450    0.0035347950
      4337.66      0.88646064    0.0035226616
      4342.00      0.88196505    0.0034673184
      4346.34      0.87832143    0.0034544564
      4350.69      0.87452002    0.0034419419
      4355.04      0.87040560    0.0034684697
      4359.39      0.86586643    0.0034566594
      4363.75      0.86021014    0.0034036012
      4368.12      0.85863031    0.0033911106
      4372.48      0.85731677    0.0033790163
      4376.86      0.85460860    0.0033673124
      4381.23      0.84691009    0.0033939503
      4385.61      0.84079620    0.0033427097
      4390.00      0.83301623    0.0033305675
      4394.39      0.82781737    0.0033189586
      4398.79      0.82236751    0.0033077873
      4403.18      0.81775396    0.0032592885
      4407.59      0.81420992    0.0032844252
      4412.00      0.81469113    0.0032728429
      4416.41      0.81777012    0.0032617297
      4420.82      0.82152320    0.0032511804
      4425.25      0.82921776    0.0032040468
      4429.67      0.83948664    0.0032288361
      4434.10      0.85202721    0.0032178520
      4438.54      0.86820936    0.0032074279
      4442.97      0.88725155    0.0031610560
      4447.42      0.90806362    0.0031518145
      4451.86      0.93498193    0.0031759297
      4456.32      0.96606463    0.0031657446
      4460.77      0.99984497    0.0031201758
      4465.24       1.0338291    0.0031111866
      4469.70       1.0697388    0.0031028043
      4474.17       1.1087333    0.0031259297
      4478.65       1.1501602    0.0030811615
      4483.12       1.1903622    0.0030726064
      4487.61       1.2297157    0.0030645931
      4492.09       1.2689715    0.0030528970
      4496.59       1.3069108    0.0030441083
      4501.08       1.3438841    0.0030359620
      4505.58       1.3793194    0.0030283241
      4510.09       1.4143826    0.0029847425
      4514.60       1.4456101    0.0030089777
      4519.12       1.4746845    0.0030012654
      4523.63       1.5049828    0.0029941431
      4528.16       1.5373816    0.0029512222
      4532.69       1.5652387    0.0029756415
      4537.22       1.5946281    0.0029684135
      4541.76       1.6247832    0.0029272627
      4546.30       1.6520675    0.0029194813
      4550.85       1.6778317    0.0029442138
      4555.40       1.7000215    0.0029046206
      4559.95       1.7218250    0.0028967898
      4564.51       1.7441786    0.0028896061
      4569.08       1.7624568    0.0029147863
      4573.65       1.7765064    0.0028753428
      4578.22       1.7889236    0.0028681887
      4582.80       1.8001833    0.0028617380
      4587.38       1.8099541    0.0028550130
      4591.97       1.8144822    0.0028479124
      4596.56       1.8134498    0.0028415177
      4601.16       1.8079534    0.0028357136
      4605.76       1.8056593    0.0028287125
      4610.37       1.8027217    0.0028224613
      4614.98       1.8012046    0.0027868517
      4619.59       1.7913686    0.0028106362
      4624.21       1.7796365    0.0028045256
      4628.84       1.7660734    0.0027692710
      4633.47       1.7508699    0.0027935247
      4638.10       1.7317506    0.0027876421
      4642.74       1.7084163    0.0027528849
      4647.38       1.6846233    0.0027775168
      4652.03       1.6630587    0.0027717866
      4656.68       1.6373334    0.0027375172
      4661.34       1.6109440    0.0027335447
      4666.00       1.5851174    0.0027569868
      4670.67       1.5581671    0.0027232535
      4675.33       1.5316991    0.0027196114
      4680.01       1.4987379    0.0027141284
      4684.69       1.4700623    0.0027099876
      4689.38       1.4447167    0.0027067493
      4694.07       1.4211122    0.0027016051
      4698.76       1.3988049    0.0026978778
      4703.46       1.3778883    0.0026949961
      4708.16       1.3554137    0.0026900484
      4712.87       1.3355512    0.0026867270
      4717.58       1.3157351    0.0026547824
      4722.30       1.2977423    0.0026795706
      4727.03       1.2749016    0.0026767510
      4731.75       1.2489285    0.0026448740
      4736.48       1.2238671    0.0026701175
      4741.22       1.1975146    0.0026395564
      4745.96       1.1715790    0.0026359864
      4750.71       1.1439474    0.0026617998
      4755.46       1.1159667    0.0026311877
      4760.22       1.0888840    0.0026281381
      4764.97       1.0616977    0.0026271964
      4769.74       1.0388045    0.0026238688
      4774.51       1.0215568    0.0026499317
      4779.29       1.0081854    0.0026203102
      4784.07      0.99942478    0.0026176587
      4788.85       1.0002445    0.0026175803
      4793.64       1.0029325    0.0026145506
      4798.43       1.0128033    0.0026126241
      4803.23       1.0296341    0.0026122336
      4808.03       1.0414126    0.0026099701
      4812.84       1.0581917    0.0026105155
      4817.66       1.0669297    0.0026079696
      4822.48       1.0745913    0.0025807760
      4827.30       1.0813944    0.0026067578
      4832.12       1.0850844    0.0026050562
      4836.96       1.0842689    0.0025788501
      4841.79       1.0826312    0.0026041913
      4846.63       1.0774895    0.0025778114
      4851.48       1.0732047    0.0026039290
      4856.33       1.0711745    0.0025774455
      4861.19       1.0684555    0.0026043001
      4866.05       1.0718848    0.0025776258
      4870.92       1.0785648    0.0025777526
      4875.79       1.0907998    0.0025783602
      4880.66       1.1115052    0.0025784839
      4885.55       1.1370577    0.0025797428
      4890.43       1.1679190    0.0025796311
      4895.32       1.1999881    0.0025808432
      4900.22       1.2379479    0.0025814101
      4905.12       1.2738539    0.0025825607
      4910.02       1.3128947    0.0025837063
      4914.94       1.3478601    0.0025848032
      4919.85       1.3820821    0.0025864804
      4924.77       1.4129305    0.0025875415
      4929.70       1.4406295    0.0025623099
      4934.62       1.4644220    0.0025908139
      4939.56       1.4826814    0.0025659814
      4944.50       1.4970169    0.0025945865
      4949.44       1.4992721    0.0025700465
      4954.39       1.4949759    0.0025987757
      4959.35       1.4804298    0.0025746391
      4964.31       1.4584879    0.0026035614
      4969.27       1.4273488    0.0025796280
      4974.24       1.3912010    0.0026087039
      4979.22       1.3480385    0.0025850364
      4984.20       1.3066500    0.0025865162
      4989.18       1.2574017    0.0025909148
      4994.17       1.2136499    0.0025925163
      4999.16       1.1658200    0.0025971499
      5004.16       1.1250871    0.0025749753
      5009.17       1.0889873    0.0026038287
      5014.18       1.0626167    0.0025818554
      5019.19       1.0406332    0.0026109707
      5024.21       1.0282819    0.0025891541
      5029.23       1.0228497    0.0026184399
      5034.26       1.0276329    0.0025968781
      5039.30       1.0386209    0.0026263623
      5044.34       1.0529863    0.0026051269
      5049.39       1.0738054    0.0026347386
      5054.43       1.0950521    0.0026136932
      5059.49       1.1197949    0.0026434676
      5064.55       1.1455648    0.0026228129
      5069.61       1.1728052    0.0026285972
      5074.68       1.1995143    0.0026323653
      5079.76       1.2264392    0.0026381548
      5084.84       1.2505153    0.0026423874
      5089.92       1.2723135    0.0026482528
      5095.01       1.2921074    0.0026529350
      5100.11       1.3120919    0.0026587941
      5105.21       1.3279748    0.0026380455
      5110.31       1.3434827    0.0026698010
      5115.42       1.3530197    0.0026768897
      5120.54       1.3646380    0.0026813292
      5125.66       1.3746928    0.0026883636
      5130.79       1.3826200    0.0026682961
      5135.92       1.3910185    0.0027003044
      5141.05       1.3979652    0.0026800086
      5146.20       1.4056687    0.0027127982
      5151.34       1.4132731    0.0026922486
      5156.49       1.4230751    0.0027012565
      5161.65       1.4319775    0.0027049496
      5166.81       1.4425232    0.0027138076
      5171.98       1.4534300    0.0027471269
      5177.15       1.4634122    0.0027269257
      5182.33       1.4737296    0.0027366971
      5187.51       1.4863219    0.0027405657
      5192.70       1.5028514    0.0027501287
      5197.89       1.5192856    0.0027547922
      5203.09       1.5340425    0.0027641905
      5208.29       1.5515716    0.0027745583
      5213.50       1.5688838    0.0027788076
      5218.72       1.5893692    0.0027889219
      5223.93       1.6064640    0.0027701498
      5229.16       1.6244520    0.0028039733
      5234.39       1.6484672    0.0028147755
      5239.62       1.6643147    0.0027955012
      5244.86       1.6833799    0.0028301151
      5250.11       1.7031172    0.0028117612
      5255.36       1.7233988    0.0028218992
      5260.61       1.7410123    0.0028573494
      5265.87       1.7589791    0.0028386259
      5271.14       1.7755723    0.0028492921
      5276.41       1.7906450    0.0028560975
      5281.69       1.8032424    0.0028664659
      5286.97       1.8169277    0.0028776552
      5292.26       1.8314997    0.0028844486
      5297.55       1.8454629    0.0028952644
      5302.85       1.8599307    0.0028769777
      5308.15       1.8711337    0.0029137706
      5313.46       1.8811671    0.0029250252
      5318.77       1.8873646    0.0029067730
      5324.09       1.8908716    0.0029440448
      5329.42       1.8964862    0.0029556741
      5334.75       1.8937775    0.0029374369
      5340.08       1.8826383    0.0029752859
      5345.42       1.8749533    0.0029872093
      5350.77       1.8649623    0.0029688962
      5356.12       1.8488104    0.0029821171
      5361.48       1.8322239    0.0030196951
      5366.83       1.8138711    0.0030012635
      5372.20       1.7903149    0.0030146821
      5377.58       1.7683916    0.0030529857
      5382.95       1.7478249    0.0030344032
      5388.34       1.7285119    0.0030480556
      5393.72       1.7164680    0.0030622969
      5399.12       1.7099037    0.0030684548
      5404.52       1.7057294    0.0030822158
      5409.92       1.7064236    0.0030966202
      5415.33       1.7142050    0.0031034013
      5420.75       1.7299624    0.0031172467
      5426.17       1.7497464    0.0031317112
      5431.60       1.7714991    0.0031138668
      5437.03       1.7909107    0.0031532283
      5442.47       1.8148172    0.0031677325
      5447.91       1.8381883    0.0031504315
      5453.36       1.8601880    0.0031642945
      5458.81       1.8724256    0.0032046147
      5464.27       1.8794948    0.0031881136
      5469.73       1.8802482    0.0032020375
      5475.20       1.8723091    0.0032163969
      5480.68       1.8579038    0.0032312743
      5486.16       1.8343061    0.0032406890
      5491.65       1.8010377    0.0032550717
      5497.14       1.7624740    0.0032699647
      5502.64       1.7173172    0.0032852460
      5508.14       1.6688866    0.0032949674
      5513.65       1.6152751    0.0033097487
      5519.16       1.5610257    0.0033250092
      5524.68       1.5052081    0.0033070517
      5530.20       1.4436114    0.0033229583
      5535.73       1.3833212    0.0033659766
      5541.27       1.3216498    0.0033815347
      5546.81       1.2655710    0.0033633276
      5552.36       1.2111199    0.0033794606
      5557.91       1.1568646    0.0033960205
      5563.47       1.1041324    0.0034395161
      5569.04       1.0568952    0.0034209264
      5574.60       1.0092924    0.0034373330
      5580.18      0.96600847    0.0034540996
      5585.76      0.92539343    0.0034711944
      5591.35      0.88559612    0.0034800879
      5596.94      0.84846364    0.0034966392
      5602.53      0.81377710    0.0035135085
      5608.14      0.78083021    0.0035307614
      5613.75      0.74818901    0.0035482985
      5619.36      0.71981074    0.0035300734
      5624.98      0.69506971    0.0035745877
      5630.60      0.67041849    0.0035918611
      5636.23      0.64788869    0.0036094433
      5641.87      0.63164969    0.0036273296
      5647.51      0.62008503    0.0036092369
      5653.16      0.61272481    0.0036264113
      5658.82      0.60939020    0.0036439028
      5664.47      0.60812429    0.0036901820
      5670.14      0.61062343    0.0037083359
      5675.81      0.61636384    0.0036906948
      5681.48      0.62235676    0.0037081762
      5687.17      0.63422148    0.0037259570
      5692.85      0.65149533    0.0037439343
      5698.55      0.66883229    0.0037621526
      5704.25      0.68867328    0.0037436856
      5709.95      0.71397936    0.0037924754
      5715.66      0.74252842    0.0038103992
      5721.38      0.77425719    0.0038285585
      5727.10      0.80995541    0.0038469420
      5732.83      0.84892692    0.0038655498
      5738.56      0.88973976    0.0038464290
      5744.30      0.93354137    0.0038652054
      5750.04      0.98075942    0.0038841760
      5755.79       1.0285444    0.0039033455
      5761.55       1.0789518    0.0039226681
      5767.31       1.1305923    0.0039721451
      5773.08       1.1816989    0.0039912211
      5778.85       1.2333105    0.0039713476
      5784.63       1.2866819    0.0039906011
      5790.41       1.3398068    0.0040099989
      5796.21       1.3945294    0.0040295014
      5802.00       1.4472829    0.0040491843
      5807.81       1.5002745    0.0040691084
      5813.61       1.5523340    0.0040893524
      5819.43       1.6047897    0.0041099685
      5825.25       1.6496303    0.0041919379
      5831.07       1.6937596    0.0043560019
      5836.90       1.7340075    0.0045350860
      5842.74       1.7702449    0.0048389791
      5848.58       1.8013727    0.0051739301
      5854.43       1.8268679    0.0058834207
      5860.29       1.8475755    0.0052607538
      5866.15       1.8644729    0.0053190976
      5872.01       1.8777171    0.0056219795
      5877.89       1.8829399    0.0060618066
      5883.76       1.8814115    0.0066020330
      5889.65       1.8708365    0.0071059571
      5895.54       1.8579665    0.0075107554
      5901.43       1.8422361    0.0075318659
      5907.34       1.8302348    0.0072632414
      5913.24       1.8240387    0.0068402102
      5919.16       1.8239424    0.0063892403
      5925.08       1.8229382    0.0059970181
      5931.00       1.8187689    0.0057260532
      5936.93       1.8128845    0.0072909434
      5942.87       1.8106987    0.0064448956
      5948.81       1.8068819    0.0056911042
      5954.76       1.7996021    0.0053497670
      5960.72       1.7898536    0.0050391186
      5966.68       1.7786414    0.0048611161
      5972.64       1.7645965    0.0047045494
      5978.62       1.7483331    0.0045888618
      5984.60       1.7286920    0.0046079362
      5990.58       1.7094246    0.0046278537
      5996.57       1.6877340    0.0046472410
      6002.57       1.6638291    0.0046663075
      6008.57       1.6414502    0.0046522838
      6014.58       1.6187658    0.0046728384
      6020.60       1.5973720    0.0046937180
      6026.62       1.5756547    0.0047147665
      6032.65       1.5558412    0.0047361425
      6038.68       1.5364186    0.0047578716
      6044.72       1.5168100    0.0047796380
      6050.76       1.4993876    0.0048014133
      6056.81       1.4834436    0.0048233412
      6062.87       1.4687578    0.0048454499
      6068.93       1.4558353    0.0048676508
      6075.00       1.4436545    0.0048899496
      6081.08       1.4328339    0.0049123054
      6087.16       1.4233816    0.0049347825
      6093.25       1.4135482    0.0049573836
      6099.34       1.4045152    0.0049800162
      6105.44       1.3976734    0.0049649909
      6111.54       1.3926142    0.0049872332
      6117.66       1.3913073    0.0050095786
      6123.78       1.3927568    0.0050319510
      6129.90       1.3980275    0.0050544124
      6136.03       1.4060968    0.0051236131
      6142.17       1.4165289    0.0051464602
      6148.31       1.4307050    0.0051693588
      6154.46       1.4473266    0.0051923684
      6160.61       1.4666867    0.0052154416
      6166.77       1.4895808    0.0052012672
      6172.94       1.5118117    0.0052237722
      6179.11       1.5348088    0.0052463905
      6185.29       1.5564395    0.0052690776
      6191.48       1.5728813    0.0052919987
      6197.67       1.5864982    0.0053154956
      6203.87       1.5967657    0.0053404555
      6210.07       1.5998303    0.0053660186
      6216.28       1.5974222    0.0053517009
      6222.50       1.5907496    0.0053756046
      6228.72       1.5819931    0.0054024822
      6234.95       1.5724093    0.0054813674
      6241.19       1.5602146    0.0055140178
      6247.42       1.5460513    0.0055491413
      6253.67       1.5298316    0.0055857191
      6259.93       1.5130695    0.0055839071
      6266.19       1.4973424    0.0056187887
      6272.46       1.4853432    0.0056514137
      6278.73       1.4745686    0.0056807799
      6285.01       1.4643069    0.0057062078
      6291.29       1.4555936    0.0056832315
      6297.58       1.4493597    0.0057493833
      6303.88       1.4456688    0.0057628349
      6310.19       1.4437011    0.0057758028
      6316.50       1.4442045    0.0057905842
      6322.81       1.4466034    0.0058091211
      6329.14       1.4482738    0.0057860511
      6335.47       1.4503466    0.0058032386
      6341.80       1.4531508    0.0058711740
      6348.14       1.4580742    0.0058913552
      6354.49       1.4653989    0.0059120778
      6360.85       1.4695453    0.0058905303
      6367.21       1.4721651    0.0059110925
      6373.57       1.4761157    0.0059323735
      6379.95       1.4808338    0.0059543836
      6386.33       1.4871074    0.0059882289
      6392.72       1.4927406    0.0060104745
      6399.11       1.4984529    0.0060335308
      6405.51       1.5045803    0.0060572081
      6411.92       1.5130994    0.0060400396
      6418.32       1.5189039    0.0060648280
      6424.74       1.5267556    0.0061426959
      6431.17       1.5322033    0.0061691557
      6437.60       1.5365290    0.0061562515
      6444.04       1.5401210    0.0061859737
      6450.48       1.5395962    0.0062151405
      6456.94       1.5377038    0.0062969715
      6463.39       1.5339072    0.0062815599
      6469.85       1.5293239    0.0063090230
      6476.33       1.5218757    0.0063358850
      6482.80       1.5115994    0.0063617791
      6489.28       1.5011255    0.0063933960
      6495.77       1.4976970    0.0064156787
      6502.27       1.4946452    0.0064380769
      6508.77       1.4979753    0.0064148951
      6515.28       1.4963494    0.0064922005
      6521.80       1.4983004    0.0065160098
      6528.32       1.5028342    0.0065405338
      6534.85       1.5031407    0.0065176751
      6541.38       1.4979791    0.0065394901
      6547.92       1.4893631    0.0066168258
      6554.47       1.4749023    0.0065924579
      6561.03       1.4619503    0.0066140341
      6567.59       1.4482260    0.0066366484
      6574.16       1.4293818    0.0066687127
      6580.73       1.4115496    0.0066884648
      6587.31       1.3927713    0.0067099979
      6593.90       1.3690922    0.0067450202
      6600.50       1.3462887    0.0067672828
      6607.10       1.3272501    0.0067903671
      6613.70       1.3119095    0.0067689671
      6620.32       1.2985000    0.0068499871
      6626.94       1.2847802    0.0068734418
      6633.57       1.2729503    0.0068514804
      6640.20       1.2587236    0.0068763966
      6646.84       1.2482766    0.0069566460
      6653.49       1.2363092    0.0069344714
      6660.14       1.2182289    0.0069595790
      6666.80       1.1982175    0.0070407184
      6673.47       1.1750977    0.0070179006
      6680.14       1.1533998    0.0070431689
      6686.82       1.1343396    0.0070770836
      6693.51       1.1160086    0.0071014257
      6700.20       1.0997607    0.0071268348
      6706.90       1.0858446    0.0071606570
      6713.61       1.0746001    0.0071851659
      6720.32       1.0645809    0.0071613740
      6727.05       1.0570470    0.0072442172
      6733.77       1.0508382    0.0072691728
      6740.51       1.0462052    0.0072441938
      6747.25       1.0432361    0.0073279788
      6754.00       1.0385576    0.0073039735
      6760.75       1.0314770    0.0073271434
      6767.51       1.0257473    0.0074119700
      6774.28       1.0171106    0.0073867011
      6781.05       1.0053606    0.0074128573
      6787.84      0.99039438    0.0074684655
      6794.62      0.97753551    0.0075127919
      6801.42      0.96384075    0.0074925062
      6808.22      0.94854223    0.0075696688
      6815.03      0.93273613    0.0076126982
      6821.85      0.91583495    0.0077110425
      6828.67      0.90476411    0.0078037593
      6835.50      0.89394077    0.0078786166
      6842.33      0.88722772    0.0080928490
      6849.17      0.88252356    0.0081863031
      6856.02      0.87866891    0.0083177385
      6862.88      0.87736124    0.0084689040
      6869.74      0.88348863    0.0085524035
      6876.61      0.89609898    0.0086134853
      6883.49      0.90537048    0.0086181250
      6890.37      0.91291123    0.0085136991
      6897.27      0.92579489    0.0085209263
      6904.16      0.93887283    0.0084570908
      6911.07      0.95011325    0.0083794266
      6917.98      0.96111458    0.0083482689
      6924.89      0.97960788    0.0083338144
      6931.82      0.99372528    0.0083061836
      6938.75       1.0036618    0.0082163670
      6945.69       1.0129316    0.0082675680
      6952.64       1.0221272    0.0082105118
      6959.59       1.0265029    0.0082170736
      6966.55       1.0276808    0.0082218750
      6973.52       1.0278671    0.0082422767
      6980.49       1.0259030    0.0082580790
      6987.47       1.0204387    0.0082905799
      6994.46       1.0160844    0.0083117761
      7001.46       1.0121821    0.0083449173
      7008.46       1.0086781    0.0083624894
      7015.46       1.0010409    0.0083886515
      7022.48      0.99503090    0.0084007600
      7029.51      0.99383688    0.0083609358
      7036.53      0.99282652    0.0084389048
      7043.57      0.99298720    0.0084023181
      7050.62      0.99704409    0.0084264984
      7057.66       1.0038602    0.0084444307
      7064.72       1.0090420    0.0084695354
      7071.79       1.0154416    0.0084901016
      7078.86       1.0232128    0.0085188623
      7085.94       1.0292526    0.0085456983
      7093.03       1.0395400    0.0085848831
      7100.12       1.0524713    0.0085597512
      7107.22       1.0639597    0.0086598119
      7114.33       1.0725224    0.0087086228
      7121.44       1.0857408    0.0087531889
      7128.56       1.0998235    0.0088297648
      7135.69       1.1141819    0.0088622721
      7142.83       1.1267886    0.0090312667
      7149.97       1.1411979    0.0091015774
      7157.12       1.1615146    0.0092918301
      7164.28       1.1857362    0.0093375201
      7171.44       1.2088269    0.0094402171
      7178.62       1.2330490    0.0094956917
      7185.80       1.2598232    0.0095530718
      7192.98       1.2884480    0.0095902423
      7200.17       1.3117633    0.0095976599
      7207.38       1.3333341    0.0096061089
      7214.58       1.3498780    0.0096106263
      7221.80       1.3663099    0.0096358101
      7229.02       1.3840242    0.0096043332
      7236.25       1.3964899    0.0097122292
      7243.49       1.4029866    0.0097581250
      7250.73       1.4018640    0.0097149752
      7257.98       1.4032483    0.0097987333
      7265.24       1.4034529    0.0097292921
      7272.51       1.3992109    0.0097137916
      7279.78       1.3868649    0.0097682188
      7287.06       1.3726151    0.0096938826
      7294.35       1.3608107    0.0096798580
      7301.64       1.3441308    0.0095913896
      7308.94       1.3243962    0.0096334190
      7316.25       1.3050804    0.0096077599
      7323.57       1.2930732    0.0095256587
      7330.89       1.2839426    0.0095807170
      7338.22       1.2699690    0.0095733759
      7345.56       1.2497499    0.0095086253
      7352.91       1.2296331    0.0095799291
      7360.26       1.2145049    0.0095244482
      7367.62       1.2073530    0.0095394294
      7374.99       1.2050792    0.0095535458
      7382.37       1.1987799    0.0095588772
      7389.75       1.1824856    0.0095730088
      7397.14       1.1718290    0.0095907514
      7404.53       1.1667087    0.0095426199
      7411.94       1.1628616    0.0096240312
      7419.35       1.1506268    0.0096482380
      7426.77       1.1312074    0.0096044266
      7434.20       1.1073307    0.0096284965
      7441.63       1.0800392    0.0097150925
      7449.07       1.0551488    0.0096748682
      7456.52       1.0370643    0.0097017610
      7463.98       1.0250616    0.0097295909
      7471.45       1.0098216    0.0098193807
      7478.92      0.98967789    0.0097795397
      7486.40      0.96457415    0.0098082304
      7493.88      0.94416822    0.0098391291
      7501.38      0.92960116    0.0098174362
      7508.88      0.91531565    0.0099658372
      7516.39      0.89809949     0.010117422
      7523.91      0.87809027     0.010230464
      7531.43      0.85741342     0.010129222
      7538.96      0.84222057     0.010205159
      7546.50      0.83596814     0.010460529
      7554.05      0.83079521     0.010832768
      7561.60      0.81757800     0.011264507
      7569.16      0.79898011     0.011950359
      7576.73      0.77897562     0.012761634
      7584.31      0.76441782     0.013612702
      7591.89      0.77265323     0.014306677
      7599.49      0.79542316     0.015079749
      7607.09      0.81850427     0.015575036
      7614.70      0.82856456     0.015662154
      7622.31      0.82523449     0.015250540
      7629.93      0.83352857     0.014665407
      7637.56      0.86448464     0.014072098
      7645.20      0.91437398     0.013256263
      7652.85      0.96936809     0.012537802
      7660.50       1.0174017     0.012000478
      7668.16       1.0492162     0.011562654
      7675.83       1.0621631     0.011195230
      7683.50       1.0847390     0.010953295
      7691.19       1.1102248     0.010832995
      7698.88       1.1269944     0.010762671
      7706.58       1.1415980     0.010680195
      7714.29       1.1527620     0.010620378
      7722.00       1.1512844     0.010585407
      7729.73       1.1451439     0.010571567
      7737.45       1.1446606     0.010506479
      7745.19       1.1519403     0.010516084
      7752.94       1.1560415     0.010532973
      7760.69       1.1516912     0.010553565
      7768.45       1.1455350     0.010576638
      7776.22       1.1421530     0.010602162
      7784.00       1.1441791     0.010691360
      7791.78       1.1436351     0.010643026
      7799.57       1.1536261     0.010668721
      7807.37       1.1610676     0.010695066
      7815.18       1.1592613     0.010721283
      7822.99       1.1533910     0.010748113
      7830.82       1.1494377     0.010777066
      7838.65       1.1452665     0.010808165
      7846.49       1.1385346     0.010840342
      7854.34       1.1327599     0.010799804
      7862.19       1.1196443     0.010834927
      7870.05       1.0996982     0.010870643
      7877.93       1.0844126     0.010902826
      7885.80       1.0739425     0.010930260
      7893.69       1.0666707     0.010955636
      7901.58       1.0505562     0.010979928
      7909.49       1.0286428     0.011003542
      7917.40       1.0002517     0.011026558
      7925.31      0.96330990     0.011048592
      7933.24      0.93219125     0.011070849
      7941.17      0.91564176     0.011020028
      7949.11      0.91001935     0.011045316
      7957.06      0.90271957     0.011071820
      7965.02      0.89099373     0.011097551
      7972.98      0.87722138     0.011123256
      7980.96      0.86130539     0.011148425
      7988.94      0.85096988     0.011171720
      7996.93      0.83605510     0.011192147
      8004.93      0.82062613     0.011211525
      8012.93      0.80453308     0.011232039
      8020.95      0.78879793     0.011253465
      8028.97      0.76785604     0.011272837
      8036.99      0.73940669     0.011292188
      8045.03      0.71131417     0.011254519
      8053.08      0.69366526     0.011284435
      8061.13      0.68401917     0.011321933
      8069.20      0.67038486     0.011369492
      8077.26      0.65389443     0.011424739
      8085.34      0.63637529     0.011492548
      8093.43      0.61687014     0.011580165
      8101.52      0.59952954     0.011687848
      8109.62      0.58146617     0.011809551
      8117.73      0.56575226     0.011940351
      8125.85      0.54215077     0.012084212
      8133.98      0.50914612     0.012234259
      8142.11      0.46822337     0.012280612
      8150.25      0.43024264     0.012332967
      8158.41      0.39597384     0.012366999
      8166.56      0.36222207     0.012393385
      8174.73      0.32362915     0.012406884
      8182.91      0.28143887     0.012411358
      8191.09      0.24481896     0.012405146
      8199.28      0.22141524     0.012314653
      8207.48      0.21044315     0.012294326
      8215.69      0.20803259     0.012357927
      8223.91      0.20002944     0.012355330
      8232.13      0.19190775     0.012348399
      8240.36      0.19062219     0.012332696
      8248.60      0.19638839     0.012313996
      8256.85      0.20670577     0.012217023
      8265.11      0.21282195     0.012192397
      8273.37      0.22250713     0.012170539
      8281.65      0.23849790     0.012169189
      8289.93      0.25860298     0.012185151
      8298.22      0.27704941     0.012100517
      8306.52      0.29224635     0.012120049
      8314.83      0.31269812     0.012077161
      8323.14      0.33821785     0.012042026
      8331.46      0.35903328     0.012010196
      8339.80      0.37930405     0.011912457
      8348.13      0.40115272     0.011891883
      8356.48      0.43494898     0.011868636
      8364.84      0.47941273     0.011848981
      8373.21      0.52180681     0.011837995
      8381.58      0.56297399     0.011832257
      8389.96      0.60954225     0.011828756
      8398.35      0.67735833     0.011825071
      8406.75      0.75777983     0.011824209
      8415.16      0.84333340     0.011758173
      8423.57      0.93307571     0.011834276
      8432.00       1.0293126     0.011839384
      8440.43       1.1305146     0.011846390
      8448.87       1.2157371     0.011788335
      8457.32       1.3117208     0.011798038
      8465.78       1.4298056     0.011880417
      8474.25       1.5627940     0.011824717
      8482.72       1.6913666     0.011836418
      8491.20       1.8133005     0.011848177
      8499.69       1.9321622     0.011860471
      8508.19       2.0556199     0.011873142
      8516.70       2.1751209     0.011881298
      8525.22       2.2941895     0.011889170
      8533.75       2.3975630     0.011826783
      8542.28       2.5201037     0.011832165
      8550.82       2.6600287     0.011910458
      8559.37       2.8056136     0.011849432
      8567.93       2.9203672     0.011855020
      8576.50       3.0036748     0.011860309
      8585.08       3.0547315     0.011870989
      8593.66       3.0621874     0.011876454
      8602.26       3.0527298     0.011884165
      8610.86       3.0408575     0.011827456
      8619.47       3.0419969     0.011906125
      8628.09       3.0330882     0.011913657
      8636.72       2.9692287     0.011855825
      8645.36       2.8950767     0.011934048
      8654.00       2.8267781     0.011873476
      8662.66       2.7689671     0.011879530
      8671.32       2.7186595     0.011885831
      8679.99       2.6843076     0.011892035
      8688.67       2.6808627     0.011896089
      8697.36       2.6775176     0.011901029
      8706.06       2.6942935     0.011906220
      8714.76       2.6897075     0.011910775
      8723.48       2.6867814     0.011848517
      8732.21       2.6737733     0.011923484
      8740.93       2.6293370     0.011928661
      8749.68       2.5473680     0.011866029
      8758.43       2.4497188     0.011942087
      8767.19       2.3408186     0.011880764
      8775.96       2.2385181     0.011884793
      8784.73       2.1220688     0.011894270
      8793.52       1.9851983     0.011897140
      8802.31       1.8286793     0.011836404
      8811.11       1.6739237     0.011909489
      8819.92       1.5363472     0.011913586
      8828.75       1.4063039     0.011855847
      8837.57       1.2911120     0.011929119
      8846.41       1.2091760     0.011874964
      8855.26       1.1416596     0.011956427
      8864.12       1.0576493     0.011913460
      8872.98      0.98434878     0.011933402
      8881.85      0.93024412     0.011972169
      8890.73      0.92219432     0.012021442
      8899.63      0.92601972     0.012094269
      8908.52      0.90935875     0.012174062
      8917.43      0.88925101     0.012231158
      8926.35      0.88493867     0.012441780
      8935.28      0.88768474     0.012539145
      8944.22      0.90525288     0.012780969
      8953.16      0.93129592     0.012886830
      8962.11      0.95746911     0.013112215
      8971.08      0.96086298     0.013144663
      8980.05      0.95373212     0.013185270
      8989.03      0.93698300     0.013169175
      8998.02      0.91893586     0.013041453
      9007.02      0.90989266     0.013032943
      9016.02      0.92204446     0.012896989
      9025.04      0.93160913     0.012922379
      9034.07      0.92233803     0.012843396
      9043.10      0.91251691     0.012908840
      9052.14      0.90557902     0.012876168
      9061.20      0.91247631     0.013011423
      9070.26      0.92071691     0.012994768
      9079.33      0.92365520     0.013055692
      9088.41      0.91890504     0.013087372
      9097.50      0.92262257     0.013101864
      9106.60      0.91741238     0.013097181
      9115.70      0.90689184     0.013082481
      9124.82      0.91114447     0.012982569
      9133.94      0.92617085     0.013026535
      9143.08      0.93366840     0.012899371
      9152.22      0.92307020     0.012807522
      9161.37      0.90312537     0.012712137
      9170.54      0.89046618     0.012603627
      9179.71      0.89732880     0.012522671
      9188.89      0.90907866     0.012435840
      9198.08      0.91333911     0.012389633
      9207.28      0.90242778     0.012378029
      9216.48      0.88396294     0.012402265
      9225.70      0.87159611     0.012422214
      9234.92      0.87111154     0.012599898
      9244.16      0.87992429     0.012730429
      9253.40      0.88376473     0.013041230
      9262.66      0.86776479     0.013516868
      9271.92      0.85254361     0.013973177
      9281.20      0.84070987     0.014700013
      9290.48      0.83789971     0.015371195
      9299.77      0.85556520     0.016270607
      9309.07      0.88309934     0.017159226
      9318.38      0.88261706     0.017718327
      9327.69      0.85357492     0.018314091
      9337.02      0.82040506     0.018357096
      9346.36      0.79110420     0.018244415
      9355.71      0.77326557     0.018092083
      9365.07      0.74691613     0.017534875
      9374.43      0.72743547     0.017084637
      9383.80      0.69532476     0.016742163
      9393.19      0.66356906     0.016574084
      9402.58      0.63527471     0.016462589
      9411.98      0.62355360     0.016513015
      9421.40      0.60326381     0.016477263
      9430.82      0.57310542     0.016613508
      9440.25      0.55507436     0.016662950
      9449.69      0.55635267     0.016540357
      9459.14      0.56655082     0.016366890
      9468.60      0.56847935     0.016118704
      9478.07      0.57998939     0.015970290
      9487.55      0.60207351     0.015801247
      9497.04      0.61367399     0.015605072
      9506.53      0.62267816     0.015362974
      9516.04      0.62914801     0.015197653
      9525.56      0.64366979     0.015103176
      9535.08      0.67111271     0.014914155
      9544.62      0.68906809     0.014641292
      9554.16      0.70489357     0.014421209
      9563.72      0.70583504     0.014182234
      9573.29      0.70378083     0.014030501
      9582.85      0.69188654     0.013713460
      9592.44      0.67727336     0.013467252
      9602.03      0.67051860     0.013214670
      9611.63      0.66728873     0.012932034
      9621.25      0.66209531     0.012620733
      9630.87      0.65445339     0.012347049
      9640.50      0.64469434     0.012145028
      9650.14      0.63442826     0.011863146
      9659.79      0.63142013     0.011587602
      9669.45      0.63305541     0.011388677
      9679.12      0.63525655     0.011226137
      9688.80      0.64173134     0.011106906
      9698.49      0.64540230     0.011024632
      9708.19      0.65351864     0.010922614
      9717.90      0.66049400     0.010889787
      9727.62      0.66029392     0.010855576
      9737.34      0.66129322     0.010868782
      9747.08      0.65630440     0.010797394
      9756.83      0.65021506     0.010592429
      9766.59      0.64039797     0.010445514
      9776.35      0.62875814     0.010233770
      9786.13      0.62147954     0.010065293
      9795.92      0.61131382    0.0099148282
      9805.71      0.60044638    0.0097180332
      9815.52      0.58271397    0.0095332016
      9825.34      0.56877793    0.0094105620
      9835.17      0.55059140    0.0092422709
      9845.00      0.53785677    0.0091159841
      9854.84      0.52178074    0.0090076076
      9864.70      0.50645917    0.0088603634
      9874.56      0.49600424    0.0087244455
      9884.44      0.48022607    0.0086386849
      9894.32      0.46875288    0.0085444502
      9904.22      0.45675570    0.0084209890
      9914.13      0.44617110    0.0083407924
      9924.04      0.44313618    0.0082273659
      9933.96      0.44169867    0.0081459899
      9943.90      0.43672635    0.0080739176
      9953.84      0.42651996    0.0079688540
      9963.79      0.41720824    0.0078647034
      9973.76      0.41176329    0.0077624925
      9983.74      0.39954209    0.0077211601
      9993.72      0.38501043    0.0076216988
