# starting wavelength =        3700.3100
# ending wavelength =        7625.0500
# O2 telluric scale =        0
# O2 telluric shift =        0
# H2O telluric scale =        0
# H2O telluric shift =        0
      3703.98      0.41207035     0.016616593
      3707.68      0.41380311     0.014527005
      3711.39      0.41625911     0.012545056
      3715.10      0.41737863     0.010975057
      3718.81      0.41564962    0.0095352614
      3722.53      0.41375206    0.0086215935
      3726.26      0.41066050    0.0079136181
      3729.98      0.41153167    0.0074619705
      3733.71      0.41218000    0.0070128708
      3737.45      0.41330413    0.0066643466
      3741.18      0.41182370    0.0063376793
      3744.93      0.41517412    0.0061302401
      3748.67      0.41941954    0.0059637832
      3752.42      0.42437559    0.0058169773
      3756.17      0.43096641    0.0056970444
      3759.93      0.43803835    0.0055968984
      3763.69      0.44757606    0.0054793709
      3767.45      0.45957297    0.0054084716
      3771.22      0.46924094    0.0053650318
      3774.99      0.48194836    0.0053791448
      3778.77      0.49555770    0.0053935366
      3782.54      0.51055697    0.0053500498
      3786.33      0.52880903    0.0053641072
      3790.11      0.54817166    0.0053793775
      3793.90      0.57269599    0.0053619386
      3797.70      0.59583573    0.0053770874
      3801.50      0.62186795    0.0053328143
      3805.30      0.64913772    0.0053475941
      3809.10      0.67777877    0.0053633293
      3812.91      0.71351690    0.0053459907
      3816.73      0.74928462    0.0053618081
      3820.54      0.78769089    0.0053168661
      3824.36      0.82560800    0.0053323036
      3828.19      0.86773356    0.0053486129
      3832.02      0.90727636    0.0053313002
      3835.85      0.94850272    0.0053476519
      3839.68      0.98676208    0.0053351769
      3843.52       1.0280075    0.0053181323
      3847.37       1.0659700    0.0053352895
      3851.22       1.1048953    0.0053178515
      3855.07       1.1455283    0.0053347298
      3858.92       1.1851983    0.0053184545
      3862.78       1.2193238    0.0053052660
      3866.64       1.2554370    0.0053235165
      3870.51       1.2887347    0.0053058603
      3874.38       1.3235152    0.0053231852
      3878.26       1.3476538    0.0053067057
      3882.13       1.3696836    0.0053244441
      3886.02       1.3885901    0.0053426331
      3889.90       1.4029712    0.0052954561
      3893.79       1.4153662    0.0053131574
      3897.69       1.4296398    0.0052963021
      3901.59       1.4451896    0.0053154955
      3905.49       1.4566301    0.0052981304
      3909.39       1.4702115    0.0053172680
      3913.30       1.4791120    0.0053373177
      3917.22       1.4765330    0.0053199626
      3921.13       1.4792830    0.0053399403
      3925.06       1.4818647    0.0052908337
      3928.98       1.4843374    0.0053101480
      3932.91       1.4835537    0.0052933311
      3936.84       1.4814906    0.0053143103
      3940.78       1.4809774    0.0052968354
      3944.72       1.4780787    0.0053176050
      3948.67       1.4735180    0.0053398110
      3952.61       1.4669326    0.0053221696
      3956.57       1.4586700    0.0053437834
      3960.52       1.4507979    0.0053272482
      3964.48       1.4413538    0.0053495485
      3968.45       1.4296768    0.0053323005
      3972.42       1.4210687    0.0053553364
      3976.39       1.4094118    0.0053028753
      3980.37       1.3924870    0.0053251583
      3984.35       1.3722990    0.0053081608
      3988.33       1.3514628    0.0053324983
      3992.32       1.3331633    0.0053148780
      3996.31       1.3150987    0.0053383688
      4000.31       1.2995546    0.0053215469
      4004.31       1.2875435    0.0053466049
      4008.31       1.2726283    0.0053290387
      4012.32       1.2532053    0.0053537908
      4016.33       1.2267475    0.0053371759
      4020.35       1.2083920    0.0053630647
      4024.37       1.1887818    0.0053888882
      4028.40       1.1662007    0.0053718253
      4032.42       1.1426386    0.0054003670
      4036.46       1.1289863    0.0053822483
      4040.50       1.1146605    0.0054094637
      4044.54       1.0958752    0.0053923767
      4048.58       1.0795321    0.0054223367
      4052.63       1.0687087    0.0054042224
      4056.68       1.0573927    0.0054328129
      4060.74       1.0489042    0.0054155032
      4064.80       1.0435422    0.0053986851
      4068.86       1.0366877    0.0054291230
      4072.93       1.0329756    0.0054113012
      4077.01       1.0329616    0.0054416671
      4081.08       1.0299997    0.0054247088
      4085.17       1.0245106    0.0054574536
      4089.25       1.0219710    0.0054393454
      4093.34       1.0230037    0.0054711900
      4097.43       1.0181473    0.0054537863
      4101.53       1.0189948    0.0054368689
      4105.63       1.0194343    0.0054203458
      4109.74       1.0163551    0.0054050709
      4113.85       1.0161082    0.0053876258
      4117.96       1.0223651    0.0053704238
      4122.08       1.0295346    0.0053536681
      4126.20       1.0315332    0.0053373917
      4130.33       1.0296597    0.0052742403
      4134.46       1.0337456    0.0053051611
      4138.59       1.0342252    0.0052881608
      4142.73       1.0303758    0.0052714969
      4146.88       1.0296999    0.0052111721
      4151.02       1.0247367    0.0051937125
      4155.18       1.0243223    0.0051765392
      4159.33       1.0215398    0.0051597873
      4163.49       1.0163322    0.0051902857
      4167.65       1.0149022    0.0051739410
      4171.82       1.0105638    0.0051146618
      4175.99       1.0112149    0.0050975054
      4180.17       1.0120254    0.0050807366
      4184.35       1.0148207    0.0050641849
      4188.54       1.0177568    0.0050477200
      4192.72       1.0181212    0.0049892422
      4196.92       1.0233825    0.0050200490
      4201.11       1.0290926    0.0050031203
      4205.31       1.0298982    0.0049865240
      4209.52       1.0314068    0.0049701386
      4213.73       1.0400182    0.0049538480
      4217.94       1.0436937    0.0048963345
      4222.16       1.0460088    0.0048805528
      4226.38       1.0505866    0.0048649637
      4230.61       1.0535343    0.0048495911
      4234.84       1.0581473    0.0048342687
      4239.08       1.0596063    0.0048620854
      4243.32       1.0598899    0.0048460847
      4247.56       1.0539344    0.0047893897
      4251.81       1.0463158    0.0047738722
      4256.06       1.0405762    0.0047584801
      4260.32       1.0326218    0.0047430952
      4264.58       1.0231540    0.0047278972
      4268.84       1.0100078    0.0047128160
      4273.11      0.99227385    0.0046977563
      4277.38      0.97813367    0.0046828423
      4281.66      0.96628453    0.0046290766
      4285.94      0.95230619    0.0046138546
      4290.23      0.93869255    0.0045986741
      4294.52      0.92508851    0.0045836151
      4298.81      0.91043462    0.0045686362
      4303.11      0.89701297    0.0045538159
      4307.42      0.88426923    0.0045792509
      4311.72      0.87136024    0.0045643230
      4316.04      0.85994844    0.0045496618
      4320.35      0.84846249    0.0045349607
      4324.67      0.83756227    0.0044847053
      4329.00      0.82741861    0.0044699244
      4333.33      0.82054804    0.0044551255
      4337.66      0.81501902    0.0044403830
      4342.00      0.80777764    0.0044258011
      4346.34      0.80143156    0.0044112816
      4350.69      0.79634860    0.0043968392
      4355.04      0.79296713    0.0043824156
      4359.39      0.79363372    0.0043680640
      4363.75      0.79598814    0.0043537850
      4368.12      0.79885845    0.0043395255
      4372.48      0.80363094    0.0043253373
      4376.86      0.80903513    0.0043112114
      4381.23      0.81718408    0.0042970986
      4385.61      0.82667012    0.0042830495
      4390.00      0.83924092    0.0042344255
      4394.39      0.85121954    0.0042206343
      4398.79      0.86686368    0.0042068606
      4403.18      0.88578851    0.0041931551
      4407.59      0.90605544    0.0041794904
      4412.00      0.92797889    0.0041658489
      4416.41      0.95294923    0.0041522775
      4420.82      0.97555203    0.0041035711
      4425.25      0.99883197    0.0040901458
      4429.67       1.0254916    0.0040768387
      4434.10       1.0553615    0.0040635714
      4438.54       1.0893994    0.0040503427
      4442.97       1.1232294    0.0040372428
      4447.42       1.1543017    0.0040241069
      4451.86       1.1888326    0.0040110201
      4456.32       1.2242783    0.0039980681
      4460.77       1.2579378    0.0039850922
      4465.24       1.2938066    0.0039721706
      4469.70       1.3294425    0.0039593813
      4474.17       1.3613321    0.0039465760
      4478.65       1.3952765    0.0039338276
      4483.12       1.4295859    0.0039212068
      4487.61       1.4659554    0.0039087273
      4492.09       1.4947692    0.0038617121
      4496.59       1.5194279    0.0038490286
      4501.08       1.5419805    0.0038365315
      4505.58       1.5625387    0.0038239714
      4510.09       1.5836041    0.0038114770
      4514.60       1.6064817    0.0038291601
      4519.12       1.6283245    0.0038167136
      4523.63       1.6482154    0.0038043385
      4528.16       1.6637707    0.0037921155
      4532.69       1.6777443    0.0037800392
      4537.22       1.6937021    0.0037359401
      4541.76       1.7099550    0.0037235419
      4546.30       1.7224723    0.0037113511
      4550.85       1.7339422    0.0036991220
      4555.40       1.7431323    0.0036869823
      4559.95       1.7507235    0.0036750537
      4564.51       1.7576215    0.0036631032
      4569.08       1.7621423    0.0036211494
      4573.65       1.7627912    0.0036095674
      4578.22       1.7578627    0.0035981465
      4582.80       1.7478699    0.0036139593
      4587.38       1.7386767    0.0036019778
      4591.97       1.7274349    0.0035902265
      4596.56       1.7143002    0.0035784755
      4601.16       1.6991480    0.0035374489
      4605.76       1.6806855    0.0035261254
      4610.37       1.6616275    0.0035148786
      4614.98       1.6412862    0.0035037644
      4619.59       1.6180650    0.0034928271
      4624.21       1.5946809    0.0034820947
      4628.84       1.5695127    0.0034671917
      4633.47       1.5390363    0.0034559897
      4638.10       1.5095028    0.0034449938
      4642.74       1.4764619    0.0034341069
      4647.38       1.4413050    0.0034233844
      4652.03       1.4023906    0.0033837621
      4656.68       1.3661761    0.0033727309
      4661.34       1.3249950    0.0033875472
      4666.00       1.2835323    0.0033767750
      4670.67       1.2420387    0.0033662304
      4675.33       1.2013044    0.0033277624
      4680.01       1.1618643    0.0033168458
      4684.69       1.1251754    0.0033061071
      4689.38       1.0898930    0.0032955795
      4694.07       1.0601857    0.0032837119
      4698.76       1.0348991    0.0032727388
      4703.46       1.0115787    0.0032619519
      4708.16      0.99210608    0.0032514288
      4712.87      0.97596441    0.0032411238
      4717.58      0.96259873    0.0032051810
      4722.30      0.95273316    0.0032186537
      4727.03      0.94394419    0.0032081614
      4731.75      0.93600037    0.0031978739
      4736.48      0.92980102    0.0031623281
      4741.22      0.92265210    0.0031526087
      4745.96      0.91546394    0.0031655536
      4750.71      0.90463714    0.0031301134
      4755.46      0.89465717    0.0031202246
      4760.22      0.88540171    0.0031106560
      4764.97      0.87726120    0.0031013714
      4769.74      0.86828748    0.0030887049
      4774.51      0.86132975    0.0030789782
      4779.29      0.85649971    0.0030695449
      4784.07      0.85704786    0.0030604463
      4788.85      0.85838462    0.0030479469
      4793.64      0.86357680    0.0030383754
      4798.43      0.87222922    0.0030291586
      4803.23      0.88335773    0.0029952637
      4808.03      0.89737008    0.0029857500
      4812.84      0.91260080    0.0029985371
      4817.66      0.92953345    0.0029654936
      4822.48      0.94569425    0.0029559571
      4827.30      0.96156918    0.0029466941
      4832.12      0.97720569    0.0029361642
      4836.96      0.98976192    0.0029265768
      4841.79       1.0000944    0.0029173361
      4846.63       1.0083468    0.0028858404
      4851.48       1.0134908    0.0028975949
      4856.33       1.0157558    0.0028883654
      4861.19       1.0161050    0.0028571250
      4866.05       1.0146130    0.0028690351
      4870.92       1.0119231    0.0028597783
      4875.79       1.0088839    0.0028288478
      4880.66       1.0028938    0.0028205019
      4885.55      0.99520065    0.0028316619
      4890.43      0.98681388    0.0028009780
      4895.32      0.97799304    0.0027927686
      4900.22      0.96943706    0.0028038952
      4905.12      0.95831094    0.0027735825
      4910.02      0.94805851    0.0027654281
      4914.94      0.93771179    0.0027549081
      4919.85      0.93069666    0.0027465436
      4924.77      0.92315562    0.0027385714
      4929.70      0.91620294    0.0027280605
      4934.62      0.91091286    0.0027198514
      4939.56      0.90713398    0.0027120988
      4944.50      0.90420298    0.0027016156
      4949.44      0.90131796    0.0026936216
      4954.39      0.90005311    0.0026646093
      4959.35      0.89923325    0.0026755698
      4964.31      0.89958157    0.0026472622
      4969.27      0.89962214    0.0026388945
      4974.24      0.89788479    0.0026499383
      4979.22      0.89725355    0.0026216690
      4984.20      0.89704142    0.0026136419
      4989.18      0.89677159    0.0026047190
      4994.17      0.89706117    0.0025965016
      4999.16      0.89792851    0.0025887963
      5004.16      0.89931469    0.0025796591
      5009.17      0.90239201    0.0025717943
      5014.18      0.90603835    0.0025451624
      5019.19      0.91027306    0.0025550836
      5024.21      0.91779801    0.0025284554
      5029.23      0.92628356    0.0025386264
      5034.26      0.93675062    0.0025120230
      5039.30      0.94742262    0.0025050555
      5044.34      0.95797117    0.0024957615
      5049.39      0.96837610    0.0024887657
      5054.43      0.97909286    0.0024797878
      5059.49      0.99178985    0.0024726946
      5064.55       1.0040803    0.0024661877
      5069.61       1.0147837    0.0024568155
      5074.68       1.0277383    0.0024502398
      5079.76       1.0414482    0.0024411261
      5084.84       1.0543118    0.0024345738
      5089.92       1.0679859    0.0024256487
      5095.01       1.0828209    0.0024190642
      5100.11       1.0970484    0.0023936622
      5105.21       1.1108633    0.0024037646
      5110.31       1.1271848    0.0023786382
      5115.42       1.1459584    0.0023886587
      5120.54       1.1675446    0.0023637449
      5125.66       1.1896704    0.0023561789
      5130.79       1.2116756    0.0023490990
      5135.92       1.2343894    0.0023415889
      5141.05       1.2549607    0.0023345195
      5146.20       1.2773504    0.0023270923
      5151.34       1.3014559    0.0023201441
      5156.49       1.3253745    0.0022969738
      5161.65       1.3501532    0.0023058969
      5166.81       1.3746236    0.0022829115
      5171.98       1.3981237    0.0022918417
      5177.15       1.4200827    0.0022690903
      5182.33       1.4388708    0.0022612919
      5187.51       1.4567770    0.0022554394
      5192.70       1.4720786    0.0022476358
      5197.89       1.4856913    0.0022419554
      5203.09       1.4972391    0.0022342065
      5208.29       1.5091076    0.0022286612
      5213.50       1.5210633    0.0022208904
      5218.72       1.5299662    0.0021987146
      5223.93       1.5367625    0.0022077697
      5229.16       1.5420280    0.0022004883
      5234.39       1.5455244    0.0021948536
      5239.62       1.5479943    0.0021875158
      5244.86       1.5503095    0.0021659379
      5250.11       1.5533816    0.0021747582
      5255.36       1.5532816    0.0021532066
      5260.61       1.5540015    0.0021622170
      5265.87       1.5531349    0.0021406602
      5271.14       1.5512033    0.0021341636
      5276.41       1.5497434    0.0021283421
      5281.69       1.5483336    0.0021217636
      5286.97       1.5465829    0.0021012274
      5292.26       1.5441607    0.0021095619
      5297.55       1.5422750    0.0021032451
      5302.85       1.5399434    0.0020975654
      5308.15       1.5394820    0.0020911811
      5313.46       1.5405761    0.0020710805
      5318.77       1.5430215    0.0020793378
      5324.09       1.5499266    0.0020731888
      5329.42       1.5537260    0.0020531526
      5334.75       1.5576180    0.0020614946
      5340.08       1.5614831    0.0020419718
      5345.42       1.5640526    0.0020355934
      5350.77       1.5681968    0.0020440050
      5356.12       1.5699380    0.0020245903
      5361.48       1.5731166    0.0020184015
      5366.83       1.5753694    0.0019992533
      5372.20       1.5776738    0.0020075902
      5377.58       1.5792048    0.0020015426
      5382.95       1.5819423    0.0019826104
      5388.34       1.5833582    0.0019909360
      5393.72       1.5834524    0.0019850220
      5399.12       1.5838070    0.0019662898
      5404.52       1.5819525    0.0019746339
      5409.92       1.5815643    0.0019558278
      5415.33       1.5817339    0.0019502895
      5420.75       1.5813797    0.0019449677
      5426.17       1.5775066    0.0019400701
      5431.60       1.5700945    0.0019345935
      5437.03       1.5624707    0.0019293269
      5442.47       1.5522792    0.0019114186
      5447.91       1.5408609    0.0019192302
      5453.36       1.5274940    0.0019140045
      5458.81       1.5125440    0.0018964787
      5464.27       1.4977204    0.0018911169
      5469.73       1.4816090    0.0018989697
      5475.20       1.4678594    0.0018818447
      5480.68       1.4540513    0.0018765391
      5486.16       1.4418468    0.0018713970
      5491.65       1.4297383    0.0018793085
      5497.14       1.4170230    0.0018623593
      5502.64       1.4073785    0.0018572437
      5508.14       1.3974068    0.0018522498
      5513.65       1.3884848    0.0018355238
      5519.16       1.3802637    0.0018435029
      5524.68       1.3707784    0.0018385019
      5530.20       1.3616675    0.0018336679
      5535.73       1.3531366    0.0018171502
      5541.27       1.3445871    0.0018125884
      5546.81       1.3342750    0.0018203277
      5552.36       1.3231878    0.0018156040
      5557.91       1.3117043    0.0017993079
      5563.47       1.2993477    0.0017948413
      5569.04       1.2871207    0.0017904782
      5574.60       1.2737543    0.0017981258
      5580.18       1.2607849    0.0017819878
      5585.76       1.2466905    0.0017775986
      5591.35       1.2316516    0.0017732966
      5596.94       1.2161066    0.0017690985
      5602.53       1.1993753    0.0017535300
      5608.14       1.1839505    0.0017492191
      5613.75       1.1679329    0.0017566688
      5619.36       1.1527872    0.0017525131
      5624.98       1.1361521    0.0017375382
      5630.60       1.1192573    0.0017332947
      5636.23       1.1023560    0.0017291281
      5641.87       1.0854395    0.0017250474
      5647.51       1.0698482    0.0017210192
      5653.16       1.0547109    0.0017170644
      5658.82       1.0420530    0.0017139701
      5664.47       1.0293558    0.0017099181
      5670.14       1.0191082    0.0017059236
      5675.81       1.0118614    0.0017020147
      5681.48       1.0075408    0.0016981608
      5687.17       1.0070223    0.0016836583
      5692.85       1.0088221    0.0016799325
      5698.55       1.0125164    0.0016762613
      5704.25       1.0192771    0.0016726357
      5709.95       1.0275321    0.0016690786
      5715.66       1.0387765    0.0016655409
      5721.38       1.0499710    0.0016727992
      5727.10       1.0618360    0.0016586205
      5732.83       1.0723334    0.0016550671
      5738.56       1.0835413    0.0016515551
      5744.30       1.0930330    0.0016481000
      5750.04       1.1020651    0.0016446797
      5755.79       1.1119872    0.0016413192
      5761.55       1.1185639    0.0016379759
      5767.31       1.1239206    0.0016246576
      5773.08       1.1294885    0.0016212860
      5778.85       1.1347103    0.0016179712
      5784.63       1.1394908    0.0016146917
      5790.41       1.1441142    0.0016114446
      5796.21       1.1486443    0.0016082480
      5802.00       1.1517239    0.0016050845
      5807.81       1.1534310    0.0016019918
      5813.61       1.1563031    0.0015990488
      5819.43       1.1582997    0.0015962025
      5825.25       1.1582831    0.0015933381
      5831.07       1.1595996    0.0015904424
      5836.90       1.1563184    0.0015777750
      5842.74       1.1527504    0.0015753046
      5848.58       1.1477480    0.0015733446
      5854.43       1.1430925    0.0015717971
      5860.29       1.1363799    0.0015703340
      5866.15       1.1286975    0.0015689261
      5872.01       1.1211811    0.0015677793
      5877.89       1.1136816    0.0015666617
      5883.76       1.1059587    0.0015650456
      5889.65       1.0976754    0.0015629370
      5895.54       1.0903748    0.0015605928
      5901.43       1.0834439    0.0015580814
      5907.34       1.0777566    0.0015553195
      5913.24       1.0727583    0.0015523525
      5919.16       1.0680848    0.0015396563
      5925.08       1.0649565    0.0015367938
      5931.00       1.0616786    0.0015340125
      5936.93       1.0580183    0.0015311241
      5942.87       1.0544419    0.0015280489
      5948.81       1.0498766    0.0015248512
      5954.76       1.0477102    0.0015215553
      5960.72       1.0433076    0.0015183404
      5966.68       1.0415762    0.0015150934
      5972.64       1.0374480    0.0015116486
      5978.62       1.0346259    0.0015082492
      5984.60       1.0341527    0.0014955514
      5990.58       1.0329135    0.0014926967
      5996.57       1.0304955    0.0014896883
      6002.57       1.0286511    0.0014866501
      6008.57       1.0271726    0.0014838806
      6014.58       1.0245000    0.0014813286
      6020.60       1.0218361    0.0014788995
      6026.62       1.0173996    0.0014675723
      6032.65       1.0102248    0.0014653382
      6038.68       1.0016207    0.0014720190
      6044.72      0.99095259    0.0014697795
      6050.76      0.97747786    0.0014675855
      6056.81      0.96141349    0.0014654371
      6062.87      0.94387512    0.0014633488
      6068.93      0.92361734    0.0014524683
      6075.00      0.90273301    0.0014504802
      6081.08      0.88118309    0.0014485450
      6087.16      0.85918912    0.0014466490
      6093.25      0.83753941    0.0014447907
      6099.34      0.81755828    0.0014339258
      6105.44      0.79806892    0.0014405864
      6111.54      0.78044590    0.0014387076
      6117.66      0.76597287    0.0014368843
      6123.78      0.75265572    0.0014350908
      6129.90      0.74248292    0.0014245659
      6136.03      0.73464898    0.0014227069
      6142.17      0.72928622    0.0014208971
      6148.31      0.72543837    0.0014191449
      6154.46      0.72435926    0.0014259434
      6160.61      0.72566294    0.0014156421
      6166.77      0.72949299    0.0014138427
      6172.94      0.73497368    0.0014121106
      6179.11      0.74224463    0.0014104216
      6185.29      0.75215784    0.0014005038
      6191.48      0.76401241    0.0014071378
      6197.67      0.77623598    0.0014055740
      6203.87      0.78981602    0.0014044932
      6210.07      0.80453087    0.0013955264
      6216.28      0.82018673    0.0013939097
      6222.50      0.83627417    0.0014004886
      6228.72      0.85243177    0.0013917615
      6234.95      0.86837788    0.0013919313
      6241.19      0.88273929    0.0013928440
      6247.42      0.89762690    0.0013943623
      6253.67      0.91244715    0.0013965247
      6259.93      0.92618651    0.0013981344
      6266.19      0.93816142    0.0013994514
      6272.46      0.95027895    0.0013918333
      6278.73      0.96204857    0.0013913643
      6285.01      0.97487977    0.0013982938
      6291.29      0.98795605    0.0013872995
      6297.58      0.99870995    0.0013838977
      6303.88       1.0089521    0.0013800655
      6310.19       1.0175145    0.0013755955
      6316.50       1.0224603    0.0013719797
      6322.81       1.0264971    0.0013692569
      6329.14       1.0294893    0.0013589890
      6335.47       1.0302038    0.0013638044
      6341.80       1.0296780    0.0013611237
      6348.14       1.0270888    0.0013510625
      6354.49       1.0234258    0.0013566413
      6360.85       1.0186732    0.0013467182
      6367.21       1.0142927    0.0013448937
      6373.57       1.0104626    0.0013432680
      6379.95       1.0069253    0.0013413105
      6386.33       1.0050634    0.0013398487
      6392.72       1.0044060    0.0013386206
      6399.11       1.0051417    0.0013371152
      6405.51       1.0074368    0.0013359835
      6411.92       1.0101956    0.0013270953
      6418.32       1.0117917    0.0013336613
      6424.74       1.0138725    0.0013328898
      6431.17       1.0153087    0.0013246844
      6437.60       1.0166778    0.0013322216
      6444.04       1.0193174    0.0013248603
      6450.48       1.0213076    0.0013246222
      6456.94       1.0227956    0.0013245781
      6463.39       1.0247490    0.0013240288
      6469.85       1.0273225    0.0013161411
      6476.33       1.0287624    0.0013229320
      6482.80       1.0303310    0.0013218066
      6489.28       1.0329038    0.0013131378
      6495.77       1.0362254    0.0013188492
      6502.27       1.0376099    0.0013098689
      6508.77       1.0421250    0.0013156114
      6515.28       1.0438785    0.0013068139
      6521.80       1.0452472    0.0013057155
      6528.32       1.0458237    0.0013043462
      6534.85       1.0458407    0.0013031341
      6541.38       1.0443279    0.0013014508
      6547.92       1.0424841    0.0012999277
      6554.47       1.0398710    0.0012908980
      6561.03       1.0365244    0.0012967500
      6567.59       1.0326134    0.0012879960
      6574.16       1.0267718    0.0012935818
      6580.73       1.0217194    0.0012845989
      6587.31       1.0162851    0.0012903297
      6593.90       1.0098335    0.0012817990
      6600.50       1.0025681    0.0012806302
      6607.10      0.99592976    0.0012795082
      6613.70      0.98974028    0.0012714102
      6620.32      0.98314169    0.0012774083
      6626.94      0.97470354    0.0012693766
      6633.57      0.96807694    0.0012753358
      6640.20      0.95958436    0.0012673239
      6646.84      0.95160094    0.0012732742
      6653.49      0.94415806    0.0012653226
      6660.14      0.93638607    0.0012712633
      6666.80      0.92849911    0.0012633717
      6673.47      0.92113461    0.0012623161
      6680.14      0.91382165    0.0012614233
      6686.82      0.90664167    0.0012603388
      6693.51      0.89983674    0.0012594905
      6700.20      0.89318466    0.0012583613
      6706.90      0.88737571    0.0012504953
      6713.61      0.88145532    0.0012563844
      6720.32      0.87555219    0.0012484746
      6727.05      0.87044059    0.0012475992
      6733.77      0.86519579    0.0012464679
      6740.51      0.86020124    0.0012455261
      6747.25      0.85492173    0.0012444714
      6754.00      0.84891352    0.0012434531
      6760.75      0.84303644    0.0012425611
      6767.51      0.83658480    0.0012414046
      6774.28      0.82997916    0.0012404671
      6781.05      0.82379797    0.0012334636
      6787.84      0.81675797    0.0012416304
      6794.62      0.80927581    0.0012393799
      6801.42      0.80159351    0.0012384595
      6808.22      0.79392025    0.0012425568
      6815.03      0.78660875    0.0012386655
      6821.85      0.77998790    0.0012467203
      6828.67      0.77427579    0.0012566881
      6835.50      0.76868924    0.0012729665
      6842.33      0.76448308    0.0012924770
      6849.17      0.76044030    0.0013043441
      6856.02      0.75699720    0.0013280414
      6862.88      0.75522542    0.0013341993
      6869.74      0.75412719    0.0013428623
      6876.61      0.75401586    0.0013522243
      6883.49      0.75455899    0.0013384127
      6890.37      0.75393073    0.0013258713
      6897.27      0.75444719    0.0013089745
      6904.16      0.75457339    0.0012939970
      6911.07      0.75563389    0.0012772274
      6917.98      0.75584828    0.0012657205
      6924.89      0.75557253    0.0012517009
      6931.82      0.75494892    0.0012486946
      6938.75      0.75339295    0.0012381598
      6945.69      0.75153648    0.0012255549
      6952.64      0.74900909    0.0012199439
      6959.59      0.74567719    0.0012147884
      6966.55      0.74189628    0.0012112871
      6973.52      0.73785390    0.0012078282
      6980.49      0.73393342    0.0012053509
      6987.47      0.73017420    0.0011973239
      6994.46      0.72762922    0.0011957679
      7001.46      0.72363134    0.0012003882
      7008.46      0.72039223    0.0011981523
      7015.46      0.71786894    0.0011893918
      7022.48      0.71451428    0.0011863246
      7029.51      0.71379254    0.0011833166
      7036.53      0.71309969    0.0011869978
      7043.57      0.71403259    0.0011783095
      7050.62      0.71462945    0.0011757108
      7057.66      0.71656654    0.0011731087
      7064.72      0.71775588    0.0011707235
      7071.79      0.71886064    0.0011625902
      7078.86      0.72117418    0.0011606781
      7085.94      0.72315584    0.0011653380
      7093.03      0.72535164    0.0011648002
      7100.12      0.72777929    0.0011588364
      7107.22      0.72964184    0.0011586240
      7114.33      0.73171959    0.0011588836
      7121.44      0.73304772    0.0011606177
      7128.56      0.73389905    0.0011644051
      7135.69      0.73340353    0.0011648099
      7142.83      0.73262697    0.0011747734
      7149.97      0.73201436    0.0011866811
      7157.12      0.73021906    0.0012029700
      7164.28      0.72843793    0.0012122568
      7171.44      0.72654378    0.0012180966
      7178.62      0.72263151    0.0012137035
      7185.80      0.71881352    0.0012139406
      7192.98      0.71487996    0.0012119673
      7200.17      0.70915622    0.0012077562
      7207.38      0.70564756    0.0012025287
      7214.58      0.70162624    0.0011978206
      7221.80      0.69795392    0.0011947809
      7229.02      0.69484456    0.0011873029
      7236.25      0.69149498    0.0011861621
      7243.49      0.68820686    0.0011725490
      7250.73      0.68617364    0.0011585905
      7257.98      0.68429105    0.0011435874
      7265.24      0.68356860    0.0011273621
      7272.51      0.68268072    0.0011098327
      7279.78      0.68252663    0.0010917055
      7287.06      0.68217185    0.0010740527
      7294.35      0.68100626    0.0010574158
      7301.64      0.68021987    0.0010415290
      7308.94      0.67883305    0.0010259149
      7316.25      0.67852805    0.0010105147
      7323.57      0.67804198   0.00099564203
      7330.89      0.67614657   0.00098149480
      7338.22      0.67285141   0.00096814657
      7345.56      0.66959230   0.00095559582
      7352.91      0.66456987   0.00094371247
      7360.26      0.65882969   0.00093228181
      7367.62      0.65250914   0.00092128830
      7374.99      0.64545945   0.00091087989
      7382.37      0.63673686   0.00090084823
      7389.75      0.62821332   0.00089108530
      7397.14      0.61843974   0.00088155129
      7404.53      0.60806879   0.00087215202
      7411.94      0.59750585   0.00086292224
      7419.35      0.58718098   0.00085395713
      7426.77      0.57778111   0.00084532231
      7434.20      0.56783171   0.00083696247
      7441.63      0.55814313   0.00082884990
      7449.07      0.54933027   0.00082097972
      7456.52      0.53999830   0.00081368451
      7463.98      0.53154047   0.00080811380
      7471.45      0.52493480   0.00080999365
      7478.92      0.51862733   0.00080984297
      7486.40      0.51324216   0.00080138897
      7493.88      0.50909869   0.00079241478
      7501.38      0.50525847   0.00078858963
      7508.88      0.50239642   0.00079882178
      7516.39      0.50027623   0.00081231053
      7523.91      0.49930534   0.00083004758
      7531.43      0.49970270   0.00085329394
      7538.96      0.50012000   0.00088394832
      7546.50      0.50139746   0.00092438757
      7554.05      0.50317461   0.00097784792
      7561.60      0.50623944    0.0010407511
      7569.16      0.50988017    0.0011310694
      7576.73      0.51407248    0.0012488267
      7584.31      0.51885118    0.0014007906
      7591.89      0.52408009    0.0015947671
      7599.49      0.52946393    0.0018394746
      7607.09      0.53472720    0.0021457809
      7614.70      0.54109655    0.0025255867
      7622.31      0.54624304    0.0029951034
