# starting wavelength =        3918.5200
# ending wavelength =        9726.8300
# O2 telluric scale =        0
# O2 telluric shift =        0
# H2O telluric scale =        0
# H2O telluric shift =        0
      3921.13      0.43986985     0.037527951
      3925.06      0.43440609     0.034490788
      3928.98      0.42682458     0.027682234
      3932.91      0.42669621     0.025924021
      3936.84      0.42485204     0.021658253
      3940.78      0.42668306     0.020623896
      3944.72      0.43477962     0.017998056
      3948.67      0.43806757     0.016734335
      3952.61      0.45298089     0.016230860
      3956.57      0.46156141     0.015032044
      3960.52      0.46214864     0.014681106
      3964.48      0.46066668     0.013950262
      3968.45      0.46173496     0.013679951
      3972.42      0.46370178     0.013214761
      3976.39      0.47102287     0.012989774
      3980.37      0.47727513     0.012678791
      3984.35      0.47916479     0.012481914
      3988.33      0.48036440     0.012266386
      3992.32      0.47938954     0.012088504
      3996.31      0.48489136     0.012075949
      4000.31      0.48933029     0.012063223
      4004.31      0.49163002     0.012050520
      4008.31      0.49361525     0.012037821
      4012.32      0.49980129     0.012189238
      4016.33      0.50305634     0.012176407
      4020.35      0.50495142     0.012163586
      4024.37      0.50328148     0.012150786
      4028.40      0.50334732     0.012138015
      4032.42      0.50127362     0.012125260
      4036.46      0.49889509     0.012277002
      4040.50      0.49524822     0.012264109
      4044.54      0.49536684     0.012251243
      4048.58      0.49819030     0.012238421
      4052.63      0.49682429     0.012225623
      4056.68      0.49605818     0.012212869
      4060.74      0.50033717     0.012200162
      4064.80      0.49990830     0.012187498
      4068.86      0.49387653     0.012351336
      4072.93      0.49776635     0.012338596
      4077.01      0.49419700     0.012325912
      4081.08      0.49332253     0.012313295
      4085.17      0.49901113     0.012300745
      4089.25      0.50286472     0.012288265
      4093.34      0.50037023     0.012275865
      4097.43      0.49340744     0.012263545
      4101.53      0.49427266     0.012251314
      4105.63      0.49899797     0.012239175
      4109.74      0.50302835     0.012227136
      4113.85      0.50607214     0.012215190
      4117.96      0.50609887     0.012380595
      4122.08      0.49995831     0.012366578
      4126.20      0.49896588     0.012352657
      4130.33      0.50104845     0.012338796
      4134.46      0.50202334     0.012325023
      4138.59      0.49647938     0.012311367
      4142.73      0.49671495     0.012297790
      4146.88      0.49776454     0.012284329
      4151.02      0.49668186     0.012270771
      4155.18      0.49482932     0.012257422
      4159.33      0.49358496     0.012433747
      4163.49      0.48901682     0.012420553
      4167.65      0.48732238     0.012407567
      4171.82      0.48546001     0.012394792
      4175.99      0.48403614     0.012382207
      4180.17      0.47945391     0.012369827
      4184.35      0.47071416     0.012357649
      4188.54      0.47022527     0.012345673
      4192.72      0.47091351     0.012333902
      4196.92      0.46259324     0.012520979
      4201.11      0.46509404     0.012505660
      4205.31      0.46503660     0.012490554
      4209.52      0.46631292     0.012475614
      4213.73      0.47115522     0.012460862
      4217.94      0.47795553     0.012446357
      4222.16      0.48324687     0.012432052
      4226.38      0.48930893     0.012417985
      4230.61      0.49426771     0.012609944
      4234.84      0.49558564     0.012596093
      4239.08      0.49929935     0.012582567
      4243.32      0.50165633     0.012569359
      4247.56      0.50553782     0.012556502
      4251.81      0.51001612     0.012544030
      4256.06      0.51066960     0.012531955
      4260.32      0.50650347     0.012520314
      4264.58      0.50913105     0.012722607
      4268.84      0.50552438     0.012706180
      4273.11      0.50203742     0.012690337
      4277.38      0.49499431     0.012674597
      4281.66      0.48940567     0.012659308
      4285.94      0.48944895     0.012644514
      4290.23      0.48957896     0.012630183
      4294.52      0.48640576     0.012841406
      4298.81      0.49459577     0.012827793
      4303.11      0.50345327     0.012814738
      4307.42      0.51167663     0.012802276
      4311.72      0.51722278     0.012790426
      4316.04      0.52238527     0.012779210
      4320.35      0.53075248     0.012768636
      4324.67      0.53837547     0.012981384
      4329.00      0.54387817     0.012964168
      4333.33      0.55110443     0.012947712
      4337.66      0.55299051     0.012931984
      4342.00      0.55142857     0.012917030
      4346.34      0.55349351     0.012902869
      4350.69      0.56175120     0.013138044
      4355.04      0.55724859     0.013125262
      4359.39      0.54774990     0.013113400
      4363.75      0.53351832     0.013102494
      4368.12      0.52540954     0.013092559
      4372.48      0.51863968     0.013083650
      4376.86      0.50588306     0.013307253
      4381.23      0.49781505     0.013289828
      4385.61      0.49493815     0.013273529
      4390.00      0.49289101     0.013258411
      4394.39      0.49156196     0.013244498
      4398.79      0.49163085     0.013231824
      4403.18      0.50838558     0.013254581
      4407.59      0.51143690     0.013232544
      4412.00      0.51494143     0.013211835
      4416.41      0.52279248     0.013192537
      4420.82      0.52843601     0.013174532
      4425.25      0.53042848     0.013434456
      4429.67      0.53795998     0.013418678
      4434.10      0.54373976     0.013404491
      4438.54      0.54385154     0.013391875
      4442.97      0.55055198     0.013380889
      4447.42      0.55735651     0.013656405
      4451.86      0.55375145     0.013632846
      4456.32      0.55796623     0.013611841
      4460.77      0.56220232     0.013592752
      4465.24      0.57141115     0.013575201
      4469.70      0.57113883     0.013559869
      4474.17      0.56851930     0.013858061
      4478.65      0.57970144     0.013846879
      4483.12      0.58245139     0.013838092
      4487.61      0.58940425     0.013831696
      4492.09      0.61014286     0.014112200
      4496.59      0.62258261     0.014090632
      4501.08      0.62527751     0.013782939
      4505.58      0.63759664     0.013767842
      4510.09      0.64706537     0.013755216
      4514.60      0.65619998     0.013745062
      4519.12      0.66186814     0.013737527
      4523.63      0.67010324     0.014023452
      4528.16      0.68055335     0.014000163
      4532.69      0.69459058     0.013693014
      4537.22      0.70165429     0.013677284
      4541.76      0.71062004     0.013664515
      4546.30      0.71969281     0.013654015
      4550.85      0.72355486     0.013647154
      4555.40      0.72828253     0.013643592
      4559.95      0.73289725     0.013623054
      4564.51      0.74860459     0.013604730
      4569.08      0.75207281     0.013589504
      4573.65      0.76199892     0.013577411
      4578.22      0.76875525     0.013568498
      4582.80      0.77565568     0.013562845
      4587.38      0.78882117     0.013247715
      4591.97      0.79845063     0.013533570
      4596.56      0.79814173     0.013516686
      4601.16      0.80011115     0.013503223
      4605.76      0.79768618     0.013493210
      4610.37      0.79723113     0.013486707
      4614.98      0.79802288     0.013179259
      4619.59      0.79665038     0.013158940
      4624.21      0.79149072     0.013444996
      4628.84      0.78174361     0.013430964
      4633.47      0.76598279     0.013420675
      4638.10      0.75617158     0.013414195
      4642.74      0.75056499     0.013109703
      4647.38      0.74444368     0.013089221
      4652.03      0.74331645     0.013373809
      4656.68      0.73661273     0.013360146
      4661.34      0.73909047     0.013350519
      4666.00      0.74693221     0.013062781
      4670.67      0.74572381     0.013039017
      4675.33      0.74364718     0.013019258
      4680.01      0.73338024     0.013303295
      4684.69      0.72854322     0.013291019
      4689.38      0.72550359     0.013283105
      4694.07      0.72180813     0.012989951
      4698.76      0.71872514     0.012967740
      4703.46      0.71223250     0.012949718
      4708.16      0.70460302     0.013234272
      4712.87      0.69527252     0.013224523
      4717.58      0.68622445     0.012940895
      4722.30      0.67667355     0.012916718
      4727.03      0.67301371     0.012897087
      4731.75      0.67387621     0.012881971
      4736.48      0.67739580     0.013168288
      4741.22      0.68398232     0.012890882
      4745.96      0.68767848     0.012865038
      4750.71      0.69185397     0.012844294
      4755.46      0.69054173     0.012828464
      4760.22      0.67929385     0.013113168
      4764.97      0.67693701     0.012839470
      4769.74      0.67630772     0.012813721
      4774.51      0.67186469     0.012793070
      4779.29      0.66716819     0.012777446
      4784.07      0.66472368     0.012525053
      4788.85      0.65616875     0.012787416
      4793.64      0.65051824     0.012761508
      4798.43      0.65507358     0.012740937
      4803.23      0.65569642     0.012725666
      4808.03      0.66104311     0.012475097
      4812.84      0.66365626     0.012731906
      4817.66      0.67361111     0.012706888
      4822.48      0.68665629     0.012687590
      4827.30      0.70854709     0.012434327
      4832.12      0.71426866     0.012426622
      4836.96      0.72254831     0.012676862
      4841.79      0.72714265     0.012654049
      4846.63      0.72799063     0.012637102
      4851.48      0.72261316     0.012387291
      4856.33      0.71898286     0.012381994
      4861.19      0.71267651     0.012621525
      4866.05      0.70233747     0.012601522
      4870.92      0.69224970     0.012349676
      4875.79      0.68467482     0.012342191
      4880.66      0.67013600     0.012589937
      4885.55      0.66528341     0.012567286
      4890.43      0.66798952     0.012313700
      4895.32      0.66179885     0.012304396
      4900.22      0.66118463     0.012300805
      4905.12      0.66484575     0.012533742
      4910.02      0.68141785     0.012278841
      4914.94      0.70193613     0.012268133
      4919.85      0.72786835     0.012263366
      4924.77      0.74173895     0.012500404
      4929.70      0.77673840     0.012244701
      4934.62      0.80330442     0.012233026
      4939.56      0.81999101     0.012227526
      4944.50      0.83726661     0.012228310
      4949.44      0.86728854     0.012210968
      4954.39      0.88464385     0.012198810
      4959.35      0.89703994     0.012193050
      4964.31      0.90550598     0.012193822
      4969.27      0.90733170     0.012177520
      4974.24      0.90738605     0.012165389
      4979.22      0.90170514     0.012159894
      4984.20      0.89188578     0.012161176
      4989.18      0.86434111     0.012144337
      4994.17      0.84145821     0.012132724
      4999.16      0.82807041     0.012128030
      5004.16      0.80755105     0.011876947
      5009.17      0.78618073     0.012111449
      5014.18      0.76686820     0.012100965
      5019.19      0.74668652     0.012097614
      5024.21      0.73545102     0.011843905
      5029.23      0.71801554     0.012079121
      5034.26      0.70909435     0.012070323
      5039.30      0.70643787     0.012068563
      5044.34      0.70113398     0.011810718
      5049.39      0.69546389     0.012047120
      5054.43      0.69540712     0.012040801
      5059.49      0.69737522     0.011797522
      5064.55      0.70320613     0.011779548
      5069.61      0.71480905     0.012018082
      5074.68      0.72446536     0.012014718
      5079.76      0.74215121     0.011764620
      5084.84      0.75337608     0.011749253
      5089.92      0.76626056     0.011990234
      5095.01      0.78666213     0.011751522
      5100.11      0.79819767     0.011731781
      5105.21      0.81049629     0.011968166
      5110.31      0.81844655     0.011740094
      5115.42      0.83400979     0.011716242
      5120.54      0.85055990     0.011700534
      5125.66      0.86152933     0.011940883
      5130.79      0.86793535     0.011703385
      5135.92      0.86996932     0.011684538
      5141.05      0.86920213     0.011673565
      5146.20      0.87114771     0.011692086
      5151.34      0.86921620     0.011669516
      5156.49      0.87021042     0.011655424
      5161.65      0.87474383     0.011681456
      5166.81      0.87730408     0.011655686
      5171.98      0.88120080     0.011638701
      5177.15      0.88463057     0.011426712
      5182.33      0.88671710     0.011642702
      5187.51      0.89609704     0.011623086
      5192.70      0.90467492     0.011409087
      5197.89      0.91311324     0.011630225
      5203.09      0.92370581     0.011608243
      5208.29      0.93519570     0.011595506
      5213.50      0.96008559     0.011618071
      5218.72      0.97505836     0.011594014
      5223.93      0.98114938     0.011579483
      5229.16      0.98920762     0.011371738
      5234.39      0.99922021     0.011580127
      5239.62       1.0069700     0.011564083
      5244.86       1.0147582     0.011355491
      5250.11       1.0236334     0.011566390
      5255.36       1.0326147     0.011549172
      5260.61       1.0424049     0.011340014
      5265.87       1.0440254     0.011552680
      5271.14       1.0481853     0.011534630
      5276.41       1.0551934     0.011325236
      5281.69       1.0621899     0.011538916
      5286.97       1.0696006     0.011318679
      5292.26       1.0720912     0.011311073
      5297.55       1.0836292     0.011524988
      5302.85       1.0919557     0.011304980
      5308.15       1.0965179     0.011297555
      5313.46       1.1017257     0.011299529
      5318.77       1.1058481     0.011291556
      5324.09       1.1021343     0.011284600
      5329.42       1.1009895     0.011286958
      5334.75       1.0993171     0.011277114
      5340.08       1.1015582     0.011271831
      5345.42       1.1045941     0.011275665
      5350.77       1.1065646     0.011265655
      5356.12       1.1043019     0.011260876
      5361.48       1.1038129     0.011266186
      5366.83       1.0969514     0.011254010
      5372.20       1.0948867     0.011250712
      5377.58       1.0918586     0.011037393
      5382.95       1.0891375     0.011242497
      5388.34       1.0861334     0.011240905
      5393.72       1.0772406     0.011024480
      5399.12       1.0741898     0.011231167
      5404.52       1.0681979     0.011231842
      5409.92       1.0596718     0.011228175
      5415.33       1.0553010     0.011220774
      5420.75       1.0518486     0.011014896
      5426.17       1.0461673     0.011216763
      5431.60       1.0466175     0.011212717
      5437.03       1.0544599     0.011002379
      5442.47       1.0615228     0.011206712
      5447.91       1.0633101     0.011205752
      5453.36       1.0683366     0.010990281
      5458.81       1.0767078     0.011197814
      5464.27       1.0804347     0.010994864
      5469.73       1.0844905     0.010979477
      5475.20       1.0937559     0.011190719
      5480.68       1.0968453     0.010981702
      5486.16       1.1102617     0.011185976
      5491.65       1.1276768     0.010988582
      5497.14       1.1336589     0.010970154
      5502.64       1.1409130     0.011178737
      5508.14       1.1496110     0.010974317
      5513.65       1.1509411     0.010960624
      5519.16       1.1524164     0.010982602
      5524.68       1.1515646     0.010962109
      5530.20       1.1500831     0.011169032
      5535.73       1.1434858     0.010967454
      5541.27       1.1380009     0.010952392
      5546.81       1.1247251     0.010976387
      5552.36       1.1097757     0.010954837
      5557.91       1.0981289     0.010945630
      5563.47       1.0803876     0.010960658
      5569.04       1.0635531     0.010945294
      5574.60       1.0445975     0.010969670
      5580.18       1.0332820     0.010948126
      5585.76       1.0254240     0.010761729
      5591.35       1.0266803     0.010953855
      5596.94       1.0187205     0.010939282
      5602.53       1.0088890     0.010962358
      5608.14       1.0005404     0.010941726
      5613.75      0.99683548     0.010757148
      5619.36      0.98529518     0.010946968
      5624.98      0.97396174     0.010934328
      5630.60      0.95905011     0.010954671
      5636.23      0.93880442     0.010936799
      5641.87      0.91934187     0.010755170
      5647.51      0.89444972     0.010941573
      5653.16      0.86556099     0.010754922
      5658.82      0.83591792     0.010948176
      5664.47      0.81300071     0.010756419
      5670.14      0.78969457     0.010755907
      5675.81      0.76796548     0.010936908
      5681.48      0.75152127     0.010754605
      5687.17      0.73511822     0.010941642
      5692.85      0.72173142     0.010754875
      5698.55      0.71436670     0.010947910
      5704.25      0.71505044     0.010756771
      5709.95      0.72368133     0.010757325
      5715.66      0.74233991     0.010760586
      5721.38      0.75834819     0.010757433
      5727.10      0.77923605     0.010943114
      5732.83      0.79916634     0.010758839
      5738.56      0.81409798     0.010765775
      5744.30      0.82925893     0.010761269
      5750.04      0.84996655     0.010765012
      5755.79      0.86438884     0.010764748
      5761.55      0.88576816     0.010765446
      5767.31      0.90572551     0.010769241
      5773.08      0.92209880     0.010767258
      5778.85      0.92694728     0.010776085
      5784.63      0.94385348     0.010772209
      5790.41      0.96645741     0.010589393
      5796.21      0.98731734     0.010777749
      5802.00       1.0010489     0.010598443
      5807.81       1.0141230     0.010786450
      5813.61       1.0271945     0.010795096
      5819.43       1.0420841     0.010807578
      5825.25       1.0597538     0.010816803
      5831.07       1.0744745     0.010833392
      5836.90       1.0936734     0.010841681
      5842.74       1.1244216     0.010663796
      5848.58       1.1330879     0.010867804
      5854.43       1.1346342     0.010682835
      5860.29       1.1453183     0.010880615
      5866.15       1.1498927     0.010694126
      5872.01       1.1566915     0.010886785
      5877.89       1.1566732     0.010698397
      5883.76       1.1591293     0.010887755
      5889.65       1.1652211     0.010701134
      5895.54       1.1764095     0.010890837
      5901.43       1.1879140     0.010704606
      5907.34       1.1955406     0.010890031
      5913.24       1.1857836     0.010702792
      5919.16       1.1775762     0.010885663
      5925.08       1.1831609     0.010698703
      5931.00       1.1850222     0.010686383
      5936.93       1.1888226     0.010692567
      5942.87       1.1889115     0.010678280
      5948.81       1.2054873     0.010687678
      5954.76       1.2086280     0.010676097
      5960.72       1.1848507     0.010686170
      5966.68       1.1703931     0.010673040
      5972.64       1.1580577     0.010684485
      5978.62       1.1468626     0.010673772
      5984.60       1.1319925     0.010687948
      5990.58       1.1184013     0.010678354
      5996.57       1.1057724     0.010693439
      6002.57       1.0962620     0.010524001
      6008.57       1.0822046     0.010700959
      6014.58       1.0743678     0.010532582
      6020.60       1.0662167     0.010708731
      6026.62       1.0653182     0.010541326
      6032.65       1.0643133     0.010716955
      6038.68       1.0677273     0.010550845
      6044.72       1.0681913     0.010725574
      6050.76       1.0698434     0.010560836
      6056.81       1.0785874     0.010734426
      6062.87       1.0839608     0.010571279
      6068.93       1.0799425     0.010743620
      6075.00       1.0744208     0.010582256
      6081.08       1.0682922     0.010591088
      6087.16       1.0630680     0.010593816
      6093.25       1.0522793     0.010601107
      6099.34       1.0469240     0.010606026
      6105.44       1.0376257     0.010611623
      6111.54       1.0325745     0.010618966
      6117.66       1.0259278     0.010622725
      6123.78       1.0213210     0.010802299
      6129.90       1.0267875     0.010634495
      6136.03       1.0358148     0.010648751
      6142.17       1.0452596     0.010647030
      6148.31       1.0583899     0.010659047
      6154.46       1.0767544     0.010660611
      6160.61       1.0958445     0.010671744
      6166.77       1.1173696     0.010679477
      6172.94       1.1444295     0.010693766
      6179.11       1.1791094     0.010702163
      6185.29       1.2193730     0.010706120
      6191.48       1.2724574     0.010548056
      6197.67       1.3270153     0.010738564
      6203.87       1.3836271     0.010776790
      6210.07       1.4259370     0.010794198
      6216.28       1.4729495     0.010838313
      6222.50       1.5041298     0.010861591
      6228.72       1.5273910     0.010898646
      6234.95       1.5306020     0.010745446
      6241.19       1.5459386     0.010939309
      6247.42       1.5542497     0.010764821
      6253.67       1.5559414     0.010949232
      6259.93       1.5500440     0.010756308
      6266.19       1.5299872     0.010752262
      6272.46       1.5050463     0.010912099
      6278.73       1.4845954     0.010725248
      6285.01       1.4493602     0.010899855
      6291.29       1.4228744     0.010720027
      6297.58       1.4051436     0.010728757
      6303.88       1.3901084     0.010710922
      6310.19       1.3791345     0.010721339
      6316.50       1.3774871     0.010894597
      6322.81       1.3665644     0.010720091
      6329.14       1.3577419     0.010739147
      6335.47       1.3497263     0.010724341
      6341.80       1.3410162     0.010740955
      6348.14       1.3319786     0.010733920
      6354.49       1.3207878     0.010748667
      6360.85       1.3295683     0.010774280
      6367.21       1.3350353     0.010761874
      6373.57       1.3419465     0.010783711
      6379.95       1.3463127     0.010628717
      6386.33       1.3500586     0.010799920
      6392.72       1.3548524     0.010833161
      6399.11       1.3547506     0.010827347
      6405.51       1.3477369     0.010861534
      6411.92       1.3453307     0.010712585
      6418.32       1.3483989     0.010889575
      6424.74       1.3518953     0.010922756
      6431.17       1.3529475     0.010764717
      6437.60       1.3538093     0.010942142
      6444.04       1.3502539     0.010788680
      6450.48       1.3502797     0.010955590
      6456.94       1.3466659     0.010973790
      6463.39       1.3395558     0.010811775
      6469.85       1.3317677     0.010978965
      6476.33       1.3186318     0.010827115
      6482.80       1.3012306     0.010837300
      6489.28       1.2911499     0.011011790
      6495.77       1.2781193     0.010855862
      6502.27       1.2723784     0.010865952
      6508.77       1.2758659     0.011038368
      6515.28       1.2784975     0.010877323
      6521.80       1.2729912     0.010889468
      6528.32       1.2752096     0.010896199
      6534.85       1.2840917     0.010901269
      6541.38       1.2915717     0.010912246
      6547.92       1.2879118     0.010916046
      6554.47       1.2794091     0.010925370
      6561.03       1.2664513     0.010943013
      6567.59       1.2549757     0.010947139
      6574.16       1.2418188     0.010960259
      6580.73       1.2205960     0.010804291
      6587.31       1.1969394     0.010984218
      6593.90       1.1665279     0.010999033
      6600.50       1.1386408     0.010842831
      6607.10       1.1044793     0.011023193
      6613.70       1.0825649     0.011038800
      6620.32       1.0603434     0.010882606
      6626.94       1.0486541     0.011063892
      6633.57       1.0427994     0.011079833
      6640.20       1.0239920     0.010923045
      6646.84       1.0022170     0.011105507
      6653.49       1.0014934     0.011121521
      6660.14      0.98934497     0.010963940
      6666.80      0.97924924     0.010990857
      6673.47      0.96802984     0.011164011
      6680.14      0.95743994     0.011005389
      6686.82      0.94688580     0.011031810
      6693.51      0.94025008     0.011207396
      6700.20      0.93268366     0.011047521
      6706.90      0.91824809     0.011073214
      6713.61      0.90749692     0.011251793
      6720.32      0.90225979     0.011090337
      6727.05      0.89553107     0.011115158
      6733.77      0.88825227     0.011145543
      6740.51      0.88165419     0.011136593
      6747.25      0.87591835     0.011183452
      6754.00      0.87437681     0.011253791
      6760.75      0.87184330     0.011247614
      6767.51      0.86521668     0.011259817
      6774.28      0.86135651     0.011331484
      6781.05      0.86524639     0.011254193
      6787.84      0.86450719     0.011522866
      6794.62      0.86832695     0.011727909
      6801.42      0.86813505     0.011970130
      6808.22      0.87085365     0.011941641
      6815.03      0.86847246     0.012304256
      6821.85      0.86759550     0.012498820
      6828.67      0.86563975     0.012378693
      6835.50      0.86017953     0.012620958
      6842.33      0.85883704     0.012601940
      6849.17      0.85995490     0.012353558
      6856.02      0.85582797     0.012225503
      6862.88      0.85435370     0.012260410
      6869.74      0.84959986     0.012133688
      6876.61      0.85321411     0.011903272
      6883.49      0.85820163     0.011855857
      6890.37      0.86229367     0.011960943
      6897.27      0.86810636     0.011740563
      6904.16      0.87603755     0.011696051
      6911.07      0.88694835     0.011673785
      6917.98      0.89232072     0.011821850
      6924.89      0.90025856     0.011649363
      6931.82      0.91238182     0.011646206
      6938.75      0.92288501     0.011657624
      6945.69      0.92969447     0.011669725
      6952.64      0.93891503     0.011684206
      6959.59      0.94958812     0.011701063
      6966.55      0.95903121     0.011716355
      6973.52      0.96435526     0.011554239
      6980.49      0.97055101     0.011726018
      6987.47      0.97613408     0.011729116
      6994.46      0.98069836     0.011738992
      7001.46      0.98569686     0.011576477
      7008.46      0.98784244     0.011755429
      7015.46      0.99245652     0.011763226
      7022.48      0.99309879     0.011776318
      7029.51      0.99045920     0.011616766
      7036.53      0.98944720     0.011641086
      7043.57      0.98711814     0.011823121
      7050.62      0.98114874     0.011856728
      7057.66      0.97978618     0.011709036
      7064.72      0.97790411     0.011752111
      7071.79      0.97529586     0.011807437
      7078.86      0.97780039     0.012015042
      7085.94      0.97997942     0.011906086
      7093.03      0.97834107     0.012025560
      7100.12      0.97658207     0.012185668
      7107.22      0.97912687     0.012370415
      7114.33      0.98088903     0.012665113
      7121.44      0.98197782     0.012596267
      7128.56      0.98218989     0.012717061
      7135.69      0.98704349     0.012803632
      7142.83      0.98978476     0.012860255
      7149.97       1.0034796     0.012855007
      7157.12       1.0117893     0.012862770
      7164.28       1.0247189     0.012855942
      7171.44       1.0447046     0.012857444
      7178.62       1.0715312     0.012885099
      7185.80       1.1073421     0.012725343
      7192.98       1.1403317     0.012932240
      7200.17       1.1822785     0.012977878
      7207.38       1.2298474     0.013008172
      7214.58       1.2729422     0.013013920
      7221.80       1.3112406     0.012812188
      7229.02       1.3449830     0.012775495
      7236.25       1.3805473     0.012915196
      7243.49       1.4123233     0.012892743
      7250.73       1.4285278     0.012862992
      7257.98       1.4418305     0.012650238
      7265.24       1.4486450     0.012598734
      7272.51       1.4475100     0.012551768
      7279.78       1.4427673     0.012684149
      7287.06       1.4372108     0.012659009
      7294.35       1.4288177     0.012476085
      7301.64       1.4145867     0.012457374
      7308.94       1.3974490     0.012453031
      7316.25       1.3874629     0.012456242
      7323.57       1.3760275     0.012463883
      7330.89       1.3620024     0.012632292
      7338.22       1.3496200     0.012469161
      7345.56       1.3423933     0.012472164
      7352.91       1.3317926     0.012480259
      7360.26       1.3206985     0.012493315
      7367.62       1.3077079     0.012511259
      7374.99       1.2942487     0.012532675
      7382.37       1.2771039     0.012376601
      7389.75       1.2593447     0.012562555
      7397.14       1.2365575     0.012584022
      7404.53       1.2117551     0.012608412
      7411.94       1.1844894     0.012634148
      7419.35       1.1604679     0.012661514
      7426.77       1.1352726     0.012507067
      7434.20       1.1069021     0.012537300
      7441.63       1.0726951     0.012568729
      7449.07       1.0412970     0.012603487
      7456.52       1.0164900     0.012800971
      7463.98      0.99221278     0.012901930
      7471.45      0.97188319     0.013089887
      7478.92      0.95573823     0.012991841
      7486.40      0.94951995     0.012997169
      7493.88      0.93872448     0.013077066
      7501.38      0.92886901     0.013382508
      7508.88      0.92584238     0.013894076
      7516.39      0.91986183     0.014612052
      7523.91      0.92362848     0.015516517
      7531.43      0.92131474     0.016412416
      7538.96      0.92149800     0.017101008
      7546.50      0.92997888     0.018230312
      7554.05      0.93975563     0.019230230
      7561.60      0.94860681     0.019894487
      7569.16      0.94999219     0.020047397
      7576.73      0.95077790     0.019651714
      7584.31      0.93564956     0.018836627
      7591.89      0.93055761     0.017811963
      7599.49      0.93115319     0.016777180
      7607.09      0.93324014     0.015962719
      7614.70      0.93535637     0.015232798
      7622.31      0.94537301     0.014683244
      7629.93      0.94898225     0.014218334
      7637.56      0.95722026     0.014125084
      7645.20      0.96986586     0.013963958
      7652.85      0.99150295     0.013839516
      7660.50       1.0180580     0.013727456
      7668.16       1.0348016     0.013646581
      7675.83       1.0586531     0.013599957
      7683.50       1.0765397     0.013411316
      7691.19       1.0931603     0.013406123
      7698.88       1.1135415     0.013416539
      7706.58       1.1299905     0.013436720
      7714.29       1.1411303     0.013462094
      7722.00       1.1459949     0.013490879
      7729.73       1.1512570     0.013522812
      7737.45       1.1556474     0.013556406
      7745.19       1.1588727     0.013590271
      7752.94       1.1561298     0.013625057
      7760.69       1.1558943     0.013660904
      7768.45       1.1529837     0.013696779
      7776.22       1.1430244     0.013733900
      7784.00       1.1382175     0.013774197
      7791.78       1.1346117     0.013624660
      7799.57       1.1325866     0.013668424
      7807.37       1.1285820     0.013714724
      7815.18       1.1170166     0.013763706
      7822.99       1.1113819     0.013813139
      7830.82       1.0994186     0.013858180
      7838.65       1.0912989     0.013898097
      7846.49       1.0878943     0.013936068
      7854.34       1.0855685     0.013972941
      7862.19       1.0781923     0.014009033
      7870.05       1.0731481     0.014044259
      7877.93       1.0628762     0.014078936
      7885.80       1.0495618     0.014114363
      7893.69       1.0322870     0.014151609
      7901.58       1.0169832     0.014191755
      7909.49       1.0036336     0.014233211
      7917.40      0.98709514     0.014273653
      7925.31      0.96637969     0.014314368
      7933.24      0.94753684     0.014354644
      7941.17      0.93502860     0.014392325
      7949.11      0.92255363     0.014426684
      7957.06      0.91518701     0.014460619
      7965.02      0.90369869     0.014496563
      7972.98      0.89865588     0.014533426
      7980.96      0.89148322     0.014567202
      7988.94      0.89517182     0.014601939
      7996.93      0.89862794     0.014643817
      8004.93      0.90139488     0.014691999
      8012.93      0.90015087     0.014750665
      8020.95      0.90151740     0.014823137
      8028.97      0.89472444     0.014907712
      8036.99      0.89378199     0.015009929
      8045.03      0.88664111     0.015138846
      8053.08      0.88849708     0.015294508
      8061.13      0.88312075     0.015470023
      8069.20      0.87713089     0.015656699
      8077.26      0.86817883     0.015856439
      8085.34      0.85626169     0.016061475
      8093.43      0.85465801     0.016232244
      8101.52      0.85145047     0.016136372
      8109.62      0.84703005     0.016195890
      8117.73      0.84635600     0.016245358
      8125.85      0.84664391     0.016277989
      8133.98      0.84162819     0.016299582
      8142.11      0.84082213     0.016306717
      8150.25      0.83930760     0.016300942
      8158.41      0.83977157     0.016291651
      8166.56      0.83135258     0.016292373
      8174.73      0.83176554     0.016306601
      8182.91      0.82815941     0.016318736
      8191.09      0.82130098     0.016318802
      8199.28      0.80898766     0.016315212
      8207.48      0.79269456     0.016305852
      8215.69      0.76359895     0.016095747
      8223.91      0.74920786     0.016081677
      8232.13      0.73697661     0.016095929
      8240.36      0.71940938     0.016138140
      8248.60      0.71055376     0.016152688
      8256.85      0.69832217     0.016110751
      8265.11      0.69054445     0.016265152
      8273.37      0.69054889     0.016239602
      8281.65      0.69272809     0.016218300
      8289.93      0.69814641     0.016209913
      8298.22      0.70455199     0.016016220
      8306.52      0.71421537     0.016004312
      8314.83      0.71803900     0.015998238
      8323.14      0.72673507     0.016002044
      8331.46      0.74016864     0.016016209
      8339.80      0.74706406     0.016034637
      8348.13      0.74926916     0.016052380
      8356.48      0.75337765     0.016074408
      8364.84      0.75030657     0.015928165
      8373.21      0.76209340     0.015959345
      8381.58      0.77881070     0.016199651
      8389.96      0.78833223     0.016231832
      8398.35      0.78811584     0.016266622
      8406.75      0.79813429     0.016303194
      8415.16      0.81406045     0.016342864
      8423.57      0.83115438     0.016385322
      8432.00      0.84858109     0.016255695
      8440.43      0.87182127     0.016298840
      8448.87      0.89579410     0.016343127
      8457.32      0.92725432     0.016387314
      8465.78      0.96135315     0.016633099
      8474.25      0.99959061     0.016669619
      8482.72       1.0463100     0.016706231
      8491.20       1.0988965     0.016566134
      8499.69       1.1573482     0.016604471
      8508.19       1.2329665     0.016645082
      8516.70       1.3190683     0.016687184
      8525.22       1.4156941     0.016729207
      8533.75       1.5312085     0.016772630
      8542.28       1.6616426     0.016834076
      8550.82       1.7846436     0.016877473
      8559.37       1.9147418     0.016923148
      8567.93       2.0586989     0.016969624
      8576.50       2.2016141     0.017017529
      8585.08       2.3367674     0.016878646
      8593.66       2.4455398     0.016920607
      8602.26       2.5489558     0.017180273
      8610.86       2.6139826     0.017223958
      8619.47       2.6579097     0.017268371
      8628.09       2.6729614     0.017313717
      8636.72       2.6583324     0.017166769
      8645.36       2.6339441     0.017206006
      8654.00       2.5997701     0.017247480
      8662.66       2.5444788     0.017512256
      8671.32       2.4905579     0.017559791
      8679.99       2.4343365     0.017419932
      8688.67       2.3716427     0.017461614
      8697.36       2.3218706     0.017505954
      8706.06       2.2691065     0.017553609
      8714.76       2.2140157     0.017648535
      8723.48       2.1855084     0.017690155
      8732.21       2.1549494     0.017733872
      8740.93       2.1354826     0.017779523
      8749.68       2.1048033     0.017827706
      8758.43       2.0685808     0.017925168
      8767.19       2.0280670     0.017968736
      8775.96       1.9774847     0.018016229
      8784.73       1.9319392     0.018066301
      8793.52       1.8801735     0.017948586
      8802.31       1.8253146     0.018016915
      8811.11       1.7606164     0.018305049
      8819.92       1.7034074     0.018375094
      8828.75       1.6464425     0.018303873
      8837.57       1.5803473     0.018423753
      8846.41       1.5152867     0.018558173
      8855.26       1.4390435     0.018973177
      8864.12       1.3791979     0.019039064
      8872.98       1.3162930     0.019288532
      8881.85       1.2527159     0.019562656
      8890.73       1.2120014     0.020183148
      8899.63       1.1614204     0.020307701
      8908.52       1.1341464     0.020575944
      8917.43       1.0963616     0.020797734
      8926.35       1.0738002     0.020946457
      8935.28       1.0628939     0.021018001
      8944.22       1.0478283     0.020995493
      8953.16       1.0332646     0.020947246
      8962.11       1.0240388     0.020902035
      8971.08       1.0189892     0.020897892
      8980.05       1.0071661     0.020932941
      8989.03       1.0088291     0.020987619
      8998.02       1.0094477     0.020905277
      9007.02       1.0109708     0.021323032
      9016.02       1.0112505     0.021471169
      9025.04       1.0025228     0.021627036
      9034.07      0.99963338     0.021545484
      9043.10       1.0013667     0.021893104
      9052.14       1.0029656     0.021950609
      9061.20       1.0075379     0.021771499
      9070.26       1.0024033     0.021796419
      9079.33       1.0127363     0.022094887
      9088.41       1.0312458     0.021839354
      9097.50       1.0552033     0.021776115
      9106.60       1.0682530     0.021686219
      9115.70       1.0832252     0.021587419
      9124.82       1.0930228     0.021505711
      9133.94       1.1091547     0.021441697
      9143.08       1.1243276     0.021425582
      9152.22       1.1221022     0.021307200
      9161.37       1.1391087     0.021194835
      9170.54       1.1514945     0.021340389
      9179.71       1.1656808     0.021488054
      9188.89       1.1816340     0.021719076
      9198.08       1.1759043     0.022172654
      9207.28       1.1761918     0.022858315
      9216.48       1.1795247     0.023746145
      9225.70       1.1752505     0.024642698
      9234.92       1.1825335     0.025704221
      9244.16       1.1789612     0.026874447
      9253.40       1.1862120     0.027825971
      9262.66       1.1815933     0.028625558
      9271.92       1.1914713     0.028778370
      9281.20       1.2041028     0.029034443
      9290.48       1.2094269     0.029042592
      9299.77       1.2177926     0.028786431
      9309.07       1.2106334     0.028756862
      9318.38       1.1988174     0.028384244
      9327.69       1.1856803     0.027928117
      9337.02       1.1852368     0.027570119
      9346.36       1.1708905     0.027418923
      9355.71       1.1574590     0.027119781
      9365.07       1.1477454     0.026950208
      9374.43       1.1474880     0.026811629
      9383.80       1.1357804     0.026920593
      9393.19       1.1267705     0.026827101
      9402.58       1.1160335     0.026655300
      9411.98       1.1174967     0.026366015
      9421.40       1.1216075     0.026107416
      9430.82       1.1230344     0.026002483
      9440.25       1.1275154     0.025488839
      9449.69       1.1331509     0.025081845
      9459.14       1.1321734     0.024606049
      9468.60       1.1276298     0.024170777
      9478.07       1.1257673     0.024003807
      9487.55       1.1244277     0.023649576
      9497.04       1.1307638     0.023324532
      9506.53       1.1291238     0.022991436
      9516.04       1.1077813     0.022637491
      9525.56       1.1079394     0.022435352
      9535.08       1.0949231     0.021987177
      9544.62       1.0871493     0.021549825
      9554.16       1.0709719     0.021114756
      9563.72       1.0672623     0.020728606
      9573.29       1.0654144     0.020893552
      9582.85       1.0594747     0.021109171
      9592.44       1.0529133     0.021380577
      9602.03       1.0490239     0.021716271
      9611.63       1.0480199     0.022175827
      9621.25       1.0422784     0.022785583
      9630.87       1.0427127     0.023556053
      9640.50       1.0365545     0.024594459
      9650.14       1.0340313     0.026011071
      9659.79       1.0328191     0.027873240
      9669.45       1.0360495     0.030278309
      9679.12       1.0402445     0.033397451
      9688.80       1.0479565     0.037538037
      9698.49       1.0609769     0.042946074
      9708.19       1.0820790     0.049592804
      9717.90       1.1068611     0.057762278
