# starting wavelength =        3135.1600
# ending wavelength =        6150.5000
# O2 telluric scale =        0
# O2 telluric shift =        0
# H2O telluric scale =        0
# H2O telluric shift =        0
      3137.67      0.30772104     0.012279619
      3140.81      0.32417656     0.011010348
      3143.95      0.33961682    0.0094475553
      3147.10      0.34832791    0.0079218371
      3150.24      0.35567076    0.0070547137
      3153.39      0.36246078    0.0065799017
      3156.55      0.36917448    0.0060161509
      3159.70      0.37420721    0.0054512664
      3162.86      0.38020328    0.0051388973
      3166.03      0.38602319    0.0049643669
      3169.19      0.38860995    0.0047127135
      3172.36      0.38723770    0.0045504111
      3175.54      0.38669136    0.0044605586
      3178.71      0.38324004    0.0043369371
      3181.89      0.38174248    0.0042451749
      3185.07      0.37674187    0.0041542152
      3188.26      0.37366707    0.0041075376
      3191.45      0.36844766    0.0040308597
      3194.64      0.36579814    0.0040283618
      3197.83      0.35841013    0.0040284384
      3201.03      0.35162548    0.0040628695
      3204.23      0.34462134    0.0040624572
      3207.44      0.34137021    0.0040615567
      3210.64      0.34221797    0.0040957471
      3213.85      0.34104501    0.0040959071
      3217.07      0.33878680    0.0041324437
      3220.28      0.34041465    0.0040938823
      3223.51      0.34104224    0.0041314122
      3226.73      0.33926219    0.0041304939
      3229.96      0.33871975    0.0041675673
      3233.19      0.33719991    0.0041292931
      3236.42      0.33760475    0.0041657391
      3239.66      0.33487579    0.0041663961
      3242.90      0.33390585    0.0042047422
      3246.14      0.33178936    0.0042048134
      3249.39      0.33089874    0.0042039453
      3252.64      0.33001897    0.0042033192
      3255.89      0.32922848    0.0042427461
      3259.14      0.33671565    0.0042444798
      3262.40      0.33907734    0.0042409598
      3265.67      0.34105596    0.0042838222
      3268.93      0.34263358    0.0042827443
      3272.20      0.34533700    0.0043239657
      3275.47      0.34361045    0.0043254238
      3278.75      0.34145541    0.0043227527
      3282.03      0.33855277    0.0043233408
      3285.31      0.33670908    0.0043679635
      3288.60      0.33257545    0.0043675833
      3291.88      0.33084027    0.0044120092
      3295.18      0.33004289    0.0043671017
      3298.47      0.33216810    0.0044103941
      3301.77      0.32998524    0.0044115694
      3305.07      0.33093937    0.0044584965
      3308.38      0.33291063    0.0044586185
      3311.69      0.33332972    0.0044590344
      3315.00      0.33344419    0.0044580610
      3318.31      0.33525827    0.0045045285
      3321.63      0.33336456    0.0045062747
      3324.95      0.33217065    0.0045559691
      3328.28      0.33031876    0.0045565021
      3331.61      0.32968230    0.0045568181
      3334.94      0.32535754    0.0045560054
      3338.27      0.32464040    0.0046056972
      3341.61      0.32577844    0.0046077161
      3344.95      0.32647571    0.0046611435
      3348.30      0.33046624    0.0046617472
      3351.65      0.33326872    0.0046625472
      3355.00      0.33553836    0.0046616028
      3358.35      0.33994882    0.0047147068
      3361.71      0.34548910    0.0047166022
      3365.07      0.34749647    0.0047748139
      3368.44      0.35098350    0.0047751608
      3371.81      0.35758925    0.0047170098
      3375.18      0.36182693    0.0047757325
      3378.56      0.36600745    0.0047759553
      3381.94      0.37139015    0.0048340960
      3385.32      0.37590780    0.0048373289
      3388.70      0.38240927    0.0048981268
      3392.09      0.39003795    0.0048995614
      3395.48      0.39792544    0.0049634346
      3398.88      0.40568339    0.0048994581
      3402.28      0.41463888    0.0049610603
      3405.68      0.42020520    0.0049639527
      3409.09      0.42786314    0.0050322802
      3412.49      0.43370626    0.0050326911
      3415.91      0.44119608    0.0051005342
      3419.32      0.44649921    0.0051045250
      3422.74      0.45379298    0.0051765690
      3426.17      0.45815493    0.0051013201
      3429.59      0.46010916    0.0051048942
      3433.02      0.46431949    0.0051789343
      3436.45      0.46748871    0.0051798123
      3439.89      0.46975232    0.0052534573
      3443.33      0.46969505    0.0052579583
      3446.78      0.46603921    0.0051817743
      3450.22      0.46151891    0.0051833499
      3453.67      0.45830927    0.0052580316
      3457.13      0.45460761    0.0051851435
      3460.58      0.45012062    0.0051856062
      3464.04      0.44605441    0.0051875668
      3467.51      0.44441828    0.0052628675
      3470.98      0.44407883    0.0051885146
      3474.45      0.44303857    0.0051894817
      3477.92      0.44295075    0.0051919458
      3481.40      0.44295409    0.0051929547
      3484.88      0.44388956    0.0051925614
      3488.37      0.44442187    0.0051939452
      3491.86      0.44676989    0.0051966956
      3495.35      0.44951383    0.0051973312
      3498.84      0.45187430    0.0051970907
      3502.34      0.45580048    0.0051984891
      3505.84      0.45778651    0.0052014911
      3509.35      0.45779605    0.0052023228
      3512.86      0.45749087    0.0052023196
      3516.37      0.45928313    0.0052035418
      3519.89      0.45744288    0.0052063554
      3523.41      0.45778634    0.0051325604
      3526.93      0.45702036    0.0052076298
      3530.46      0.45846859    0.0052087183
      3533.99      0.45970558    0.0052111793
      3537.53      0.45876328    0.0051373627
      3541.06      0.45782743    0.0052137781
      3544.60      0.45850339    0.0052146570
      3548.15      0.45931352    0.0052165534
      3551.70      0.45906093    0.0051421972
      3555.25      0.45715102    0.0051461557
      3558.80      0.45895157    0.0052207425
      3562.36      0.45812853    0.0052223256
      3565.92      0.46023107    0.0051474357
      3569.49      0.46141799    0.0051509526
      3573.06      0.46325468    0.0051555554
      3576.64      0.46407305    0.0052287217
      3580.21      0.46752206    0.0051529766
      3583.79      0.47109291    0.0051558767
      3587.38      0.47269886    0.0051596720
      3590.96      0.47647762    0.0051646899
      3594.55      0.47771884    0.0051703426
      3598.15      0.47880323    0.0051618700
      3601.75      0.47726608    0.0051646425
      3605.35      0.47318336    0.0051686364
      3608.96      0.47206315    0.0051733729
      3612.56      0.47056433    0.0051025225
      3616.18      0.46896637    0.0051708375
      3619.79      0.46448511    0.0051738508
      3623.41      0.45736024    0.0051776620
      3627.04      0.45453459    0.0051819318
      3630.66      0.45479511    0.0051121131
      3634.29      0.45734032    0.0051140414
      3637.93      0.45749278    0.0051830259
      3641.57      0.46031604    0.0051865207
      3645.21      0.46538432    0.0051906846
      3648.86      0.47147043    0.0051224901
      3652.50      0.47705752    0.0051241043
      3656.16      0.48143119    0.0051264252
      3659.81      0.48730764    0.0051292846
      3663.47      0.49189709    0.0051993681
      3667.14      0.49736929    0.0052036664
      3670.80      0.50112203    0.0051351229
      3674.48      0.50388728    0.0051369810
      3678.15      0.50668034    0.0051392898
      3681.83      0.50640658    0.0051422136
      3685.51      0.50482354    0.0051456058
      3689.20      0.50072176    0.0051472568
      3692.88      0.49513256    0.0051485961
      3696.58      0.49064252    0.0051505303
      3700.27      0.48551108    0.0051528212
      3703.98      0.47495258    0.0051554723
      3707.68      0.46309459    0.0051586524
      3711.39      0.45522178    0.0050895278
      3715.10      0.44737849    0.0050934041
      3718.81      0.43645678    0.0051649780
      3722.53      0.42234645    0.0051671116
      3726.26      0.41066346    0.0051695318
      3729.98      0.40288286    0.0051722394
      3733.71      0.39875951    0.0051754116
      3737.45      0.39467186    0.0051059444
      3741.18      0.38628239    0.0051096777
      3744.93      0.37719894    0.0051137979
      3748.67      0.37196588    0.0051183590
      3752.42      0.36968011    0.0051871263
      3756.17      0.37080255    0.0051896729
      3759.93      0.37452959    0.0051926168
      3763.69      0.37861941    0.0051226255
      3767.45      0.37787435    0.0051260305
      3771.22      0.37453842    0.0051297592
      3774.99      0.37080028    0.0051338801
      3778.77      0.37030570    0.0051379287
      3782.54      0.37253816    0.0051424408
      3786.33      0.37581071    0.0051468797
      3790.11      0.37808535    0.0052136953
      3793.90      0.38642337    0.0051431919
      3797.70      0.39742749    0.0051463862
      3801.50      0.40681134    0.0051499707
      3805.30      0.41090973    0.0051534615
      3809.10      0.41102044    0.0051573230
      3812.91      0.40961260    0.0051611151
      3816.73      0.41394610    0.0051651731
      3820.54      0.42510367    0.0051695118
      3824.36      0.43948431    0.0051026741
      3828.19      0.45727407    0.0051057173
      3832.02      0.48120014    0.0051086431
      3835.85      0.50326564    0.0051117424
      3839.68      0.52756114    0.0051148882
      3843.52      0.55252917    0.0051808852
      3847.37      0.58866348    0.0051844226
      3851.22      0.62890804    0.0051880015
      3855.07      0.66947759    0.0051917522
      3858.92      0.70734681    0.0051957415
      3862.78      0.74414166    0.0051995089
      3866.64      0.77364917    0.0051352131
      3870.51      0.80508606    0.0051378554
      3874.38      0.82910069    0.0051408199
      3878.26      0.84927682    0.0051437960
      3882.13      0.87193195    0.0051467603
      3886.02      0.89559587    0.0051500691
      3889.90      0.91786438    0.0051530381
      3893.79      0.93776313    0.0051563363
      3897.69      0.95594062    0.0051595995
      3901.59      0.97113827    0.0051628369
      3905.49      0.98795966    0.0051663546
      3909.39       1.0033140    0.0051698347
      3913.30       1.0193762    0.0051733052
      3917.22       1.0325729    0.0051767078
      3921.13       1.0448805    0.0051108084
      3925.06       1.0556530    0.0051142889
      3928.98       1.0587885    0.0051177499
      3932.91       1.0567698    0.0051212743
      3936.84       1.0543918    0.0051248905
      3940.78       1.0487656    0.0051283494
      3944.72       1.0427515    0.0051318462
      3948.67       1.0363603    0.0051353028
      3952.61       1.0341351    0.0051388302
      3956.57       1.0354468    0.0051424020
      3960.52       1.0394927    0.0051459010
      3964.48       1.0400700    0.0051494794
      3968.45       1.0430062    0.0051529374
      3972.42       1.0484849    0.0051563272
      3976.39       1.0562801    0.0051597625
      3980.37       1.0678154    0.0051631257
      3984.35       1.0826277    0.0051665841
      3988.33       1.0977283    0.0051700851
      3992.32       1.1151560    0.0051735293
      3996.31       1.1340928    0.0051768258
      4000.31       1.1478354    0.0051800589
      4004.31       1.1591780    0.0051833867
      4008.31       1.1694170    0.0051867527
      4012.32       1.1749352    0.0051900439
      4016.33       1.1747920    0.0051934331
      4020.35       1.1732190    0.0051966763
      4024.37       1.1715855    0.0051998343
      4028.40       1.1667336    0.0052030541
      4032.42       1.1621330    0.0052061823
      4036.46       1.1520124    0.0052093698
      4040.50       1.1386462    0.0052126064
      4044.54       1.1252349    0.0052157715
      4048.58       1.1112166    0.0052190277
      4052.63       1.0982028    0.0052220744
      4056.68       1.0846582    0.0052252117
      4060.74       1.0733235    0.0052283968
      4064.80       1.0597061    0.0052315244
      4068.86       1.0432064    0.0052347181
      4072.93       1.0205513    0.0051775863
      4077.01      0.99843395    0.0051807565
      4081.08      0.97892187    0.0051838874
      4085.17      0.96188528    0.0051870838
      4089.25      0.94537109    0.0051904068
      4093.34      0.92944113    0.0051936444
      4097.43      0.91529545    0.0051969975
      4101.53      0.90341635    0.0052003635
      4105.63      0.89281280    0.0052037228
      4109.74      0.88398080    0.0052072212
      4113.85      0.87504409    0.0052106690
      4117.96      0.87100825    0.0052142625
      4122.08      0.86800682    0.0052179915
      4126.20      0.86974871    0.0052217189
      4130.33      0.87630603    0.0051630263
      4134.46      0.88185928    0.0051657559
      4138.59      0.88717701    0.0051684578
      4142.73      0.88667525    0.0051714372
      4146.88      0.88338285    0.0051743816
      4151.02      0.87739477    0.0051773594
      4155.18      0.87152276    0.0051805730
      4159.33      0.86570833    0.0052504812
      4163.49      0.86094845    0.0052538115
      4167.65      0.85548085    0.0052573374
      4171.82      0.84607314    0.0052016250
      4175.99      0.84021585    0.0052037969
      4180.17      0.83433405    0.0052062271
      4184.35      0.83193072    0.0052085535
      4188.54      0.82816790    0.0052112250
      4192.72      0.82797713    0.0052139285
      4196.92      0.83115692    0.0052167049
      4201.11      0.83567743    0.0052198523
      4205.31      0.84285714    0.0052230447
      4209.52      0.85450096    0.0051688501
      4213.73      0.86489894    0.0052376564
      4217.94      0.87398497    0.0052395864
      4222.16      0.88206441    0.0052415877
      4226.38      0.88966763    0.0052440050
      4230.61      0.89650621    0.0052465369
      4234.84      0.90305894    0.0052492448
      4239.08      0.90667485    0.0051943101
      4243.32      0.90882494    0.0051973831
      4247.56      0.91102264    0.0052007392
      4251.81      0.90957498    0.0052043826
      4256.06      0.90836554    0.0052709583
      4260.32      0.90649173    0.0052730360
      4264.58      0.90432820    0.0052753190
      4268.84      0.89833528    0.0052197476
      4273.11      0.89597192    0.0052226234
      4277.38      0.89264909    0.0052258311
      4281.66      0.89201074    0.0052292618
      4285.94      0.89260233    0.0052330643
      4290.23      0.89487293    0.0052371526
      4294.52      0.89654913    0.0052420825
      4298.81      0.89677945    0.0052445732
      4303.11      0.89680952    0.0052474585
      4307.42      0.89605326    0.0052506109
      4311.72      0.89207091    0.0052541961
      4316.04      0.88360624    0.0052581192
      4320.35      0.87611473    0.0052001159
      4324.67      0.87248210    0.0052661315
      4329.00      0.87120262    0.0052688326
      4333.33      0.86767894    0.0052718587
      4337.66      0.86639253    0.0052753785
      4342.00      0.86748282    0.0052191001
      4346.34      0.86695206    0.0052208939
      4350.69      0.86664052    0.0052230406
      4355.04      0.86867501    0.0052897799
      4359.39      0.87071953    0.0052928752
      4363.75      0.87584446    0.0052376210
      4368.12      0.88018765    0.0052390469
      4372.48      0.88327268    0.0052409138
      4376.86      0.88355382    0.0052432113
      4381.23      0.88361246    0.0053103973
      4385.61      0.87946919    0.0052555292
      4390.00      0.87534211    0.0052565577
      4394.39      0.86491977    0.0052582349
      4398.79      0.85681215    0.0052604323
      4403.18      0.85190015    0.0052077371
      4407.59      0.84904151    0.0052725015
      4412.00      0.84553064    0.0052734231
      4416.41      0.84417459    0.0052749416
      4420.82      0.84325588    0.0052771817
      4425.25      0.84359527    0.0052243685
      4429.67      0.84448431    0.0052886227
      4434.10      0.84763991    0.0052895375
      4438.54      0.85502877    0.0052911799
      4442.97      0.86673638    0.0052377333
      4447.42      0.88006065    0.0052407528
      4451.86      0.89768218    0.0053038693
      4456.32      0.91780123    0.0053051098
      4460.77      0.94068948    0.0052511069
      4465.24      0.96607236    0.0052537591
      4469.70      0.99322409    0.0052572676
      4474.17       1.0253406    0.0053186249
      4478.65       1.0566202    0.0052641041
      4483.12       1.0897208    0.0052667100
      4487.61       1.1231189    0.0052700345
      4492.09       1.1591222    0.0052753027
      4496.59       1.1890353    0.0052768712
      4501.08       1.2198092    0.0052793771
      4505.58       1.2485011    0.0052825790
      4510.09       1.2765636    0.0052267151
      4514.60       1.3000085    0.0052893669
      4519.12       1.3216340    0.0052918126
      4523.63       1.3446571    0.0052951202
      4528.16       1.3670773    0.0052386030
      4532.69       1.3868582    0.0053013802
      4537.22       1.4090967    0.0053038657
      4541.76       1.4297295    0.0052490997
      4546.30       1.4466385    0.0052500034
      4550.85       1.4630707    0.0053131073
      4555.40       1.4784331    0.0052597888
      4559.95       1.4915211    0.0052599519
      4564.51       1.5040372    0.0052611005
      4569.08       1.5136411    0.0053247257
      4573.65       1.5218455    0.0052699447
      4578.22       1.5288179    0.0052705031
      4582.80       1.5344167    0.0052721696
      4587.38       1.5399604    0.0052797746
      4591.97       1.5448850    0.0052797644
      4596.56       1.5470105    0.0052808709
      4601.16       1.5443988    0.0052892649
      4605.76       1.5439557    0.0052887793
      4610.37       1.5432163    0.0052895015
      4614.98       1.5399282    0.0052378353
      4619.59       1.5374621    0.0052976389
      4624.21       1.5329766    0.0052979567
      4628.84       1.5247036    0.0052457161
      4633.47       1.5139275    0.0053060457
      4638.10       1.5024460    0.0053061357
      4642.74       1.4869963    0.0052536074
      4647.38       1.4692845    0.0053142655
      4652.03       1.4539094    0.0053139738
      4656.68       1.4383149    0.0052611742
      4661.34       1.4223275    0.0052637201
      4666.00       1.4041328    0.0053215527
      4670.67       1.3855426    0.0052685891
      4675.33       1.3663564    0.0052711199
      4680.01       1.3463101    0.0052745414
      4684.69       1.3287845    0.0052756545
      4689.38       1.3090509    0.0052783227
      4694.07       1.2904472    0.0052814221
      4698.76       1.2730746    0.0052826748
      4703.46       1.2562344    0.0052853927
      4708.16       1.2423262    0.0052878986
      4712.87       1.2279932    0.0052892878
      4717.58       1.2163330    0.0052358786
      4722.30       1.2025154    0.0052941948
      4727.03       1.1877199    0.0052959126
      4731.75       1.1712843    0.0052415375
      4736.48       1.1564916    0.0053002151
      4741.22       1.1403825    0.0052476873
      4745.96       1.1227885    0.0052469481
      4750.71       1.1011854    0.0053061844
      4755.46       1.0790180    0.0052525005
      4760.22       1.0579038    0.0052521404
      4764.97       1.0355803    0.0052585135
      4769.74       1.0166026    0.0052571305
      4774.51      0.99942971    0.0053158313
      4779.29      0.98432047    0.0052623820
      4784.07      0.97449669    0.0052616920
      4788.85      0.96937618    0.0052681442
      4793.64      0.96839792    0.0052662271
      4798.43      0.97227068    0.0052663368
      4803.23      0.98290833    0.0052711938
      4808.03      0.99142535    0.0052701609
      4812.84       1.0022584    0.0052762148
      4817.66       1.0094501    0.0052741409
      4822.48       1.0167275    0.0052226143
      4827.30       1.0231895    0.0052785621
      4832.12       1.0246076    0.0052775434
      4836.96       1.0224126    0.0052271185
      4841.79       1.0188286    0.0052810451
      4846.63       1.0142496    0.0052296431
      4851.48       1.0078279    0.0052846111
      4856.33       1.0005828    0.0052323899
      4861.19      0.99358878    0.0052883101
      4866.05      0.99176484    0.0052351022
      4870.92      0.99305073    0.0052359793
      4875.79      0.99624123    0.0052378005
      4880.66       1.0029487    0.0052382181
      4885.55       1.0157091    0.0052406780
      4890.43       1.0323058    0.0052401637
      4895.32       1.0518171    0.0052421523
      4900.22       1.0742983    0.0052422595
      4905.12       1.0982668    0.0052436715
      4910.02       1.1266261    0.0052442751
      4914.94       1.1538675    0.0052451261
      4919.85       1.1842881    0.0052461314
      4924.77       1.2123858    0.0052464617
      4929.70       1.2393536    0.0051927174
      4934.62       1.2651457    0.0052477554
      4939.56       1.2882185    0.0051943214
      4944.50       1.3064570    0.0052489462
      4949.44       1.3194883    0.0051956152
      4954.39       1.3285475    0.0052498605
      4959.35       1.3303587    0.0051968712
      4964.31       1.3256932    0.0052508706
      4969.27       1.3106860    0.0051978315
      4974.24       1.2891088    0.0052514911
      4979.22       1.2615869    0.0051985372
      4984.20       1.2306121    0.0051971497
      4989.18       1.1906273    0.0051991011
      4994.17       1.1526433    0.0051975278
      4999.16       1.1113399    0.0051992938
      5004.16       1.0735526    0.0051483581
      5009.17       1.0379422    0.0051992966
      5014.18       1.0070534    0.0051483634
      5019.19      0.98006908    0.0051991462
      5024.21      0.95962524    0.0051481330
      5029.23      0.94596256    0.0051985776
      5034.26      0.93813175    0.0051476970
      5039.30      0.93631974    0.0051978458
      5044.34      0.94187599    0.0051472430
      5049.39      0.95180300    0.0051969503
      5054.43      0.96779367    0.0051463702
      5059.49      0.98732360    0.0051956994
      5064.55       1.0069805    0.0051455428
      5069.61       1.0305608    0.0051451602
      5074.68       1.0535355    0.0051445280
      5079.76       1.0773876    0.0051435228
      5084.84       1.0998053    0.0051433926
      5089.92       1.1228607    0.0051419360
      5095.01       1.1435481    0.0051422519
      5100.11       1.1621214    0.0051401751
      5105.21       1.1776404    0.0050886535
      5110.31       1.1925957    0.0051382967
      5115.42       1.2060353    0.0051376163
      5120.54       1.2185812    0.0051364089
      5125.66       1.2281381    0.0051350209
      5130.79       1.2348729    0.0050841091
      5135.92       1.2423018    0.0051323195
      5141.05       1.2473885    0.0050807395
      5146.20       1.2521954    0.0051296732
      5151.34       1.2552359    0.0050773808
      5156.49       1.2593955    0.0050780208
      5161.65       1.2654715    0.0050739354
      5166.81       1.2715170    0.0050737028
      5171.98       1.2783227    0.0051216621
      5177.15       1.2865343    0.0050694837
      5182.33       1.2963824    0.0050699996
      5187.51       1.3054920    0.0050652898
      5192.70       1.3162826    0.0050648415
      5197.89       1.3275596    0.0050612279
      5203.09       1.3392940    0.0050599043
      5208.29       1.3530357    0.0050599959
      5213.50       1.3668594    0.0050550531
      5218.72       1.3842214    0.0050541136
      5223.93       1.3980459    0.0050039344
      5229.16       1.4121728    0.0050485608
      5234.39       1.4248568    0.0050479452
      5239.62       1.4375323    0.0049966407
      5244.86       1.4493345    0.0050414490
      5250.11       1.4608375    0.0049916508
      5255.36       1.4729488    0.0049888954
      5260.61       1.4837553    0.0050339168
      5265.87       1.4926336    0.0049832758
      5271.14       1.5012334    0.0049805842
      5276.41       1.5094764    0.0049780816
      5281.69       1.5156295    0.0049743388
      5286.97       1.5201718    0.0049716852
      5292.26       1.5250560    0.0049686016
      5297.55       1.5274852    0.0049647906
      5302.85       1.5300963    0.0049147033
      5308.15       1.5332043    0.0049585661
      5313.46       1.5378369    0.0049546564
      5318.77       1.5431632    0.0049045112
      5324.09       1.5458002    0.0049479206
      5329.42       1.5491264    0.0049438320
      5334.75       1.5480261    0.0048936266
      5340.08       1.5455890    0.0049367090
      5345.42       1.5411410    0.0049322941
      5350.77       1.5355445    0.0048818987
      5356.12       1.5278212    0.0048792712
      5361.48       1.5178443    0.0049201861
      5366.83       1.5045581    0.0048695506
      5372.20       1.4888621    0.0048664313
      5377.58       1.4739600    0.0049072501
      5382.95       1.4572728    0.0048563647
      5388.34       1.4383656    0.0048528221
      5393.72       1.4232907    0.0048498986
      5399.12       1.4113732    0.0048425676
      5404.52       1.3984152    0.0048384169
      5409.92       1.3926391    0.0048349634
      5415.33       1.3926711    0.0048281436
      5420.75       1.3983944    0.0048233517
      5426.17       1.4070484    0.0048192174
      5431.60       1.4186114    0.0047697882
      5437.03       1.4295949    0.0048077609
      5442.47       1.4441301    0.0048029178
      5447.91       1.4582421    0.0047543514
      5453.36       1.4710740    0.0047482925
      5458.81       1.4800902    0.0047859881
      5464.27       1.4840000    0.0047386496
      5469.73       1.4850263    0.0047319533
      5475.20       1.4826858    0.0047256301
      5480.68       1.4740148    0.0047197963
      5486.16       1.4588340    0.0047150256
      5491.65       1.4369809    0.0047080287
      5497.14       1.4120634    0.0047014995
      5502.64       1.3801505    0.0046952609
      5508.14       1.3439255    0.0046902934
      5513.65       1.3070226    0.0046829113
      5519.16       1.2645905    0.0046759425
      5524.68       1.2201294    0.0046269931
      5530.20       1.1758250    0.0046206993
      5535.73       1.1345791    0.0046564642
      5541.27       1.0920026    0.0046489672
      5546.81       1.0518065    0.0045998737
      5552.36       1.0102468    0.0045929434
      5557.91      0.97114343    0.0045863308
      5563.47      0.93548553    0.0046205570
      5569.04      0.90269383    0.0045711717
      5574.60      0.87093071    0.0045636900
      5580.18      0.84254658    0.0045564178
      5585.76      0.81320739    0.0045493255
      5591.35      0.78430657    0.0045412311
      5596.94      0.75514335    0.0045330377
      5602.53      0.72959834    0.0045249948
      5608.14      0.70321079    0.0045171906
      5613.75      0.67613911    0.0045095048
      5619.36      0.65137479    0.0044614575
      5624.98      0.62643658    0.0044924930
      5630.60      0.60524706    0.0044838312
      5636.23      0.58893855    0.0044753171
      5641.87      0.57636000    0.0044669323
      5647.51      0.56718363    0.0044193944
      5653.16      0.56301989    0.0044099721
      5658.82      0.56021409    0.0044007030
      5664.47      0.56058443    0.0044308600
      5670.14      0.56456151    0.0044216946
      5675.81      0.57077414    0.0043750623
      5681.48      0.57963389    0.0043649414
      5687.17      0.59161528    0.0043549448
      5692.85      0.60448737    0.0043449620
      5698.55      0.62017268    0.0043350290
      5704.25      0.63676505    0.0042880170
      5709.95      0.65697646    0.0043179137
      5715.66      0.67766064    0.0043070436
      5721.38      0.70016405    0.0042962238
      5727.10      0.72466181    0.0042854359
      5732.83      0.75004270    0.0042746746
      5738.56      0.77649813    0.0042274529
      5744.30      0.80465539    0.0042167510
      5750.04      0.83533362    0.0042060408
      5755.79      0.86694055    0.0041953201
      5761.55      0.89941894    0.0041845277
      5767.31      0.93214614    0.0042108038
      5773.08      0.96545358    0.0041991007
      5778.85       1.0020294    0.0041517707
      5784.63       1.0403092    0.0041401424
      5790.41       1.0783192    0.0041284367
      5796.21       1.1183443    0.0041166406
      5802.00       1.1584469    0.0041048162
      5807.81       1.1967746    0.0040930380
      5813.61       1.2333671    0.0040813919
      5819.43       1.2688320    0.0040699261
      5825.25       1.2983721    0.0040245562
      5831.07       1.3255485    0.0041271019
      5836.90       1.3485457    0.0042702768
      5842.74       1.3665228    0.0044264249
      5848.58       1.3734966    0.0040221354
      5854.43       1.3832491    0.0040144799
      5860.29       1.3887720    0.0040701946
      5866.15       1.3941430    0.0041556295
      5872.01       1.3958129    0.0042133767
      5877.89       1.3956059    0.0043212533
      5883.76       1.3974282    0.0043179166
      5889.65       1.3972735    0.0043268116
      5895.54       1.3999427    0.0042555784
      5901.43       1.3998619    0.0041410261
      5907.34       1.4038624    0.0039826727
      5913.24       1.4102807    0.0038540838
      5919.16       1.4155995    0.0037258466
      5925.08       1.4206571    0.0035832443
      5931.00       1.4232122    0.0034956128
      5936.93       1.4230953    0.0033830582
      5942.87       1.4201698    0.0032890881
      5948.81       1.4163215    0.0032538277
      5954.76       1.4096952    0.0032053804
      5960.72       1.4002041    0.0032597430
      5966.68       1.3897810    0.0033263960
      5972.64       1.3777226    0.0032110029
      5978.62       1.3651174    0.0031256429
      5984.60       1.3516178    0.0030368934
      5990.58       1.3367976    0.0029566149
      5996.57       1.3211215    0.0029421578
      6002.57       1.3055602    0.0028951307
      6008.57       1.2897060    0.0028670302
      6014.58       1.2734518    0.0028355823
      6020.60       1.2576961    0.0027917605
      6026.62       1.2411740    0.0027781021
      6032.65       1.2249293    0.0027353397
      6038.68       1.2090082    0.0026936456
      6044.72       1.1934513    0.0026799354
      6050.76       1.1781077    0.0026395372
      6056.81       1.1664939    0.0026649438
      6062.87       1.1545573    0.0027038351
      6068.93       1.1440972    0.0027428354
      6075.00       1.1355089    0.0027934141
      6081.08       1.1289602    0.0028758837
      6087.16       1.1226284    0.0029653263
      6093.25       1.1166330    0.0030623866
      6099.34       1.1124775    0.0032094845
      6105.44       1.1087140    0.0034069604
      6111.54       1.1057062    0.0037171209
      6117.66       1.1039612    0.0040780233
      6123.78       1.1034908    0.0045479843
      6129.90       1.1045148    0.0050329505
      6136.03       1.1076844    0.0057732358
      6142.17       1.1129824    0.0068919438
      6148.31       1.1200883    0.0080963358
