# starting wavelength =        3115.1900
# ending wavelength =        9984.5800
# O2 telluric scale =        0
# O2 telluric shift =        0
# H2O telluric scale =        0
# H2O telluric shift =        0
      3115.80      0.92855077      0.10931903
      3118.91       1.0042343     0.091798825
      3122.03       1.0323280     0.075301892
      3125.15       1.0524645     0.065294850
      3128.28       1.0680050     0.059880114
      3131.41       1.0947166     0.053387834
      3134.54       1.1171127     0.046882565
      3137.67       1.1339738     0.043259257
      3140.81       1.1472439     0.041222224
      3143.95       1.1560942     0.038790109
      3147.10       1.1684617     0.036440816
      3150.24       1.1652440     0.034972734
      3153.39       1.1588506     0.034149029
      3156.55       1.1424520     0.033050598
      3159.70       1.1310333     0.032169428
      3162.86       1.1230910     0.031377849
      3166.03       1.1151082     0.030959130
      3169.19       1.1064668     0.030297536
      3172.36       1.1035217     0.029693554
      3175.54       1.0902709     0.029394489
      3178.71       1.0590340     0.029306807
      3181.89       1.0473764     0.029483487
      3185.07       1.0414975     0.029175413
      3188.26       1.0273632     0.029347950
      3191.45       1.0159104     0.029046171
      3194.64       1.0045533     0.029214150
      3197.83       1.0584808     0.029134231
      3201.03       1.0524399     0.028828883
      3204.23       1.0331509     0.028999020
      3207.44       1.0495132     0.028922636
      3210.64       1.0485568     0.028866306
      3213.85       1.0315406     0.028786621
      3217.07       1.0214551     0.028965363
      3220.28       1.0071740     0.028652758
      3223.51       1.0040417     0.028836479
      3226.73       1.0117927     0.028749078
      3229.96       1.0014932     0.028440982
      3233.19       1.0110181     0.028619162
      3236.42       1.0012679     0.028534831
      3239.66       1.0040520     0.028492457
      3242.90       1.0150810     0.028404189
      3246.14       1.0264451     0.028579370
      3249.39       1.0447832     0.028276685
      3252.64       1.0389916     0.028191100
      3255.89       1.0278288     0.028366507
      3259.14       1.0272819     0.028062826
      3262.40       1.0236498     0.028233175
      3265.67       1.0107150     0.028155498
      3268.93       1.0027978     0.027850858
      3272.20      0.99306150     0.028021418
      3275.47      0.97941017     0.027945389
      3278.75      0.97901983     0.027891155
      3282.03      0.97360329     0.027810913
      3285.31      0.97378476     0.027736156
      3288.60      0.96731514     0.027909523
      3291.88      0.95622245     0.027601191
      3295.18      0.96795258     0.027781739
      3298.47      0.97150715     0.027697727
      3301.77      0.97845299     0.027392416
      3305.07      0.97574042     0.027570167
      3308.38      0.97583799     0.027487530
      3311.69      0.97160655     0.027447518
      3315.00      0.96465718     0.027360022
      3318.31      0.97207443     0.027277899
      3321.63      0.97559922     0.027456022
      3324.95      0.97943834     0.027150811
      3328.28      0.97365427     0.027322880
      3331.61      0.97264452     0.027246393
      3334.94      0.98137249     0.026943363
      3338.27      0.98368948     0.027114124
      3341.61      0.97755859     0.027037289
      3344.95      0.98198517     0.027219620
      3348.30      0.98816213     0.026905393
      3351.65      0.99457653     0.026828975
      3355.00       1.0065673     0.027010274
      3358.35       1.0135992     0.026928425
      3361.71       1.0099635     0.026621639
      3365.07       1.0097307     0.026803335
      3368.44       1.0112746     0.026720265
      3371.81       1.0088430     0.026900691
      3375.18       1.0041730     0.026596261
      3378.56       1.0061505     0.026513520
      3381.94       1.0025614     0.026690879
      3385.32       1.0041973     0.026616803
      3388.70       1.0136161     0.026308222
      3392.09       1.0138784     0.026482955
      3395.48       1.0131499     0.026407698
      3398.88       1.0131468     0.026336847
      3402.28       1.0146395     0.026275818
      3405.68       1.0306015     0.026199420
      3409.09       1.0346206     0.026127528
      3412.49       1.0333682     0.026304658
      3415.91       1.0359170     0.025993237
      3419.32       1.0480434     0.026183751
      3422.74       1.0519527     0.026099350
      3426.17       1.0541560     0.026019543
      3429.59       1.0604244     0.025981594
      3433.02       1.0628721     0.025896161
      3436.45       1.0651578     0.025814618
      3439.89       1.0696533     0.025995181
      3443.33       1.0688543     0.025921450
      3446.78       1.0775597     0.025612641
      3450.22       1.0807572     0.025789038
      3453.67       1.0808297     0.025712830
      3457.13       1.0804268     0.025640393
      3460.58       1.0807147     0.025824248
      3464.04       1.0791731     0.025506646
      3467.51       1.0715273     0.025431795
      3470.98       1.0669513     0.025622221
      3474.45       1.0624241     0.025540436
      3477.92       1.0564456     0.025463066
      3481.40       1.0480260     0.025423047
      3484.88       1.0389167     0.025339139
      3488.37       1.0165101     0.025258583
      3491.86       1.0019461     0.025181966
      3495.35      0.99259549     0.025369628
      3498.84      0.99111420     0.025059336
      3502.34      0.98169227     0.024979808
      3505.84      0.97938000     0.025161803
      3509.35      0.97960175     0.025088069
      3512.86      0.97768669     0.025017912
      3516.37      0.96956509     0.024958502
      3519.89      0.96637437     0.024882117
      3523.41      0.95914093     0.024808645
      3526.93      0.95473237     0.025003257
      3530.46      0.94704196     0.024922317
      3533.99      0.94169535     0.024844665
      3537.53      0.94092938     0.024529830
      3541.06      0.94393151     0.024725163
      3544.60      0.94672891     0.024644057
      3548.15      0.93630543     0.024565759
      3551.70      0.94226948     0.024754943
      3555.25      0.94926985     0.024681723
      3558.80      0.95162428     0.024612131
      3562.36      0.95662457     0.024551623
      3565.92      0.96112491     0.024474897
      3569.49      0.96670698     0.024400582
      3573.06      0.95806469     0.024329412
      3576.64      0.96031819     0.024524652
      3580.21      0.94984886     0.024445929
      3583.79      0.95383738     0.024370144
      3587.38      0.95759049     0.024049954
      3590.96      0.96369181     0.024250132
      3594.55      0.96353797     0.024170021
      3598.15      0.96802491     0.024092251
      3601.75      0.97889177     0.024286084
      3605.35      0.98119432     0.024212578
      3608.96      0.97945655     0.024141634
      3612.56      0.98149618     0.023819784
      3616.18      0.97623911     0.024008063
      3619.79      0.97406330     0.023932428
      3623.41      0.97144472     0.023858868
      3627.04      0.97512623     0.023788389
      3630.66      0.97215026     0.023990589
      3634.29      0.97215694     0.023912238
      3637.93      0.96257476     0.023835819
      3641.57      0.96670920     0.023761276
      3645.21      0.96991282     0.023722685
      3648.86      0.96612009     0.023641497
      3652.50      0.97131598     0.023562932
      3656.16      0.97051734     0.023485547
      3659.81      0.97020305     0.023683391
      3663.47      0.96884059     0.023609479
      3667.14      0.97131391     0.023537659
      3670.80      0.97625287     0.023467496
      3674.48      0.98104552     0.023674549
      3678.15      0.98756988     0.023596668
      3681.83      0.99684282     0.023520970
      3685.51       1.0066791     0.023446864
      3689.20       1.0103398     0.023409640
      3692.88       1.0185037     0.023328654
      3696.58       1.0189252     0.023249645
      3700.27       1.0050395     0.023172221
      3703.98       1.0080504     0.023096336
      3707.68       1.0052149     0.023301795
      3711.39       1.0021979     0.023227966
      3715.10      0.98388728     0.023156704
      3718.81      0.96025183     0.023086512
      3722.53      0.94499023     0.023304443
      3726.26      0.93576718     0.023226369
      3729.98      0.93051021     0.023149767
      3733.71      0.92168401     0.023074939
      3737.45      0.89996549     0.023001166
      3741.18      0.88919153     0.023219949
      3744.93      0.87228529     0.023148544
      3748.67      0.87695555     0.022807019
      3752.42      0.89662078     0.022729442
      3756.17      0.91767575     0.022653158
      3759.93      0.93252876     0.022864283
      3763.69      0.93525166     0.022789733
      3767.45      0.92686297     0.022716236
      3771.22      0.91530956     0.022644012
      3774.99      0.90294163     0.022573292
      3778.77      0.89373365     0.022808790
      3782.54      0.90559873     0.022730487
      3786.33      0.91532611     0.022652170
      3790.11      0.91016945     0.022576146
      3793.90      0.92202836     0.022500879
      3797.70      0.93958546     0.022723861
      3801.50      0.96194374     0.022650493
      3805.30      0.94991929     0.022576859
      3809.10      0.91395388     0.022504962
      3812.91      0.88549320     0.022432818
      3816.73      0.88333319     0.022362013
      3820.54      0.90075641     0.022292453
      3824.36      0.91917425     0.021939016
      3828.19      0.94686529     0.021865303
      3832.02      0.96598832     0.021791276
      3835.85      0.97983668     0.021718068
      3839.68      0.98050626     0.021645229
      3843.52      0.99414324     0.021859368
      3847.37       1.0339569     0.021787327
      3851.22       1.0687346     0.021715587
      3855.07       1.1040459     0.021644742
      3858.92       1.1253999     0.021574936
      3862.78       1.1385856     0.021504373
      3866.64       1.1418965     0.021174683
      3870.51       1.1572473     0.021100845
      3874.38       1.1491167     0.021028490
      3878.26       1.1292427     0.020956350
      3882.13       1.1269865     0.020884299
      3886.02       1.1427875     0.020813774
      3889.90       1.1725742     0.020742026
      3893.79       1.2037154     0.020671774
      3897.69       1.2321295     0.020601552
      3901.59       1.2651834     0.020531366
      3905.49       1.3110812     0.020462454
      3909.39       1.3506178     0.020393500
      3913.30       1.3926728     0.020324639
      3917.22       1.4404080     0.020255691
      3921.13       1.4726432     0.019936784
      3925.06       1.5030863     0.019869507
      3928.98       1.5113839     0.019802304
      3932.91       1.5122346     0.019735424
      3936.84       1.5076507     0.019669093
      3940.78       1.4814788     0.019602236
      3944.72       1.4609084     0.019535770
      3948.67       1.4349664     0.019469266
      3952.61       1.4112230     0.019403144
      3956.57       1.4043048     0.019337401
      3960.52       1.3923556     0.019271526
      3964.48       1.3961180     0.019206025
      3968.45       1.4047775     0.019140324
      3972.42       1.4152695     0.019074431
      3976.39       1.4276890     0.019008939
      3980.37       1.4500795     0.018943350
      3984.35       1.4671669     0.018878207
      3988.33       1.5035020     0.018813427
      3992.32       1.5411242     0.018748591
      3996.31       1.5770238     0.018683367
      4000.31       1.6068680     0.018618108
      4004.31       1.6353304     0.018553313
      4008.31       1.6625683     0.018488871
      4012.32       1.6727725     0.018424328
      4016.33       1.6738091     0.018360226
      4020.35       1.6819769     0.018295873
      4024.37       1.6835327     0.018231298
      4028.40       1.6908361     0.018167182
      4032.42       1.6950460     0.018102927
      4036.46       1.7034472     0.018039005
      4040.50       1.7070389     0.017975482
      4044.54       1.7076705     0.017911876
      4048.58       1.7019346     0.017848685
      4052.63       1.6891536     0.017785025
      4056.68       1.6822107     0.017721808
      4060.74       1.6839071     0.017658989
      4064.80       1.6776498     0.017596157
      4068.86       1.6491888     0.017533664
      4072.93       1.5973796     0.017252059
      4077.01       1.5528379     0.017190741
      4081.08       1.5193783     0.017129477
      4085.17       1.4820936     0.017068666
      4089.25       1.4490622     0.017008398
      4093.34       1.4305012     0.016948023
      4097.43       1.4069590     0.016888236
      4101.53       1.3935360     0.016828569
      4105.63       1.3874680     0.016769149
      4109.74       1.3700234     0.016710317
      4113.85       1.3721822     0.016651499
      4117.96       1.3750076     0.016593359
      4122.08       1.3816009     0.016535772
      4126.20       1.3986208     0.016478331
      4130.33       1.4121351     0.016207654
      4134.46       1.4358854     0.016148346
      4138.59       1.4594587     0.016089143
      4142.73       1.4652259     0.016030990
      4146.88       1.4689523     0.015972940
      4151.02       1.4694220     0.015915109
      4155.18       1.4774478     0.015858173
      4159.33       1.4971733     0.015988099
      4163.49       1.5090203     0.015931153
      4167.65       1.5261882     0.015874940
      4171.82       1.5388521     0.015624060
      4175.99       1.5404788     0.015564968
      4180.17       1.5489393     0.015506816
      4184.35       1.5552542     0.015448589
      4188.54       1.5482777     0.015391589
      4192.72       1.5543271     0.015334892
      4196.92       1.5580849     0.015278584
      4201.11       1.5527827     0.015223545
      4205.31       1.5522429     0.015168808
      4209.52       1.5532685     0.014932383
      4213.73       1.5582782     0.015051699
      4217.94       1.5626873     0.014993928
      4222.16       1.5663558     0.014936587
      4226.38       1.5795404     0.014880633
      4230.61       1.5972492     0.014825196
      4234.84       1.6163629     0.014770428
      4239.08       1.6361222     0.014538906
      4243.32       1.6518558     0.014486312
      4247.56       1.6684594     0.014434647
      4251.81       1.6828108     0.014383995
      4256.06       1.6946897     0.014491456
      4260.32       1.7109110     0.014436160
      4264.58       1.7198924     0.014381651
      4268.84       1.7200617     0.014155267
      4273.11       1.7172702     0.014103449
      4277.38       1.7076745     0.014052758
      4281.66       1.7008137     0.014002842
      4285.94       1.6967202     0.013954051
      4290.23       1.6920263     0.013906179
      4294.52       1.6837004     0.013831574
      4298.81       1.6750648     0.013779934
      4303.11       1.6604567     0.013729561
      4307.42       1.6534452     0.013680074
      4311.72       1.6396436     0.013631851
      4316.04       1.6106554     0.013584689
      4320.35       1.5811296     0.013364127
      4324.67       1.5596526     0.013462926
      4329.00       1.5533950     0.013413279
      4333.33       1.5482054     0.013364649
      4337.66       1.5501498     0.013317412
      4342.00       1.5682008     0.013106064
      4346.34       1.5794416     0.013055580
      4350.69       1.5882311     0.013006180
      4355.04       1.5970959     0.013103534
      4359.39       1.6110704     0.013056266
      4363.75       1.6312662     0.012852103
      4368.12       1.6508788     0.012801787
      4372.48       1.6715236     0.012752744
      4376.86       1.6917897     0.012704945
      4381.23       1.7065147     0.012800642
      4385.61       1.7082559     0.012602023
      4390.00       1.7105844     0.012551801
      4394.39       1.7029547     0.012503366
      4398.79       1.6886081     0.012456361
      4403.18       1.6800583     0.012267190
      4407.59       1.6690761     0.012355051
      4412.00       1.6688413     0.012305744
      4416.41       1.6606811     0.012257973
      4420.82       1.6574339     0.012212113
      4425.25       1.6495766     0.012026914
      4429.67       1.6392893     0.012111614
      4434.10       1.6236505     0.012063369
      4438.54       1.6107242     0.012017018
      4442.97       1.5973498     0.011833807
      4447.42       1.5856495     0.011791478
      4451.86       1.5789495     0.011871736
      4456.32       1.5796777     0.011825327
      4460.77       1.5832480     0.011644329
      4465.24       1.5940031     0.011602007
      4469.70       1.6140970     0.011561734
      4474.17       1.6435709     0.011636335
      4478.65       1.6799359     0.011457598
      4483.12       1.7266654     0.011415992
      4487.61       1.7845557     0.011376147
      4492.09       1.8517584     0.011317220
      4496.59       1.9194370     0.011274016
      4501.08       1.9863289     0.011232987
      4505.58       2.0529326     0.011193642
      4510.09       2.1213302     0.011018363
      4514.60       2.1841281     0.011093477
      4519.12       2.2349456     0.011053159
      4523.63       2.2788428     0.011014814
      4528.16       2.3147383     0.010841453
      4532.69       2.3438014     0.010915532
      4537.22       2.3703568     0.010876116
      4541.76       2.3848917     0.010708895
      4546.30       2.3987003     0.010667184
      4550.85       2.4034724     0.010740656
      4555.40       2.4021248     0.010578785
      4559.95       2.3960667     0.010536253
      4564.51       2.3846887     0.010495891
      4569.08       2.3759225     0.010569222
      4573.65       2.3674755     0.010407545
      4578.22       2.3535765     0.010366652
      4582.80       2.3331028     0.010328119
      4587.38       2.3096371     0.010280595
      4591.97       2.2813694     0.010239291
      4596.56       2.2513349     0.010200350
      4601.16       2.2127565     0.010155128
      4605.76       2.1743242     0.010113576
      4610.37       2.1326411     0.010074536
      4614.98       2.0923942    0.0099262737
      4619.59       2.0557633    0.0099896971
      4624.21       2.0206980    0.0099505749
      4628.84       1.9809929    0.0098034764
      4633.47       1.9441056    0.0098671103
      4638.10       1.9081017    0.0098282100
      4642.74       1.8732909    0.0096827922
      4647.38       1.8380594    0.0097463319
      4652.03       1.8074327    0.0097074036
      4656.68       1.7854591    0.0095636438
      4661.34       1.7690040    0.0095306982
      4666.00       1.7505875    0.0095882449
      4670.67       1.7327004    0.0094463535
      4675.33       1.7169643    0.0094139936
      4680.01       1.7046203    0.0093650676
      4684.69       1.6922004    0.0093305706
      4689.38       1.6812865    0.0092990394
      4694.07       1.6699313    0.0092504615
      4698.76       1.6601568    0.0092168616
      4703.46       1.6536966    0.0091859968
      4708.16       1.6500368    0.0091372817
      4712.87       1.6469858    0.0091045503
      4717.58       1.6444276    0.0089693130
      4722.30       1.6425650    0.0090259311
      4727.03       1.6399528    0.0089943917
      4731.75       1.6346561    0.0088595658
      4736.48       1.6284790    0.0089162477
      4741.22       1.6187656    0.0087859486
      4745.96       1.6111550    0.0087514850
      4750.71       1.6010089    0.0088086091
      4755.46       1.5875901    0.0086783852
      4760.22       1.5801639    0.0086451948
      4764.97       1.5698331    0.0086070155
      4769.74       1.5584796    0.0085726150
      4774.51       1.5444941    0.0086280211
      4779.29       1.5325150    0.0085015165
      4784.07       1.5237037    0.0084688896
      4788.85       1.5124352    0.0084322342
      4793.64       1.5064720    0.0083980855
      4798.43       1.5045999    0.0083673723
      4803.23       1.5055050    0.0083290234
      4808.03       1.5112895    0.0082969508
      4812.84       1.5195297    0.0082610469
      4817.66       1.5197706    0.0082278106
      4822.48       1.5210748    0.0081104818
      4827.30       1.5231958    0.0081603739
      4832.12       1.5206650    0.0081294177
      4836.96       1.5201056    0.0080155607
      4841.79       1.5225822    0.0080620535
      4846.63       1.5224380    0.0079479484
      4851.48       1.5228367    0.0079958156
      4856.33       1.5187819    0.0078817134
      4861.19       1.5138852    0.0079308205
      4866.05       1.5118931    0.0078164675
      4870.92       1.5107216    0.0077903588
      4875.79       1.5087226    0.0077522501
      4880.66       1.5007101    0.0077258608
      4885.55       1.4921002    0.0076893145
      4890.43       1.4890664    0.0076619788
      4895.32       1.4867247    0.0076384846
      4900.22       1.4850359    0.0075993499
      4905.12       1.4861640    0.0075754179
      4910.02       1.4839087    0.0075376392
      4914.94       1.4896094    0.0075132996
      4919.85       1.4992829    0.0074767209
      4924.77       1.5094942    0.0074520502
      4929.70       1.5282593    0.0073448155
      4934.62       1.5467215    0.0073917652
      4939.56       1.5658869    0.0072861214
      4944.50       1.5892089    0.0073323909
      4949.44       1.6156452    0.0072280203
      4954.39       1.6416675    0.0072736330
      4959.35       1.6635923    0.0071708531
      4964.31       1.6834333    0.0072160433
      4969.27       1.6937456    0.0071143181
      4974.24       1.6957004    0.0071589391
      4979.22       1.6885698    0.0070584087
      4984.20       1.6807152    0.0070340815
      4989.18       1.6620831    0.0070033340
      4994.17       1.6411132    0.0069791741
      4999.16       1.6123036    0.0069487548
      5004.16       1.5803082    0.0068538999
      5009.17       1.5493673    0.0068949400
      5014.18       1.5163800    0.0068011162
      5019.19       1.4831396    0.0068419185
      5024.21       1.4536096    0.0067489934
      5029.23       1.4250336    0.0067893504
      5034.26       1.4052702    0.0066976130
      5039.30       1.3881878    0.0067375806
      5044.34       1.3727059    0.0066471814
      5049.39       1.3657370    0.0066865893
      5054.43       1.3641020    0.0065972034
      5059.49       1.3682189    0.0066361510
      5064.55       1.3746790    0.0065482660
      5069.61       1.3869486    0.0065195146
      5074.68       1.4049970    0.0065000684
      5079.76       1.4289477    0.0064711350
      5084.84       1.4525084    0.0064526963
      5089.92       1.4837940    0.0064237713
      5095.01       1.5123049    0.0064062900
      5100.11       1.5454837    0.0063771827
      5105.21       1.5760404    0.0062916341
      5110.31       1.6017655    0.0063314253
      5115.42       1.6298734    0.0063049892
      5120.54       1.6556325    0.0062866291
      5125.66       1.6781928    0.0062599068
      5130.79       1.6909451    0.0061774394
      5135.92       1.7029198    0.0062156693
      5141.05       1.7106958    0.0061332823
      5146.20       1.7211888    0.0061724692
      5151.34       1.7270972    0.0060901051
      5156.49       1.7317462    0.0060678256
      5161.65       1.7375636    0.0060477801
      5166.81       1.7423212    0.0060250302
      5171.98       1.7511817    0.0060633206
      5177.15       1.7633206    0.0059833115
      5182.33       1.7745624    0.0059623322
      5187.51       1.7835428    0.0059426008
      5192.70       1.7915042    0.0059210444
      5197.89       1.7993179    0.0059029932
      5203.09       1.8069028    0.0058809759
      5208.29       1.8083823    0.0058609319
      5213.50       1.8125786    0.0058419710
      5218.72       1.8177461    0.0058212928
      5223.93       1.8115324    0.0057475986
      5229.16       1.8025630    0.0057829860
      5234.39       1.7989481    0.0057635633
      5239.62       1.7884372    0.0056898140
      5244.86       1.7807329    0.0057257000
      5250.11       1.7707724    0.0056544242
      5255.36       1.7564963    0.0056339049
      5260.61       1.7421928    0.0056703020
      5265.87       1.7307003    0.0055992786
      5271.14       1.7206612    0.0055797085
      5276.41       1.7145179    0.0055660728
      5281.69       1.7028345    0.0055458867
      5286.97       1.6891856    0.0055272436
      5292.26       1.6750199    0.0055135595
      5297.55       1.6626664    0.0054941608
      5302.85       1.6489862    0.0054265149
      5308.15       1.6358680    0.0054627622
      5313.46       1.6281616    0.0054441607
      5318.77       1.6215057    0.0053775394
      5324.09       1.6061815    0.0054136619
      5329.42       1.5966083    0.0053957498
      5334.75       1.5911499    0.0053301382
      5340.08       1.5820990    0.0053662885
      5345.42       1.5749447    0.0053488996
      5350.77       1.5632972    0.0052841324
      5356.12       1.5495961    0.0052693912
      5361.48       1.5353846    0.0053037746
      5366.83       1.5173727    0.0052397733
      5372.20       1.5001664    0.0052253583
      5377.58       1.4830180    0.0052600859
      5382.95       1.4618149    0.0051968268
      5388.34       1.4361293    0.0051828122
      5393.72       1.4112357    0.0051697759
      5399.12       1.3911304    0.0051555267
      5404.52       1.3718351    0.0051417209
      5409.92       1.3570078    0.0051289736
      5415.33       1.3442875    0.0051158589
      5420.75       1.3312867    0.0051022275
      5426.17       1.3205400    0.0050896109
      5431.60       1.3171249    0.0050308839
      5437.03       1.3155457    0.0050644719
      5442.47       1.3141974    0.0050519557
      5447.91       1.3144240    0.0049950377
      5453.36       1.3133721    0.0049818946
      5458.81       1.3123363    0.0050159317
      5464.27       1.3082428    0.0049611733
      5469.73       1.3042500    0.0049482059
      5475.20       1.3012955    0.0049359477
      5480.68       1.2949609    0.0049245192
      5486.16       1.2890795    0.0049161533
      5491.65       1.2823893    0.0049040348
      5497.14       1.2739314    0.0048927202
      5502.64       1.2641952    0.0048820255
      5508.14       1.2526279    0.0048742284
      5513.65       1.2412399    0.0048628678
      5519.16       1.2291083    0.0048522526
      5524.68       1.2084596    0.0047989638
      5530.20       1.1893019    0.0047896539
      5535.73       1.1685209    0.0048245551
      5541.27       1.1443452    0.0048145450
      5546.81       1.1187010    0.0047621511
      5552.36       1.0930843    0.0047533208
      5557.91       1.0620155    0.0047451321
      5563.47       1.0346810    0.0047795782
      5569.04       1.0088728    0.0047278813
      5574.60      0.98073417    0.0047196214
      5580.18      0.95367681    0.0047118867
      5585.76      0.92599848    0.0047046493
      5591.35      0.90206568    0.0046965075
      5596.94      0.87614736    0.0046886458
      5602.53      0.85036645    0.0046812512
      5608.14      0.82832065    0.0046744151
      5613.75      0.80924841    0.0046680121
      5619.36      0.78962714    0.0046198559
      5624.98      0.76755954    0.0046536649
      5630.60      0.74739996    0.0046470754
      5636.23      0.73123177    0.0046409493
      5641.87      0.71839686    0.0046352685
      5647.51      0.70845121    0.0045887351
      5653.16      0.70246642    0.0045825124
      5658.82      0.69710933    0.0045767554
      5664.47      0.69282552    0.0046115400
      5670.14      0.68970865    0.0046064928
      5675.81      0.68827256    0.0045619381
      5681.48      0.69162704    0.0045564177
      5687.17      0.69577007    0.0045513338
      5692.85      0.70001309    0.0045465693
      5698.55      0.70455647    0.0045421647
      5704.25      0.71319589    0.0044981838
      5709.95      0.72347348    0.0045349202
      5715.66      0.73505832    0.0045303504
      5721.38      0.74681371    0.0045261389
      5727.10      0.75943299    0.0045222676
      5732.83      0.77223662    0.0045187320
      5738.56      0.79034448    0.0044756147
      5744.30      0.80328241    0.0044726332
      5750.04      0.81957434    0.0044699485
      5755.79      0.83906489    0.0044675604
      5761.55      0.85764740    0.0044654082
      5767.31      0.87615371    0.0045014436
      5773.08      0.89685740    0.0044989562
      5778.85      0.91929893    0.0044568760
      5784.63      0.94955895    0.0044549410
      5790.41      0.98147667    0.0044532318
      5796.21       1.0162151    0.0044517323
      5802.00       1.0519070    0.0044505073
      5807.81       1.0861231    0.0044496341
      5813.61       1.1240981    0.0044492032
      5819.43       1.1548342    0.0044492684
      5825.25       1.1886851    0.0044104007
      5831.07       1.2252844    0.0044099719
      5836.90       1.2497034    0.0044100198
      5842.74       1.2683063    0.0044110608
      5848.58       1.2798823    0.0044138027
      5854.43       1.2829756    0.0044177413
      5860.29       1.2869372    0.0044219512
      5866.15       1.2888146    0.0044627701
      5872.01       1.2838491    0.0044682167
      5877.89       1.2810599    0.0044739421
      5883.76       1.2806365    0.0044401896
      5889.65       1.2781465    0.0044430550
      5895.54       1.2777503    0.0044453530
      5901.43       1.2745996    0.0044471941
      5907.34       1.2717624    0.0044483982
      5913.24       1.2695214    0.0044490621
      5919.16       1.2645724    0.0044496961
      5925.08       1.2634902    0.0044508010
      5931.00       1.2598925    0.0044522287
      5936.93       1.2604300    0.0044534398
      5942.87       1.2530010    0.0044541910
      5948.81       1.2396625    0.0044545487
      5954.76       1.2283028    0.0044548213
      5960.72       1.2140893    0.0044553481
      5966.68       1.1984531    0.0044557594
      5972.64       1.1849296    0.0044555894
      5978.62       1.1681756    0.0044170697
      5984.60       1.1519282    0.0044181895
      5990.58       1.1382858    0.0044201824
      5996.57       1.1238134    0.0044218284
      6002.57       1.1089723    0.0044233080
      6008.57       1.0927022    0.0043910071
      6014.58       1.0760744    0.0043942027
      6020.60       1.0632737    0.0043977986
      6026.62       1.0560900    0.0044016445
      6032.65       1.0494594    0.0044058817
      6038.68       1.0431684    0.0044105243
      6044.72       1.0368426    0.0044152921
      6050.76       1.0300881    0.0044201539
      6056.81       1.0229311    0.0044252437
      6062.87       1.0172920    0.0044305815
      6068.93       1.0125242    0.0044360908
      6075.00       1.0095823    0.0044417750
      6081.08       1.0070574    0.0044475957
      6087.16       1.0039219    0.0044536125
      6093.25       1.0012541    0.0044598258
      6099.34       1.0021776    0.0044661585
      6105.44       1.0022950    0.0044367013
      6111.54       1.0006358    0.0044429861
      6117.66      0.99979528    0.0044494488
      6123.78      0.99897770    0.0044560256
      6129.90       1.0018233    0.0044627690
      6136.03       1.0143756    0.0045085041
      6142.17       1.0327971    0.0045156627
      6148.31       1.0554414    0.0045229585
      6154.46       1.0835479    0.0045304385
      6160.61       1.1161040    0.0045380586
      6166.77       1.1562999    0.0045114778
      6172.94       1.2177539    0.0045188956
      6179.11       1.3028096    0.0045265011
      6185.29       1.4058058    0.0045342514
      6191.48       1.5237547    0.0045422949
      6197.67       1.6553371    0.0045509379
      6203.87       1.7940231    0.0045609871
      6210.07       1.9361117    0.0045716487
      6216.28       2.0869796    0.0045466046
      6222.50       2.2212859    0.0045559899
      6228.72       2.3393610    0.0045680465
      6234.95       2.4549065    0.0046222252
      6241.19       2.5521023    0.0046392502
      6247.42       2.6411853    0.0046583861
      6253.67       2.7176353    0.0046787365
      6259.93       2.7702275    0.0046653639
      6266.19       2.8137235    0.0046843218
      6272.46       2.8437497    0.0047013952
      6278.73       2.8540615    0.0047157818
      6285.01       2.8578240    0.0047269714
      6291.29       2.8540025    0.0046967283
      6297.58       2.8465120    0.0047402389
      6303.88       2.8229031    0.0047420505
      6310.19       2.7860763    0.0047436347
      6316.50       2.7392001    0.0047468244
      6322.81       2.6798713    0.0047531425
      6329.14       2.6024657    0.0047241903
      6335.47       2.5232090    0.0047297719
      6341.80       2.4239770    0.0047753283
      6348.14       2.3177654    0.0047834705
      6354.49       2.2161119    0.0047921446
      6360.85       2.1140052    0.0047654401
      6367.21       2.0162796    0.0047742556
      6373.57       1.9186072    0.0047837284
      6379.95       1.8281548    0.0047938763
      6386.33       1.7497350    0.0048111540
      6392.72       1.6741533    0.0048216899
      6399.11       1.5986612    0.0048329691
      6405.51       1.5292936    0.0048448276
      6411.92       1.4605446    0.0048230442
      6418.32       1.3995234    0.0048360019
      6424.74       1.3436407    0.0048901283
      6431.17       1.2938203    0.0049045440
      6437.60       1.2524627    0.0048867886
      6444.04       1.2110671    0.0049040140
      6450.48       1.1735461    0.0049208322
      6456.94       1.1422115    0.0049782526
      6463.39       1.1184082    0.0049590033
      6469.85       1.0916855    0.0049746943
      6476.33       1.0685555    0.0049899863
      6482.80       1.0490404    0.0050045907
      6489.28       1.0387454    0.0050219009
      6495.77       1.0280173    0.0050338694
      6502.27       1.0196840    0.0050460186
      6508.77       1.0129192    0.0050217413
      6515.28       1.0037995    0.0050761474
      6521.80      0.99584650    0.0050896682
      6528.32      0.98811811    0.0051038255
      6534.85      0.97875520    0.0050803744
      6541.38      0.97113926    0.0050926309
      6547.92      0.96207517    0.0051473665
      6554.47      0.95092474    0.0051231659
      6561.03      0.94049184    0.0051354960
      6567.59      0.92633228    0.0051487101
      6574.16      0.91827300    0.0051679537
      6580.73      0.91141138    0.0051791621
      6587.31      0.90504020    0.0051918264
      6593.90      0.89228803    0.0052136979
      6600.50      0.88100816    0.0052270965
      6607.10      0.87547001    0.0052412064
      6613.70      0.87293935    0.0052205268
      6620.32      0.86617192    0.0052788576
      6626.94      0.85583961    0.0052935000
      6633.57      0.84521168    0.0052727545
      6640.20      0.83703235    0.0052887051
      6646.84      0.83148545    0.0053467033
      6653.49      0.82203794    0.0053261513
      6660.14      0.81065715    0.0053424832
      6666.80      0.79811157    0.0054013756
      6673.47      0.78498599    0.0053806791
      6680.14      0.77515271    0.0053973762
      6686.82      0.76885473    0.0054199198
      6693.51      0.76021321    0.0054360728
      6700.20      0.75337203    0.0054531137
      6706.90      0.74788946    0.0054758988
      6713.61      0.74074083    0.0054924139
      6720.32      0.73397684    0.0054717748
      6727.05      0.72848882    0.0055326477
      6733.77      0.72319496    0.0055497361
      6740.51      0.71887926    0.0055285062
      6747.25      0.71302545    0.0055903183
      6754.00      0.70878344    0.0055700497
      6760.75      0.70361623    0.0055860987
      6767.51      0.70102270    0.0056489326
      6774.28      0.69691385    0.0056280014
      6781.05      0.68814864    0.0056465636
      6787.84      0.68253235    0.0056872659
      6794.62      0.67682454    0.0057198835
      6801.42      0.67280163    0.0057031372
      6808.22      0.66825913    0.0057605573
      6815.03      0.66250597    0.0057923158
      6821.85      0.65607005    0.0058659619
      6828.67      0.65434601    0.0059356881
      6835.50      0.65023064    0.0059917937
      6842.33      0.64542352    0.0061539020
      6849.17      0.64117344    0.0062242612
      6856.02      0.63749424    0.0063236212
      6862.88      0.63627927    0.0064378535
      6869.74      0.63788741    0.0065008771
      6876.61      0.63846519    0.0065468165
      6883.49      0.63907940    0.0065500727
      6890.37      0.63917211    0.0064705222
      6897.27      0.63979233    0.0064759037
      6904.16      0.64240740    0.0064273970
      6911.07      0.64484705    0.0063684943
      6917.98      0.64905107    0.0063449925
      6924.89      0.65179146    0.0063343486
      6931.82      0.65777971    0.0063136557
      6938.75      0.66549991    0.0062458243
      6945.69      0.67274733    0.0062852403
      6952.64      0.68283864    0.0062424686
      6959.59      0.69189003    0.0062482114
      6966.55      0.69799320    0.0062524922
      6973.52      0.70358381    0.0062689437
      6980.49      0.70953878    0.0062817337
      6987.47      0.71703644    0.0063075898
      6994.46      0.72731042    0.0063246315
      7001.46      0.73748838    0.0063511672
      7008.46      0.74654703    0.0063655872
      7015.46      0.75985811    0.0063869877
      7022.48      0.77287826    0.0063973741
      7029.51      0.78632754    0.0063684791
      7036.53      0.80294607    0.0064293712
      7043.57      0.81754862    0.0064030792
      7050.62      0.83156317    0.0064233884
      7057.66      0.84688703    0.0064385259
      7064.72      0.86319234    0.0064597021
      7071.79      0.87945731    0.0064769719
      7078.86      0.89355727    0.0065010978
      7085.94      0.90875031    0.0065232520
      7093.03      0.92316491    0.0065554518
      7100.12      0.94383305    0.0065383339
      7107.22      0.96786651    0.0066169210
      7114.33      0.99505319    0.0066567796
      7121.44       1.0321845    0.0066928164
      7128.56       1.0746486    0.0067540851
      7135.69       1.1225996    0.0067813886
      7142.83       1.1838719    0.0069132004
      7149.97       1.2610066    0.0069695973
      7157.12       1.3465218    0.0071180518
      7164.28       1.4476456    0.0071560283
      7171.44       1.5647807    0.0072383637
      7178.62       1.6749415    0.0072837079
      7185.80       1.7932667    0.0073315262
      7192.98       1.9067594    0.0073638440
      7200.17       2.0056763    0.0073723703
      7207.38       2.0985497    0.0073826227
      7214.58       2.1763200    0.0073889155
      7221.80       2.2363227    0.0074121483
      7229.02       2.2758492    0.0073914329
      7236.25       2.3066941    0.0074781269
      7243.49       2.3142593    0.0075177862
      7250.73       2.3033198    0.0074883372
      7257.98       2.2769065    0.0075567157
      7265.24       2.2401887    0.0075069534
      7272.51       2.1917496    0.0074993311
      7279.78       2.1459100    0.0075452873
      7287.06       2.0990738    0.0074919077
      7294.35       2.0492194    0.0074857436
      7301.64       2.0038745    0.0074213598
      7308.94       1.9650452    0.0074578659
      7316.25       1.9239345    0.0074426229
      7323.57       1.8854558    0.0073830724
      7330.89       1.8459905    0.0074298392
      7338.22       1.8085886    0.0074288531
      7345.56       1.7682870    0.0073827508
      7352.91       1.7287681    0.0074423501
      7360.26       1.6814474    0.0074035242
      7367.62       1.6362232    0.0074201171
      7374.99       1.5944387    0.0074360818
      7382.37       1.5509689    0.0074439892
      7389.75       1.5050235    0.0074600658
      7397.14       1.4527659    0.0074790326
      7404.53       1.3980707    0.0074460095
      7411.94       1.3472701    0.0075141348
      7419.35       1.2956139    0.0075383525
      7426.77       1.2402146    0.0075087763
      7434.20       1.1878716    0.0075329693
      7441.63       1.1424222    0.0076055129
      7449.07       1.0990287    0.0075788209
      7456.52       1.0548991    0.0076054331
      7463.98       1.0132243    0.0076328516
      7471.45      0.97418879    0.0077082847
      7478.92      0.93560538    0.0076819992
      7486.40      0.89518710    0.0077103074
      7493.88      0.85545470    0.0077404033
      7501.38      0.82046580    0.0077282173
      7508.88      0.78734648    0.0078496042
      7516.39      0.76030970    0.0079734596
      7523.91      0.73621425    0.0080674617
      7531.43      0.71216654    0.0079937791
      7538.96      0.68756014    0.0080603632
      7546.50      0.66939489    0.0082669935
      7554.05      0.65971654    0.0085667018
      7561.60      0.65124436    0.0089130816
      7569.16      0.64054596    0.0094614974
      7576.73      0.64307381     0.010110181
      7584.31      0.64761485     0.010791246
      7591.89      0.65498563     0.011350131
      7599.49      0.66948376     0.011976573
      7607.09      0.68803612     0.012386067
      7614.70      0.69800939     0.012472544
      7622.31      0.70045211     0.012158392
      7629.93      0.70357661     0.011704673
      7637.56      0.71291590     0.011239665
      7645.20      0.72313646     0.010595889
      7652.85      0.73091937     0.010029122
      7660.50      0.74055192    0.0096064141
      7668.16      0.75047303    0.0092631411
      7675.83      0.75729501    0.0089745001
      7683.50      0.76491436    0.0087867864
      7691.19      0.77260314    0.0086972320
      7698.88      0.77713579    0.0086457220
      7706.58      0.77864799    0.0085857897
      7714.29      0.77981990    0.0085440929
      7722.00      0.77819630    0.0085225627
      7729.73      0.77981504    0.0085182452
      7737.45      0.78061012    0.0084719077
      7745.19      0.78357384    0.0084867375
      7752.94      0.78371250    0.0085075662
      7760.69      0.77997340    0.0085314708
      7768.45      0.78020315    0.0085574730
      7776.22      0.78404042    0.0085855208
      7784.00      0.78863850    0.0086643125
      7791.78      0.78903352    0.0086316809
      7799.57      0.78673781    0.0086600383
      7807.37      0.78376475    0.0086889762
      7815.18      0.77660422    0.0087178799
      7822.99      0.76748783    0.0087473442
      7830.82      0.75636983    0.0087785866
      7838.65      0.74431908    0.0088116369
      7846.49      0.72951656    0.0088456434
      7854.34      0.71410225    0.0088193416
      7862.19      0.69498334    0.0088558268
      7870.05      0.67404248    0.0088928710
      7877.93      0.66423107    0.0089271416
      7885.80      0.66015204    0.0089576312
      7893.69      0.65593959    0.0089864837
      7901.58      0.65073491    0.0090144733
      7909.49      0.64682225    0.0090419268
      7917.40      0.65049555    0.0090689255
      7925.31      0.65701548    0.0090951784
      7933.24      0.65857353    0.0091216658
      7941.17      0.64840994    0.0090869067
      7949.11      0.63721455    0.0091159532
      7957.06      0.62725853    0.0091460726
      7965.02      0.61762236    0.0091756169
      7972.98      0.61461863    0.0092051757
      7980.96      0.61301455    0.0092343672
      7988.94      0.61393450    0.0092620385
      7996.93      0.60718412    0.0092873749
      8004.93      0.60030403    0.0093118968
      8012.93      0.59068054    0.0093374380
      8020.95      0.58302817    0.0093637975
      8028.97      0.58554988    0.0093884465
      8036.99      0.58098848    0.0094130263
      8045.03      0.56851215    0.0093910346
      8053.08      0.56003512    0.0094244244
      8061.13      0.54993597    0.0094641850
      8069.20      0.53921104    0.0095123937
      8077.26      0.51802462    0.0095671615
      8085.34      0.49270136    0.0096325749
      8093.43      0.47639996    0.0097146950
      8101.52      0.46629759    0.0098137963
      8109.62      0.45606833    0.0099249381
      8117.73      0.44656520     0.010044053
      8125.85      0.44242599     0.010174368
      8133.98      0.44103133     0.010310082
      8142.11      0.43948766     0.010360280
      8150.25      0.43964808     0.010415051
      8158.41      0.44813031     0.010454235
      8166.56      0.45314284     0.010486627
      8174.73      0.45409053     0.010507920
      8182.91      0.44897214     0.010521399
      8191.09      0.43127062     0.010525830
      8199.28      0.42505834     0.010460062
      8207.48      0.42615899     0.010452644
      8215.69      0.42426113     0.010517907
      8223.91      0.41895787     0.010525633
      8232.13      0.40653672     0.010529601
      8240.36      0.39521139     0.010526022
      8248.60      0.38506706     0.010519812
      8256.85      0.37316253     0.010447761
      8265.11      0.36275249     0.010436160
      8273.37      0.36028165     0.010426959
      8281.65      0.36249026     0.010435707
      8289.93      0.36628962     0.010459736
      8298.22      0.37428214     0.010398381
      8306.52      0.38297250     0.010425835
      8314.83      0.39229398     0.010398524
      8323.14      0.39853976     0.010377967
      8331.46      0.39758122     0.010360225
      8339.80      0.39441681     0.010286800
      8348.13      0.40336397     0.010278675
      8356.48      0.42653826     0.010268107
      8364.84      0.44813968     0.010260589
      8373.21      0.46145049     0.010262989
      8381.58      0.46699995     0.010267617
      8389.96      0.46752303     0.010274184
      8398.35      0.47048836     0.010280562
      8406.75      0.48463688     0.010289419
      8415.16      0.50642905     0.010242743
      8423.57      0.53275358     0.010319969
      8432.00      0.56262335     0.010334144
      8440.43      0.59149482     0.010349984
      8448.87      0.62230614     0.010310153
      8457.32      0.65411880     0.010328375
      8465.78      0.68545497     0.010411571
      8474.25      0.71123018     0.010373796
      8482.72      0.73321392     0.010393904
      8491.20      0.76615184     0.010414107
      8499.69      0.82661914     0.010434823
      8508.19      0.91150436     0.010458406
      8516.70       1.0016028     0.010475553
      8525.22       1.0925519     0.010492481
      8533.75       1.1915286     0.010448619
      8542.28       1.2924845     0.010463340
      8550.82       1.4063417     0.010543888
      8559.37       1.5363911     0.010501118
      8567.93       1.6626585     0.010516094
      8576.50       1.7700491     0.010530839
      8585.08       1.8679934     0.010552917
      8593.66       1.9549906     0.010567862
      8602.26       2.0269017     0.010584849
      8610.86       2.0735123     0.010545695
      8619.47       2.1047883     0.010627297
      8628.09       2.1185628     0.010644224
      8636.72       2.1174588     0.010604006
      8645.36       2.1023542     0.010685548
      8654.00       2.0928033     0.010642841
      8662.66       2.0904931     0.010658551
      8671.32       2.1005409     0.010674515
      8679.99       2.1069039     0.010692997
      8688.67       2.0950347     0.010706984
      8697.36       2.0816555     0.010721785
      8706.06       2.0629949     0.010739433
      8714.76       2.0441656     0.010753954
      8723.48       2.0301503     0.010709428
      8732.21       2.0109438     0.010788979
      8740.93       1.9667167     0.010804158
      8749.68       1.9104172     0.010759190
      8758.43       1.8574856     0.010840024
      8767.19       1.7915632     0.010796194
      8775.96       1.7221558     0.010810408
      8784.73       1.6476809     0.010832275
      8793.52       1.5774250     0.010845512
      8802.31       1.5121203     0.010802054
      8811.11       1.4410623     0.010880774
      8819.92       1.3689203     0.010895205
      8828.75       1.2943656     0.010854346
      8837.57       1.2420232     0.010933487
      8846.41       1.1719645     0.010895783
      8855.26       1.0871129     0.010982525
      8864.12       1.0113818     0.010954922
      8872.98      0.93364848     0.010983936
      8881.85      0.86819221     0.011032884
      8890.73      0.81081498     0.011088809
      8899.63      0.74898740     0.011169435
      8908.52      0.68393024     0.011253960
      8917.43      0.63227090     0.011318917
      8926.35      0.58701757     0.011526461
      8935.28      0.54881277     0.011629675
      8944.22      0.52066726     0.011867440
      8953.16      0.49543966     0.011979496
      8962.11      0.47950002     0.012203424
      8971.08      0.46869461     0.012248337
      8980.05      0.47053634     0.012299737
      8989.03      0.46281643     0.012301857
      8998.02      0.45027074     0.012197442
      9007.02      0.45027660     0.012203905
      9016.02      0.44427896     0.012090288
      9025.04      0.44308604     0.012127378
      9034.07      0.44573693     0.012066285
      9043.10      0.44930066     0.012141173
      9052.14      0.46240346     0.012124033
      9061.20      0.46406341     0.012265722
      9070.26      0.47227578     0.012264317
      9079.33      0.48754444     0.012338169
      9088.41      0.48445096     0.012381433
      9097.50      0.49841480     0.012411633
      9106.60      0.52040684     0.012420073
      9115.70      0.52825325     0.012422368
      9124.82      0.53233208     0.012342490
      9133.94      0.53996263     0.012399664
      9143.08      0.55830993     0.012294127
      9152.22      0.58127621     0.012223611
      9161.37      0.59096240     0.012145756
      9170.54      0.60039444     0.012057809
      9179.71      0.60175743     0.011992428
      9188.89      0.58747740     0.011924088
      9198.08      0.59161046     0.011894520
      9207.28      0.59528518     0.011894841
      9216.48      0.60176218     0.011931941
      9225.70      0.60052584     0.011963572
      9234.92      0.59194630     0.012147716
      9244.16      0.57993237     0.012286733
      9253.40      0.56023813     0.012602202
      9262.66      0.53369722     0.013075940
      9271.92      0.53214267     0.013530834
      9281.20      0.52788036     0.014252159
      9290.48      0.49498790     0.014918365
      9299.77      0.47487626     0.015812502
      9309.07      0.46948494     0.016470449
      9318.38      0.46389139     0.017024216
      9327.69      0.46131300     0.017362068
      9337.02      0.44492983     0.017323864
      9346.36      0.42550917     0.017152958
      9355.71      0.43507518     0.016882282
      9365.07      0.43862620     0.016409921
      9374.43      0.42298134     0.016052398
      9383.80      0.42705557     0.015662698
      9393.19      0.42736966     0.015411882
      9402.58      0.43000289     0.015262434
      9411.98      0.43909657     0.015100651
      9421.40      0.43298976     0.015049394
      9430.82      0.43330936     0.014977176
      9440.25      0.43549398     0.014927110
      9449.69      0.43271280     0.014805138
      9459.14      0.41821446     0.014641092
      9468.60      0.40744029     0.014504891
      9478.07      0.40308268     0.014212528
      9487.55      0.39571515     0.013984603
      9497.04      0.38454170     0.013690840
      9506.53      0.37427343     0.013494437
      9516.04      0.37699913     0.013240920
      9525.56      0.37695556     0.013062267
      9535.08      0.37343327     0.012796764
      9544.62      0.37098657     0.012596718
      9554.16      0.36109535     0.012329706
      9563.72      0.35683743     0.012125551
      9573.29      0.35104617     0.011858388
      9582.85      0.34321672     0.011648816
      9592.44      0.34070660     0.011370746
      9602.03      0.33076100     0.011170204
      9611.63      0.32951497     0.010877167
      9621.25      0.32952733     0.010646009
      9630.87      0.31776510     0.010372013
      9640.50      0.31841285     0.010130839
      9650.14      0.32891830    0.0099513603
      9659.79      0.34607274    0.0097406473
      9669.45      0.35418814    0.0096005106
      9679.12      0.36441529    0.0094380461
      9688.80      0.37980082    0.0092891729
      9698.49      0.39208354    0.0091854120
      9708.19      0.40106129    0.0090554565
      9717.90      0.41312867    0.0089962461
      9727.62      0.42376089    0.0088862961
      9737.34      0.43607466    0.0087721504
      9747.08      0.44763686    0.0086904591
      9756.83      0.46517649    0.0085836490
      9766.59      0.47298729    0.0084783768
      9776.35      0.47281403    0.0084037443
      9786.13      0.47626164    0.0082974698
      9795.92      0.47859293    0.0081906618
      9805.71      0.47454677    0.0081298884
      9815.52      0.47086842    0.0080508616
      9825.34      0.47125418    0.0081244546
      9835.17      0.47115184    0.0082169435
      9845.00      0.46894301    0.0083353356
      9854.84      0.46389301    0.0084862986
      9864.70      0.46066928    0.0086789487
      9874.56      0.44872990    0.0089279426
      9884.44      0.43517897    0.0092181972
      9894.32      0.42840236    0.0096284932
      9904.22      0.42272835     0.010165162
      9914.13      0.41099159     0.010866413
      9924.04      0.40089232     0.011779301
      9933.96      0.39178384     0.012962975
      9943.90      0.38535419     0.014490881
      9953.84      0.38501766     0.016700608
      9963.79      0.39022747     0.019293404
      9973.76      0.39419850     0.022528975
      9983.74      0.39922589     0.026537945
