# starting wavelength =        3225.0200
# ending wavelength =        10983.000
# O2 telluric scale =        0
# O2 telluric shift =        0
# H2O telluric scale =        0
# H2O telluric shift =        0
      3226.73      0.21033559    0.0087310609
      3229.96      0.20527987    0.0071122291
      3233.19      0.19933274    0.0061124511
      3236.42      0.19390411    0.0055647202
      3239.66      0.18879128    0.0049150555
      3242.90      0.18513045    0.0044122409
      3246.14      0.18135641    0.0039035599
      3249.39      0.17754468    0.0036218554
      3252.64      0.17531681    0.0034635228
      3255.89      0.17277037    0.0032755223
      3259.14      0.17308598    0.0031238380
      3262.40      0.17090356    0.0029807236
      3265.67      0.16797123    0.0028862595
      3268.93      0.16624992    0.0028335761
      3272.20      0.16348774    0.0027609623
      3275.47      0.16102770    0.0026974359
      3278.75      0.16028409    0.0026534271
      3282.03      0.15784929    0.0026048885
      3285.31      0.15762454    0.0025805085
      3288.60      0.15710924    0.0025599136
      3291.88      0.15714934    0.0025400469
      3295.18      0.15846810    0.0025608232
      3298.47      0.16081573    0.0025614743
      3301.77      0.16128458    0.0025823395
      3305.07      0.16128613    0.0025622988
      3308.38      0.16176731    0.0025629779
      3311.69      0.16279505    0.0025838984
      3315.00      0.16324176    0.0025637485
      3318.31      0.16543145    0.0025842827
      3321.63      0.16639412    0.0025854213
      3324.95      0.16783567    0.0025652169
      3328.28      0.16764764    0.0025857531
      3331.61      0.17190213    0.0025868970
      3334.94      0.17417084    0.0025883875
      3338.27      0.17790879    0.0025871905
      3341.61      0.18006440    0.0025882722
      3344.95      0.18503609    0.0026098874
      3348.30      0.18958588    0.0025885962
      3351.65      0.19360706    0.0025896686
      3355.00      0.19720094    0.0026112921
      3358.35      0.20123590    0.0026119651
      3361.71      0.20798403    0.0025909469
      3365.07      0.21280293    0.0026127275
      3368.44      0.21761984    0.0026133003
      3371.81      0.22298811    0.0025922549
      3375.18      0.22902180    0.0026141271
      3378.56      0.23454456    0.0026146448
      3381.94      0.23917341    0.0026154974
      3385.32      0.24192832    0.0026155712
      3388.70      0.24455716    0.0026159391
      3392.09      0.24772250    0.0026375544
      3395.48      0.25043380    0.0026386659
      3398.88      0.25384729    0.0026172685
      3402.28      0.25711524    0.0026387871
      3405.68      0.26153325    0.0026397588
      3409.09      0.26288234    0.0026410806
      3412.49      0.26489391    0.0026400161
      3415.91      0.26666406    0.0026408222
      3419.32      0.26581379    0.0026419693
      3422.74      0.26488209    0.0026644276
      3426.17      0.26513928    0.0026419321
      3429.59      0.26527454    0.0026429139
      3433.02      0.26461114    0.0026657943
      3436.45      0.26420232    0.0026662636
      3439.89      0.26487108    0.0026438530
      3443.33      0.26434712    0.0026672291
      3446.78      0.26487246    0.0026675017
      3450.22      0.26563355    0.0026680918
      3453.67      0.26494296    0.0026910141
      3457.13      0.26512362    0.0026688158
      3460.58      0.26508151    0.0026691874
      3464.04      0.26513572    0.0026698638
      3467.51      0.26465595    0.0026928458
      3470.98      0.26493641    0.0026704556
      3474.45      0.26508635    0.0026708542
      3477.92      0.26629692    0.0026936443
      3481.40      0.26600630    0.0026946159
      3484.88      0.26739333    0.0026959237
      3488.37      0.26742364    0.0026945429
      3491.86      0.26773659    0.0026953008
      3495.35      0.26795947    0.0026963153
      3498.84      0.26798574    0.0027202211
      3502.34      0.26795563    0.0027206844
      3505.84      0.26991966    0.0026969052
      3509.35      0.27142673    0.0026978713
      3512.86      0.27380097    0.0027218127
      3516.37      0.27596960    0.0027222589
      3519.89      0.27808225    0.0027229289
      3523.41      0.27927067    0.0027233253
      3526.93      0.28101830    0.0027234298
      3530.46      0.28272711    0.0027238068
      3533.99      0.28454890    0.0027243800
      3537.53      0.28606172    0.0027484962
      3541.06      0.28758471    0.0027495954
      3544.60      0.28826915    0.0027252785
      3548.15      0.28902471    0.0027490535
      3551.70      0.29127224    0.0027498124
      3555.25      0.29223309    0.0027507370
      3558.80      0.29339230    0.0027519622
      3562.36      0.29410927    0.0027763481
      3565.92      0.29468756    0.0027510612
      3569.49      0.29370532    0.0027518468
      3573.06      0.29402835    0.0027528645
      3576.64      0.29397238    0.0027778311
      3580.21      0.29402398    0.0027782471
      3583.79      0.29277935    0.0027789145
      3587.38      0.29406630    0.0027793411
      3590.96      0.29484273    0.0027793711
      3594.55      0.29472642    0.0027795832
      3598.15      0.29526223    0.0027800536
      3601.75      0.29800261    0.0028052804
      3605.35      0.30059548    0.0028061371
      3608.96      0.30408299    0.0028071689
      3612.56      0.30742753    0.0027813706
      3616.18      0.31049450    0.0028063531
      3619.79      0.31451760    0.0028069404
      3623.41      0.31990691    0.0028077300
      3627.04      0.32424674    0.0028086570
      3630.66      0.32739511    0.0028351664
      3634.29      0.33152272    0.0028355205
      3637.93      0.33518790    0.0028359838
      3641.57      0.33762375    0.0028091548
      3645.21      0.34018913    0.0028099609
      3648.86      0.34179758    0.0028368993
      3652.50      0.34418191    0.0028371343
      3656.16      0.34648206    0.0028375026
      3659.81      0.34675183    0.0028380512
      3663.47      0.34568073    0.0028647451
      3667.14      0.34285728    0.0028655977
      3670.80      0.33888829    0.0028665764
      3674.48      0.33448034    0.0028390284
      3678.15      0.32947821    0.0028654547
      3681.83      0.32309213    0.0028659299
      3685.51      0.31589670    0.0028666085
      3689.20      0.30733256    0.0028673006
      3692.88      0.29819323    0.0028682004
      3696.58      0.28892222    0.0028961343
      3700.27      0.27990415    0.0028964025
      3703.98      0.27022948    0.0028968290
      3707.68      0.25956053    0.0028973446
      3711.39      0.24997017    0.0028980253
      3715.10      0.24259156    0.0028980772
      3718.81      0.23511649    0.0028981077
      3722.53      0.22910846    0.0028982191
      3726.26      0.22339322    0.0028984698
      3729.98      0.21716662    0.0028988585
      3733.71      0.21248387    0.0029269915
      3737.45      0.20915827    0.0029275778
      3741.18      0.20794273    0.0029282281
      3744.93      0.20815988    0.0029289477
      3748.67      0.20915169    0.0029297947
      3752.42      0.21067923    0.0029591509
      3756.17      0.21207229    0.0029593847
      3759.93      0.21344479    0.0029598058
      3763.69      0.21608444    0.0029602290
      3767.45      0.22018743    0.0029607438
      3771.22      0.22510846    0.0029907554
      3774.99      0.23020815    0.0029914160
      3778.77      0.23600454    0.0029612817
      3782.54      0.24311051    0.0029613447
      3786.33      0.25112975    0.0029615851
      3790.11      0.26007409    0.0029618061
      3793.90      0.26933841    0.0029915118
      3797.70      0.27903119    0.0029918838
      3801.50      0.29031896    0.0029922990
      3805.30      0.30123000    0.0029928279
      3809.10      0.31466799    0.0029933756
      3812.91      0.32963973    0.0029940321
      3816.73      0.34554034    0.0030263178
      3820.54      0.36323073    0.0030264096
      3824.36      0.38244891    0.0030265796
      3828.19      0.40419030    0.0030267638
      3832.02      0.42803791    0.0030269839
      3835.85      0.45194082    0.0030273002
      3839.68      0.47647056    0.0030276251
      3843.52      0.49985068    0.0030592957
      3847.37      0.52422494    0.0030597208
      3851.22      0.54800618    0.0030601567
      3855.07      0.57054060    0.0030606431
      3858.92      0.59247135    0.0030611428
      3862.78      0.61389469    0.0030616431
      3866.64      0.63431509    0.0030622895
      3870.51      0.65478327    0.0030961145
      3874.38      0.67461948    0.0030962759
      3878.26      0.69233989    0.0030964257
      3882.13      0.71003790    0.0030965516
      3886.02      0.72578937    0.0030967653
      3889.90      0.74051347    0.0030969712
      3893.79      0.75487137    0.0030972660
      3897.69      0.76979262    0.0031308800
      3901.59      0.78536906    0.0031311394
      3905.49      0.80202200    0.0031314748
      3909.39      0.81929957    0.0031317681
      3913.30      0.83632962    0.0031320352
      3917.22      0.85491785    0.0031323908
      3921.13      0.87469082    0.0031327074
      3925.06      0.89404014    0.0031330587
      3928.98      0.91371570    0.0031713651
      3932.91      0.93107450    0.0032075403
      3936.84      0.94870676    0.0032078346
      3940.78      0.96641444    0.0032082514
      3944.72      0.98537704    0.0032084994
      3948.67       1.0049447    0.0032088756
      3952.61       1.0244619    0.0032091941
      3956.57       1.0459028    0.0032094469
      3960.52       1.0665260    0.0032098186
      3964.48       1.0845432    0.0032101287
      3968.45       1.0991302    0.0032491330
      3972.42       1.1113262    0.0032491554
      3976.39       1.1204598    0.0032492593
      3980.37       1.1269507    0.0032494110
      3984.35       1.1300143    0.0032495218
      3988.33       1.1292539    0.0032496956
      3992.32       1.1269668    0.0032912504
      3996.31       1.1196688    0.0032913656
      4000.31       1.1071961    0.0032914338
      4004.31       1.0920702    0.0032915541
      4008.31       1.0754007    0.0032916934
      4012.32       1.0562837    0.0032917789
      4016.33       1.0375363    0.0032919177
      4020.35       1.0161207    0.0032919601
      4024.37      0.99506150    0.0032919412
      4028.40      0.97434224    0.0032919590
      4032.42      0.95368437    0.0032919085
      4036.46      0.93533726    0.0032918898
      4040.50      0.91551862    0.0032918994
      4044.54      0.89627653    0.0032918575
      4048.58      0.87815808    0.0032918658
      4052.63      0.86113950    0.0032917388
      4056.68      0.84689597    0.0032916623
      4060.74      0.83234308    0.0032916123
      4064.80      0.81924422    0.0032914956
      4068.86      0.80385973    0.0032914692
      4072.93      0.78572490    0.0032529902
      4077.01      0.76944536    0.0032529338
      4081.08      0.75429901    0.0032528484
      4085.17      0.73947933    0.0032528023
      4089.25      0.72384949    0.0032528286
      4093.34      0.70947681    0.0032527974
      4097.43      0.69483671    0.0032528364
      4101.53      0.68068747    0.0032528762
      4105.63      0.66873276    0.0032529107
      4109.74      0.65686883    0.0032530272
      4113.85      0.64713548    0.0032531090
      4117.96      0.63771714    0.0032532786
      4122.08      0.63000960    0.0032535287
      4126.20      0.62428779    0.0032537730
      4130.33      0.62111566    0.0032146259
      4134.46      0.61926507    0.0032142683
      4138.59      0.61697747    0.0032138915
      4142.73      0.61289043    0.0032136843
      4146.88      0.60976559    0.0032134535
      4151.02      0.60714882    0.0032132403
      4155.18      0.60655011    0.0032131697
      4159.33      0.60771557    0.0032539154
      4163.49      0.60931019    0.0032538884
      4167.65      0.61159926    0.0032539799
      4171.82      0.61456285    0.0032169032
      4175.99      0.61718274    0.0032161769
      4180.17      0.62007553    0.0032156082
      4184.35      0.62379716    0.0032149755
      4188.54      0.62736252    0.0032145552
      4192.72      0.63046801    0.0032141539
      4196.92      0.63472950    0.0032137961
      4201.11      0.63799883    0.0032136643
      4205.31      0.64138780    0.0032135601
      4209.52      0.64479798    0.0031776585
      4213.73      0.64768424    0.0032173655
      4217.94      0.64877637    0.0032164762
      4222.16      0.64973115    0.0032156391
      4226.38      0.65227716    0.0032150560
      4230.61      0.65372031    0.0032145408
      4234.84      0.65677198    0.0032141331
      4239.08      0.66031729    0.0031779511
      4243.32      0.66321567    0.0031777980
      4247.56      0.66588675    0.0031778034
      4251.81      0.66854243    0.0031779887
      4256.06      0.67135152    0.0032160673
      4260.32      0.67560301    0.0032152697
      4264.58      0.67841277    0.0032146060
      4268.84      0.68198871    0.0031782080
      4273.11      0.68259655    0.0031779290
      4277.38      0.68487970    0.0031778544
      4281.66      0.68604212    0.0031779165
      4285.94      0.68644942    0.0031782028
      4290.23      0.68627610    0.0031786590
      4294.52      0.68459453    0.0031786284
      4298.81      0.68243643    0.0031781239
      4303.11      0.68027485    0.0031778604
      4307.42      0.67666499    0.0031777604
      4311.72      0.67240666    0.0031779226
      4316.04      0.66729415    0.0031782912
      4320.35      0.66182183    0.0031407591
      4324.67      0.65709653    0.0031781333
      4329.00      0.65237138    0.0031777724
      4333.33      0.64827017    0.0031776083
      4337.66      0.64423328    0.0031777417
      4342.00      0.64043097    0.0031413422
      4346.34      0.63490455    0.0031405137
      4350.69      0.62964880    0.0031398541
      4355.04      0.62383825    0.0031775116
      4359.39      0.61973004    0.0031774051
      4363.75      0.61571454    0.0031418073
      4368.12      0.61245515    0.0031407285
      4372.48      0.61086574    0.0031399187
      4376.86      0.61075384    0.0031393703
      4381.23      0.61160214    0.0031771671
      4385.61      0.61280047    0.0031419429
      4390.00      0.61646080    0.0031406472
      4394.39      0.62122536    0.0031397441
      4398.79      0.62737147    0.0031391563
      4403.18      0.63748232    0.0031053713
      4407.59      0.64992149    0.0031416198
      4412.00      0.66472403    0.0031402871
      4416.41      0.68182172    0.0031393127
      4420.82      0.70056645    0.0031387737
      4425.25      0.72265833    0.0031050561
      4429.67      0.74552614    0.0031409117
      4434.10      0.76996598    0.0031396014
      4438.54      0.79551454    0.0031387297
      4442.97      0.82218155    0.0031047510
      4447.42      0.85060555    0.0031047245
      4451.86      0.88050188    0.0031398234
      4456.32      0.91047280    0.0031387369
      4460.77      0.93985557    0.0031045465
      4465.24      0.96916755    0.0031043258
      4469.70      0.99891118    0.0031046159
      4474.17       1.0296114    0.0031385998
      4478.65       1.0604225    0.0031042227
      4483.12       1.0923057    0.0031039998
      4487.61       1.1246827    0.0031042119
      4492.09       1.1569112    0.0031046902
      4496.59       1.1904938    0.0031038773
      4501.08       1.2247122    0.0031036213
      4505.58       1.2600158    0.0031037813
      4510.09       1.2983345    0.0030688416
      4514.60       1.3374883    0.0031034949
      4519.12       1.3764572    0.0031032322
      4523.63       1.4163849    0.0031034825
      4528.16       1.4580731    0.0030682805
      4532.69       1.4990302    0.0031029572
      4537.22       1.5382970    0.0031027491
      4541.76       1.5777914    0.0030686673
      4546.30       1.6149557    0.0030675700
      4550.85       1.6512601    0.0031023922
      4555.40       1.6856096    0.0030692478
      4559.95       1.7161897    0.0030677456
      4564.51       1.7436242    0.0030668262
      4569.08       1.7681769    0.0031019123
      4573.65       1.7866389    0.0030680363
      4578.22       1.8012695    0.0030668005
      4582.80       1.8108252    0.0030662174
      4587.38       1.8152021    0.0030683234
      4591.97       1.8173670    0.0030667875
      4596.56       1.8165153    0.0030659094
      4601.16       1.8094052    0.0030685108
      4605.76       1.7988883    0.0030667296
      4610.37       1.7856470    0.0030656579
      4614.98       1.7687353    0.0030338872
      4619.59       1.7497630    0.0030666838
      4624.21       1.7303526    0.0030654106
      4628.84       1.7088022    0.0030333982
      4633.47       1.6844534    0.0030664821
      4638.10       1.6581523    0.0030651101
      4642.74       1.6300997    0.0030330231
      4647.38       1.6016917    0.0030662833
      4652.03       1.5727304    0.0030647257
      4656.68       1.5430700    0.0030325738
      4661.34       1.5136716    0.0030326877
      4666.00       1.4837857    0.0030643058
      4670.67       1.4525124    0.0030321518
      4675.33       1.4211985    0.0030323007
      4680.01       1.3905661    0.0030323018
      4684.69       1.3596299    0.0030316503
      4689.38       1.3276198    0.0030319035
      4694.07       1.2956154    0.0030317817
      4698.76       1.2655092    0.0030312469
      4703.46       1.2370223    0.0030315630
      4708.16       1.2103991    0.0030311553
      4712.87       1.1837678    0.0030307366
      4717.58       1.1575803    0.0029986464
      4722.30       1.1320703    0.0030305579
      4727.03       1.1090053    0.0030303649
      4731.75       1.0883973    0.0029978162
      4736.48       1.0700675    0.0030299352
      4741.22       1.0548574    0.0029985077
      4745.96       1.0426222    0.0029969772
      4750.71       1.0333807    0.0030294227
      4755.46       1.0276222    0.0029974265
      4760.22       1.0229037    0.0029961539
      4764.97       1.0220760    0.0029982081
      4769.74       1.0232639    0.0029963821
      4774.51       1.0263008    0.0030285413
      4779.29       1.0303289    0.0029968338
      4784.07       1.0356414    0.0029954468
      4788.85       1.0423777    0.0029976492
      4793.64       1.0498222    0.0029955957
      4798.43       1.0576486    0.0029947075
      4803.23       1.0645819    0.0029960660
      4808.03       1.0705926    0.0029945608
      4812.84       1.0742655    0.0029966434
      4817.66       1.0770044    0.0029945819
      4822.48       1.0776031    0.0029642542
      4827.30       1.0780886    0.0029949329
      4832.12       1.0790402    0.0029935157
      4836.96       1.0796166    0.0029638990
      4841.79       1.0821634    0.0029934604
      4846.63       1.0884118    0.0029633523
      4851.48       1.0961445    0.0029935260
      4856.33       1.1103201    0.0029630148
      4861.19       1.1274317    0.0029937510
      4866.05       1.1527222    0.0029627432
      4870.92       1.1811288    0.0029625409
      4875.79       1.2174010    0.0029625498
      4880.66       1.2526994    0.0029621224
      4885.55       1.2970189    0.0029625461
      4890.43       1.3368875    0.0029616275
      4895.32       1.3743592    0.0029621385
      4900.22       1.4137910    0.0029613070
      4905.12       1.4429061    0.0029615286
      4910.02       1.4693600    0.0029610324
      4914.94       1.4839964    0.0029609737
      4919.85       1.4922547    0.0029607603
      4924.77       1.4906734    0.0029604446
      4929.70       1.4800262    0.0029295255
      4934.62       1.4635011    0.0029599870
      4939.56       1.4392774    0.0029293021
      4944.50       1.4093848    0.0029595674
      4949.44       1.3753215    0.0029289998
      4954.39       1.3387844    0.0029590885
      4959.35       1.3013734    0.0029287724
      4964.31       1.2634246    0.0029587622
      4969.27       1.2274037    0.0029284773
      4974.24       1.1915203    0.0029583173
      4979.22       1.1612382    0.0029281380
      4984.20       1.1351909    0.0029270896
      4989.18       1.1110526    0.0029278198
      4994.17       1.0914479    0.0029267078
      4999.16       1.0753188    0.0029273948
      5004.16       1.0641419    0.0028984980
      5009.17       1.0548759    0.0029269670
      5014.18       1.0511438    0.0028981275
      5019.19       1.0501925    0.0029265579
      5024.21       1.0538455    0.0028977291
      5029.23       1.0600058    0.0029260199
      5034.26       1.0685712    0.0028973214
      5039.30       1.0787492    0.0029254983
      5044.34       1.0893803    0.0028970108
      5049.39       1.1006263    0.0029249935
      5054.43       1.1110982    0.0028965724
      5059.49       1.1229416    0.0029243988
      5064.55       1.1329289    0.0028962722
      5069.61       1.1418813    0.0028962087
      5074.68       1.1506963    0.0028959766
      5079.76       1.1581187    0.0028956377
      5084.84       1.1644547    0.0028957268
      5089.92       1.1687311    0.0028951949
      5095.01       1.1729664    0.0028955865
      5100.11       1.1770618    0.0028947774
      5105.21       1.1803555    0.0028660981
      5110.31       1.1844561    0.0028944089
      5115.42       1.1899357    0.0028944960
      5120.54       1.1968105    0.0028941542
      5125.66       1.2031771    0.0028939142
      5130.79       1.2117042    0.0028657127
      5135.92       1.2220711    0.0028933931
      5141.05       1.2339239    0.0028648646
      5146.20       1.2472568    0.0028930242
      5151.34       1.2629345    0.0028641462
      5156.49       1.2819188    0.0028652694
      5161.65       1.3031495    0.0028634961
      5166.81       1.3279625    0.0028642037
      5171.98       1.3544622    0.0028920076
      5177.15       1.3841337    0.0028633185
      5182.33       1.4154475    0.0028645715
      5187.51       1.4464449    0.0028625740
      5192.70       1.4805573    0.0028633582
      5197.89       1.5138608    0.0028620307
      5203.09       1.5493925    0.0028623984
      5208.29       1.5851961    0.0028636147
      5213.50       1.6187893    0.0028616167
      5218.72       1.6513244    0.0028623287
      5223.93       1.6810662    0.0028349811
      5229.16       1.7089483    0.0028613594
      5234.39       1.7358824    0.0028623848
      5239.62       1.7605901    0.0028344719
      5244.86       1.7840282    0.0028610961
      5250.11       1.8072089    0.0028340820
      5255.36       1.8292939    0.0028340497
      5260.61       1.8513717    0.0028609436
      5265.87       1.8736421    0.0028335219
      5271.14       1.8962315    0.0028336578
      5276.41       1.9171969    0.0028333730
      5281.69       1.9365588    0.0028329948
      5286.97       1.9567907    0.0028332882
      5292.26       1.9740895    0.0028327624
      5297.55       1.9906505    0.0028324803
      5302.85       2.0045743    0.0028591530
      5308.15       2.0166975    0.0029615478
      5313.46       2.0273123    0.0029234487
      5318.77       2.0296575    0.0028096162
      5324.09       2.0289917    0.0028446971
      5329.42       2.0244799    0.0029024610
      5334.75       2.0185344    0.0029582602
      5340.08       2.0091222    0.0030593604
      5345.42       1.9976015    0.0031872019
      5350.77       1.9857776    0.0034093710
      5356.12       1.9712291    0.0036235777
      5361.48       1.9591851    0.0038758235
      5366.83       1.9493239    0.0040189993
      5372.20       1.9410952    0.0043159546
      5377.58       1.9336262    0.0036527511
      5382.95       1.9314649    0.0033633683
      5388.34       1.9309233    0.0033406988
      5393.72       1.9315363    0.0033365763
      5399.12       1.9347684    0.0033206971
      5404.52       1.9427594    0.0034065957
      5409.92       1.9491950    0.0022897734
      5415.33       1.9526469    0.0022516357
      5420.75       1.9561026    0.0022568303
      5426.17       1.9595598    0.0023053354
      5431.60       1.9628358    0.0034724969
      5437.03       1.9663665    0.0034823373
      5442.47       1.9710618    0.0034234237
      5447.91       1.9740148    0.0034300430
      5453.36       1.9773220    0.0034370413
      5458.81       1.9823990    0.0034444333
      5464.27       1.9849798    0.0034523110
      5469.73       1.9885819    0.0034607542
      5475.20       1.9918259    0.0034697951
      5480.68       1.9942196    0.0034795145
      5486.16       1.9961854    0.0034899542
      5491.65       1.9968335    0.0035011488
      5497.14       1.9967219    0.0035429547
      5502.64       1.9961480    0.0035518680
      5508.14       1.9947204    0.0035614824
      5513.65       1.9940634    0.0035717733
      5519.16       1.9924496    0.0035826855
      5524.68       1.9895283    0.0035942170
      5530.20       1.9863772    0.0037011717
      5535.73       1.9826999    0.0037973106
      5541.27       1.9791124    0.0035825173
      5546.81       1.9755193    0.0036318164
      5552.36       1.9715716    0.0038217090
      5557.91       1.9702524    0.0038898713
      5563.47       1.9672642    0.0056015656
      5569.04       1.9628796    0.0051496227
      5574.60       1.9589932    0.0047232027
      5580.18       1.9548892    0.0043239073
      5585.76       1.9475370    0.0039595403
      5591.35       1.9356484    0.0035626713
      5596.94       1.9191988    0.0033163069
      5602.53       1.9006611    0.0031177398
      5608.14       1.8799056    0.0030988042
      5613.75       1.8549598    0.0029624285
      5619.36       1.8286086    0.0028745369
      5624.98       1.7990490    0.0028277708
      5630.60       1.7648146    0.0028383742
      5636.23       1.7272587    0.0028987229
      5641.87       1.6894300    0.0028045697
      5647.51       1.6504232    0.0027232282
      5653.16       1.6080796    0.0027231169
      5658.82       1.5651360    0.0027231709
      5664.47       1.5251825    0.0027467294
      5670.14       1.4847518    0.0027470330
      5675.81       1.4498960    0.0027230947
      5681.48       1.4178855    0.0027228881
      5687.17       1.3910814    0.0027228327
      5692.85       1.3686255    0.0027228584
      5698.55       1.3514020    0.0027229912
      5704.25       1.3439511    0.0026988111
      5709.95       1.3432864    0.0027230311
      5715.66       1.3513981    0.0027227768
      5721.38       1.3676310    0.0027226300
      5727.10       1.3924316    0.0027225801
      5732.83       1.4216247    0.0027226251
      5738.56       1.4556466    0.0026983400
      5744.30       1.4956148    0.0026985056
      5750.04       1.5385467    0.0026987452
      5755.79       1.5850048    0.0026990595
      5761.55       1.6328629    0.0026994126
      5767.31       1.6794905    0.0027225310
      5773.08       1.7274606    0.0027225030
      5778.85       1.7734596    0.0026981560
      5784.63       1.8179518    0.0026982589
      5790.41       1.8605246    0.0026983962
      5796.21       1.8983233    0.0026985573
      5802.00       1.9301114    0.0026987818
      5807.81       1.9565744    0.0026991177
      5813.61       1.9790661    0.0026996198
      5819.43       1.9993165    0.0027757109
      5825.25       2.0150253    0.0028513609
      5831.07       2.0263749    0.0029618341
      5836.90       2.0323725    0.0031546890
      5842.74       2.0324682    0.0033653204
      5848.58       2.0312002    0.0038232281
      5854.43       2.0266632    0.0043485728
      5860.29       2.0276954    0.0034034913
      5866.15       2.0260382    0.0037832936
      5872.01       2.0218254    0.0040519399
      5877.89       2.0188636    0.0043803431
      5883.76       2.0183200    0.0045608058
      5889.65       2.0225395    0.0048159538
      5895.54       2.0282926    0.0049157050
      5901.43       2.0368653    0.0047202413
      5907.34       2.0388036    0.0044216842
      5913.24       2.0335330    0.0041068092
      5919.16       2.0235709    0.0038337956
      5925.08       2.0134698    0.0036423149
      5931.00       2.0024870    0.0047349050
      5936.93       1.9877721    0.0038714352
      5942.87       1.9728760    0.0035019397
      5948.81       1.9559713    0.0031745076
      5954.76       1.9383054    0.0030110327
      5960.72       1.9209513    0.0028638774
      5966.68       1.9030362    0.0027691265
      5972.64       1.8866051    0.0026880140
      5978.62       1.8691553    0.0026632220
      5984.60       1.8525751    0.0026619757
      5990.58       1.8372065    0.0026611668
      5996.57       1.8212638    0.0026600665
      6002.57       1.8072189    0.0026587903
      6008.57       1.7948452    0.0026367361
      6014.58       1.7818675    0.0026363178
      6020.60       1.7696654    0.0026360564
      6026.62       1.7567289    0.0026358593
      6032.65       1.7432610    0.0026358131
      6038.68       1.7309315    0.0026359231
      6044.72       1.7182009    0.0026360269
      6050.76       1.7064125    0.0026361027
      6056.81       1.6944731    0.0026362317
      6062.87       1.6838703    0.0026364257
      6068.93       1.6736505    0.0026366401
      6075.00       1.6658125    0.0026368771
      6081.08       1.6590807    0.0026371135
      6087.16       1.6559489    0.0026373860
      6093.25       1.6555132    0.0026376943
      6099.34       1.6567484    0.0026379942
      6105.44       1.6613395    0.0026164970
      6111.54       1.6648145    0.0026166274
      6117.66       1.6693742    0.0026167876
      6123.78       1.6716005    0.0026169382
      6129.90       1.6711215    0.0026171108
      6136.03       1.6703059    0.0026393990
      6142.17       1.6636638    0.0026396166
      6148.31       1.6524520    0.0026398398
      6154.46       1.6372793    0.0026400963
      6160.61       1.6180837    0.0026403582
      6166.77       1.5945402    0.0026199537
      6172.94       1.5683013    0.0026199759
      6179.11       1.5422287    0.0026200369
      6185.29       1.5158552    0.0026201070
      6191.48       1.4909497    0.0026202788
      6197.67       1.4679958    0.0026207336
      6203.87       1.4485166    0.0026219563
      6210.07       1.4328506    0.0026234671
      6216.28       1.4208289    0.0026035982
      6222.50       1.4129395    0.0026042116
      6228.72       1.4079128    0.0026063150
      6234.95       1.4052789    0.0026315282
      6241.19       1.4026848    0.0026362732
      6247.42       1.4021234    0.0026421231
      6253.67       1.4039618    0.0026485482
      6259.93       1.4045337    0.0026349220
      6266.19       1.4061691    0.0026403325
      6272.46       1.4074510    0.0026445678
      6278.73       1.4106963    0.0026471948
      6285.01       1.4139908    0.0026479557
      6291.29       1.4170897    0.0026245783
      6297.58       1.4245545    0.0026424071
      6303.88       1.4354757    0.0026378488
      6310.19       1.4471924    0.0026331495
      6316.50       1.4601670    0.0026292968
      6322.81       1.4752571    0.0026270932
      6329.14       1.4928210    0.0026044188
      6335.47       1.5121122    0.0026018035
      6341.80       1.5339186    0.0026201425
      6348.14       1.5563228    0.0026187702
      6354.49       1.5792136    0.0026176421
      6360.85       1.6014661    0.0025961864
      6367.21       1.6234971    0.0025950708
      6373.57       1.6452785    0.0025942609
      6379.95       1.6655479    0.0025937673
      6386.33       1.6859284    0.0025950453
      6392.72       1.7034405    0.0025946434
      6399.11       1.7225407    0.0025945962
      6405.51       1.7383198    0.0025948077
      6411.92       1.7508585    0.0025759571
      6418.32       1.7597783    0.0025766777
      6424.74       1.7654833    0.0025981752
      6431.17       1.7664036    0.0025995167
      6437.60       1.7649045    0.0025827643
      6444.04       1.7633422    0.0025855259
      6450.48       1.7609983    0.0025879756
      6456.94       1.7580310    0.0026105512
      6463.39       1.7553648    0.0025928504
      6469.85       1.7545766    0.0025945020
      6476.33       1.7544047    0.0025958905
      6482.80       1.7535496    0.0025968681
      6489.28       1.7555970    0.0025969856
      6495.77       1.7607721    0.0025965135
      6502.27       1.7660087    0.0025961008
      6508.77       1.7735536    0.0025758477
      6515.28       1.7847730    0.0025958974
      6521.80       1.7974942    0.0025960439
      6528.32       1.8081795    0.0025964722
      6534.85       1.8177078    0.0025766553
      6541.38       1.8266038    0.0025761035
      6547.92       1.8326195    0.0025958081
      6554.47       1.8375723    0.0025756438
      6561.03       1.8412676    0.0025749915
      6567.59       1.8428217    0.0025747372
      6574.16       1.8425957    0.0025751884
      6580.73       1.8390775    0.0025739070
      6587.31       1.8331219    0.0025733073
      6593.90       1.8254254    0.0025749039
      6600.50       1.8168072    0.0025745782
      6607.10       1.8058869    0.0025745716
      6613.70       1.7931116    0.0025563406
      6620.32       1.7790284    0.0025767198
      6626.94       1.7641937    0.0025768537
      6633.57       1.7514141    0.0025586188
      6640.20       1.7392211    0.0025593686
      6646.84       1.7258319    0.0025791895
      6653.49       1.7118749    0.0025610792
      6660.14       1.6998325    0.0025618936
      6666.80       1.6872853    0.0025818216
      6673.47       1.6726554    0.0025636954
      6680.14       1.6603447    0.0025645704
      6686.82       1.6494118    0.0025658201
      6693.51       1.6383857    0.0025663646
      6700.20       1.6278456    0.0025672966
      6706.90       1.6184022    0.0025685216
      6713.61       1.6111117    0.0025691362
      6720.32       1.6048611    0.0025512174
      6727.05       1.5986842    0.0025712505
      6733.77       1.5905568    0.0025720354
      6740.51       1.5811668    0.0025539059
      6747.25       1.5718129    0.0025740859
      6754.00       1.5626097    0.0025564447
      6760.75       1.5520396    0.0025566863
      6767.51       1.5396310    0.0025770499
      6774.28       1.5268247    0.0025591840
      6781.05       1.5137338    0.0025605480
      6787.84       1.4976520    0.0025699104
      6794.62       1.4832300    0.0025780081
      6801.42       1.4691077    0.0025621616
      6808.22       1.4534059    0.0025793114
      6815.03       1.4399809    0.0025864935
      6821.85       1.4264077    0.0026102166
      6828.67       1.4145902    0.0026343930
      6835.50       1.4047064    0.0026512699
      6842.33       1.3973316    0.0027144643
      6849.17       1.3902404    0.0027367309
      6856.02       1.3845861    0.0027724233
      6862.88       1.3798074    0.0028111981
      6869.74       1.3756104    0.0028298776
      6876.61       1.3733668    0.0028379282
      6883.49       1.3738314    0.0028305501
      6890.37       1.3753518    0.0027864408
      6897.27       1.3764076    0.0027795467
      6904.16       1.3780333    0.0027512874
      6911.07       1.3808233    0.0027164302
      6917.98       1.3826701    0.0026989097
      6924.89       1.3881817    0.0026841080
      6931.82       1.3903851    0.0026682523
      6938.75       1.3912220    0.0026316096
      6945.69       1.3937420    0.0026400031
      6952.64       1.3933681    0.0026138343
      6959.59       1.3908079    0.0026070226
      6966.55       1.3881944    0.0026019374
      6973.52       1.3857815    0.0025995764
      6980.49       1.3819636    0.0025979247
      6987.47       1.3770120    0.0025992452
      6994.46       1.3723363    0.0025992114
      7001.46       1.3660265    0.0026006996
      7008.46       1.3607328    0.0025995696
      7015.46       1.3545641    0.0025989704
      7022.48       1.3482072    0.0025962623
      7029.51       1.3435709    0.0025765176
      7036.53       1.3390495    0.0025930385
      7043.57       1.3375377    0.0025744220
      7050.62       1.3366175    0.0025734632
      7057.66       1.3358287    0.0025727253
      7064.72       1.3367283    0.0025721426
      7071.79       1.3370135    0.0025722576
      7078.86       1.3383529    0.0025728717
      7085.94       1.3381927    0.0025750150
      7093.03       1.3392865    0.0025789826
      7100.12       1.3416656    0.0025646633
      7107.22       1.3450526    0.0025877561
      7114.33       1.3485874    0.0025945123
      7121.44       1.3531246    0.0026019654
      7128.56       1.3575180    0.0026169677
      7135.69       1.3612759    0.0026199263
      7142.83       1.3652404    0.0026631820
      7149.97       1.3686173    0.0026773056
      7157.12       1.3738453    0.0027263035
      7164.28       1.3824267    0.0027325219
      7171.44       1.3903723    0.0027540273
      7178.62       1.3951675    0.0027637699
      7185.80       1.3982102    0.0027720031
      7192.98       1.4013906    0.0027746096
      7200.17       1.4046221    0.0027708080
      7207.38       1.4054586    0.0027655671
      7214.58       1.4058288    0.0027612605
      7221.80       1.4035781    0.0027610077
      7229.02       1.4011248    0.0027454178
      7236.25       1.3994443    0.0027695189
      7243.49       1.3945703    0.0027748679
      7250.73       1.3905311    0.0027559836
      7257.98       1.3868643    0.0027732067
      7265.24       1.3827104    0.0027472479
      7272.51       1.3783468    0.0027358109
      7279.78       1.3753521    0.0027448688
      7287.06       1.3777591    0.0027177159
      7294.35       1.3815438    0.0027066861
      7301.64       1.3850564    0.0026759933
      7308.94       1.3897088    0.0026818839
      7316.25       1.3952869    0.0026681941
      7323.57       1.4030096    0.0026397828
      7330.89       1.4143357    0.0026494510
      7338.22       1.4290908    0.0026411526
      7345.56       1.4390827    0.0026178852
      7352.91       1.4483038    0.0026320772
      7360.26       1.4568408    0.0026114812
      7367.62       1.4647498    0.0026095043
      7374.99       1.4685062    0.0026073678
      7382.37       1.4689122    0.0026043849
      7389.75       1.4702891    0.0026023582
      7397.14       1.4697292    0.0026013514
      7404.53       1.4632398    0.0025832879
      7411.94       1.4530848    0.0026002909
      7419.35       1.4399686    0.0026011444
      7426.77       1.4258692    0.0025844568
      7434.20       1.4048341    0.0025854005
      7441.63       1.3789116    0.0026038027
      7449.07       1.3488074    0.0025882720
      7456.52       1.3159755    0.0025900712
      7463.98       1.2797889    0.0025921604
      7471.45       1.2416261    0.0026113993
      7478.92       1.1994164    0.0025962258
      7486.40       1.1515784    0.0025986406
      7493.88       1.1050360    0.0026016948
      7501.38       1.0610275    0.0025917348
      7508.88       1.0172666    0.0026269966
      7516.39      0.97863986    0.0026631905
      7523.91      0.95314317    0.0026888730
      7531.43      0.93518758    0.0026572789
      7538.96      0.92019203    0.0026718664
      7546.50      0.91148734    0.0027348240
      7554.05      0.91239566    0.0028278709
      7561.60      0.92109803    0.0029368499
      7569.16      0.93787224    0.0031114090
      7576.73      0.95921987    0.0033179897
      7584.31      0.98621482    0.0035343419
      7591.89       1.0181495    0.0037083909
      7599.49       1.0570235    0.0038997160
      7607.09       1.0974216    0.0040169352
      7614.70       1.1338590    0.0040281221
      7622.31       1.1681848    0.0039135541
      7629.93       1.1989152    0.0037554158
      7637.56       1.2264811    0.0035982567
      7645.20       1.2485185    0.0033849595
      7652.85       1.2635291    0.0031971232
      7660.50       1.2762665    0.0030560596
      7668.16       1.2901823    0.0029405098
      7675.83       1.3001010    0.0028439275
      7683.50       1.3089105    0.0027791066
      7691.19       1.3197406    0.0027448965
      7698.88       1.3311792    0.0027245204
      7706.58       1.3410069    0.0027003746
      7714.29       1.3509381    0.0026820315
      7722.00       1.3641287    0.0026699354
      7729.73       1.3773054    0.0026631351
      7737.45       1.3894135    0.0026438429
      7745.19       1.4018699    0.0026429566
      7752.94       1.4187416    0.0026439167
      7760.69       1.4348722    0.0026458352
      7768.45       1.4497171    0.0026484145
      7776.22       1.4619258    0.0026516478
      7784.00       1.4730878    0.0026712034
      7791.78       1.4790457    0.0026564597
      7799.57       1.4810019    0.0026598608
      7807.37       1.4815676    0.0026634739
      7815.18       1.4815238    0.0026670984
      7822.99       1.4790349    0.0026709210
      7830.82       1.4739866    0.0026753229
      7838.65       1.4699144    0.0026803053
      7846.49       1.4653378    0.0026855968
      7854.34       1.4566293    0.0026732743
      7862.19       1.4458333    0.0026793983
      7870.05       1.4365306    0.0026857120
      7877.93       1.4251811    0.0026911845
      7885.80       1.4140801    0.0026955194
      7893.69       1.4026553    0.0026993985
      7901.58       1.3900816    0.0027030706
      7909.49       1.3741923    0.0027066360
      7917.40       1.3564085    0.0027101102
      7925.31       1.3407093    0.0027133948
      7933.24       1.3263602    0.0027167859
      7941.17       1.3103791    0.0027025697
      7949.11       1.2940404    0.0027068119
      7957.06       1.2770006    0.0027113991
      7965.02       1.2558191    0.0027158492
      7972.98       1.2313584    0.0027203459
      7980.96       1.2055978    0.0027247676
      7988.94       1.1770540    0.0027287813
      7996.93       1.1444285    0.0027321534
      8004.93       1.1062757    0.0027353221
      8012.93       1.0654345    0.0027388167
      8020.95       1.0232984    0.0027425870
      8028.97      0.97805945    0.0027459197
      8036.99      0.92904995    0.0027493178
      8045.03      0.87733591    0.0027387656
      8053.08      0.82718065    0.0027448641
      8061.13      0.77760303    0.0027528609
      8069.20      0.72897184    0.0027633568
      8077.26      0.68456098    0.0027757678
      8085.34      0.64228818    0.0027912740
      8093.43      0.60187978    0.0028116402
      8101.52      0.56488782    0.0028369248
      8109.62      0.53081207    0.0028656511
      8117.73      0.49839147    0.0028966211
      8125.85      0.46807742    0.0029308079
      8133.98      0.44116396    0.0029665449
      8142.11      0.41757602    0.0029771067
      8150.25      0.39653653    0.0029892172
      8158.41      0.37782377    0.0029969590
      8166.56      0.36141024    0.0030029315
      8174.73      0.34756870    0.0030058601
      8182.91      0.33492815    0.0030066777
      8191.09      0.32537329    0.0030049779
      8199.28      0.31974786    0.0029829313
      8207.48      0.31578699    0.0029779559
      8215.69      0.31479100    0.0029933714
      8223.91      0.31542195    0.0029928277
      8232.13      0.31815780    0.0029912975
      8240.36      0.32305236    0.0029877063
      8248.60      0.32898631    0.0029834511
      8256.85      0.33563878    0.0029603502
      8265.11      0.34435932    0.0029547865
      8273.37      0.35528869    0.0029499608
      8281.65      0.36854818    0.0029501895
      8289.93      0.38404337    0.0029547018
      8298.22      0.40146382    0.0029349691
      8306.52      0.42104687    0.0029405086
      8314.83      0.44352107    0.0029309004
      8323.14      0.46617770    0.0029232428
      8331.46      0.48871699    0.0029164478
      8339.80      0.51272817    0.0028938472
      8348.13      0.53978876    0.0028899072
      8356.48      0.56774414    0.0028853651
      8364.84      0.59700691    0.0028817501
      8373.21      0.62831020    0.0028806253
      8381.58      0.66174671    0.0028805428
      8389.96      0.69705840    0.0028810655
      8398.35      0.73309388    0.0028816001
      8406.75      0.77058483    0.0028828868
      8415.16      0.81241558    0.0028685517
      8423.57      0.85791830    0.0028889610
      8432.00      0.90547765    0.0028919214
      8440.43      0.95639184    0.0028954084
      8448.87       1.0102792    0.0028832932
      8457.32       1.0630735    0.0028875754
      8465.78       1.1158443    0.0029099735
      8474.25       1.1651670    0.0028986593
      8482.72       1.2111268    0.0029036600
      8491.20       1.2565307    0.0029087470
      8499.69       1.3008876    0.0029140375
      8508.19       1.3452986    0.0029200903
      8516.70       1.3855419    0.0029245215
      8525.22       1.4194354    0.0029289546
      8533.75       1.4476102    0.0029164698
      8542.28       1.4732523    0.0029204202
      8550.82       1.4944086    0.0029427862
      8559.37       1.5131410    0.0029308393
      8567.93       1.5323896    0.0029350659
      8576.50       1.5500830    0.0029392915
      8585.08       1.5618907    0.0029456830
      8593.66       1.5709147    0.0029501080
      8602.26       1.5770207    0.0029551689
      8610.86       1.5787849    0.0029446832
      8619.47       1.5764105    0.0029679761
      8628.09       1.5703683    0.0029732334
      8636.72       1.5606680    0.0029626830
      8645.36       1.5480226    0.0029862147
      8654.00       1.5349677    0.0029751305
      8662.66       1.5185806    0.0029803392
      8671.32       1.4974157    0.0029856868
      8679.99       1.4713585    0.0029920547
      8688.67       1.4390757    0.0029970012
      8697.36       1.4046513    0.0030022436
      8706.06       1.3693049    0.0030086537
      8714.76       1.3337217    0.0030139742
      8723.48       1.2957039    0.0030029909
      8732.21       1.2561544    0.0030268656
      8740.93       1.2130942    0.0030326015
      8749.68       1.1675518    0.0030217228
      8758.43       1.1238938    0.0030462454
      8767.19       1.0805363    0.0030358512
      8775.96       1.0457828    0.0030416214
      8784.73       1.0147625    0.0030500956
      8793.52      0.98902398    0.0030557576
      8802.31      0.96675518    0.0030457737
      8811.11      0.95073033    0.0030703136
      8819.92      0.94243000    0.0030765499
      8828.75      0.93913715    0.0030675243
      8837.57      0.93927392    0.0030924881
      8846.41      0.94490760    0.0030844983
      8855.26      0.95260230    0.0031118055
      8864.12      0.96413458    0.0031068074
      8872.98      0.97662146    0.0031176362
      8881.85      0.98816767    0.0031348492
      8890.73      0.99862822    0.0031534436
      8899.63       1.0054756    0.0031799228
      8908.52       1.0085458    0.0032069210
      8917.43       1.0076741    0.0032288236
      8926.35       1.0050233    0.0032916105
      8935.28       1.0000676    0.0033248995
      8944.22      0.99477549    0.0033968962
      8953.16      0.98405935    0.0034332046
      8962.11      0.97096146    0.0035018877
      8971.08      0.95871397    0.0035195144
      8980.05      0.94736201    0.0035387288
      8989.03      0.93502566    0.0035450776
      8998.02      0.92586444    0.0035201007
      9007.02      0.91927300    0.0035269965
      9016.02      0.91260109    0.0034990569
      9025.04      0.90760849    0.0035146224
      9034.07      0.90752708    0.0035017696
      9043.10      0.90478715    0.0035285786
      9052.14      0.90231508    0.0035288545
      9061.20      0.90336734    0.0035757258
      9070.26      0.89918535    0.0035810422
      9079.33      0.89835716    0.0036092279
      9088.41      0.89575925    0.0036274492
      9097.50      0.89496039    0.0036432508
      9106.60      0.89275981    0.0036512520
      9115.70      0.88931579    0.0036590116
      9124.82      0.88697388    0.0036421554
      9133.94      0.88924681    0.0036659623
      9143.08      0.89602893    0.0036418876
      9152.22      0.90611165    0.0036289448
      9161.37      0.91668312    0.0036120768
      9170.54      0.92892939    0.0035934875
      9179.71      0.94253279    0.0035798898
      9188.89      0.95672178    0.0035668193
      9198.08      0.96859811    0.0035653797
      9207.28      0.97748379    0.0035713040
      9216.48      0.98277365    0.0035895614
      9225.70      0.98381039    0.0036055670
      9234.92      0.98516034    0.0036679422
      9244.16      0.98199226    0.0037169547
      9253.40      0.97506863    0.0038207807
      9262.66      0.95856448    0.0039721710
      9271.92      0.94002211    0.0041178289
      9281.20      0.91753961    0.0043471693
      9290.48      0.89122671    0.0045591452
      9299.77      0.86164305    0.0048445667
      9309.07      0.83695132    0.0051315145
      9318.38      0.81188238    0.0053221155
      9327.69      0.78700007    0.0055279465
      9337.02      0.76611725    0.0055697240
      9346.36      0.74558396    0.0055685050
      9355.71      0.73690069    0.0055492353
      9365.07      0.73155004    0.0054012648
      9374.43      0.73094066    0.0052845074
      9383.80      0.73237209    0.0051984519
      9393.19      0.74470568    0.0051619926
      9402.58      0.75470168    0.0051486896
      9411.98      0.77495017    0.0051869445
      9421.40      0.79490584    0.0051969110
      9430.82      0.81004423    0.0052627095
      9440.25      0.82590087    0.0053054004
      9449.69      0.85519066    0.0052902063
      9459.14      0.88198532    0.0052597356
      9468.60      0.90240245    0.0052046274
      9478.07      0.92176873    0.0051765833
      9487.55      0.94266555    0.0051471215
      9497.04      0.95587291    0.0051100354
      9506.53      0.96861583    0.0050550918
      9516.04      0.98002901    0.0050267104
      9525.56      0.98264113    0.0050183926
      9535.08      0.98501837    0.0049815305
      9544.62      0.98373732    0.0049140293
      9554.16      0.98098913    0.0048663387
      9563.72      0.97132755    0.0048126330
      9573.29      0.96545906    0.0047852953
      9582.85      0.95371058    0.0047004307
      9592.44      0.94127724    0.0046418810
      9602.03      0.92646868    0.0045808692
      9611.63      0.91446784    0.0045079349
      9621.25      0.90616430    0.0044224888
      9630.87      0.90736319    0.0043518822
      9640.50      0.90234618    0.0043024708
      9650.14      0.89416785    0.0042261663
      9659.79      0.88863529    0.0041495906
      9669.45      0.88655232    0.0041015031
      9679.12      0.88183411    0.0040645924
      9688.80      0.88052520    0.0040435071
      9698.49      0.87847278    0.0040368757
      9708.19      0.87334106    0.0040211171
      9717.90      0.87106016    0.0040338041
      9727.62      0.86735507    0.0040468701
      9737.34      0.86373841    0.0040755810
      9747.08      0.85570493    0.0040754556
      9756.83      0.84827410    0.0040663641
      9766.59      0.83919051    0.0040338075
      9776.35      0.82480571    0.0040186368
      9786.13      0.80692168    0.0040012228
      9795.92      0.79451119    0.0039843107
      9805.71      0.77873865    0.0039701458
      9815.52      0.76307483    0.0039584307
      9825.34      0.74482214    0.0039474564
      9835.17      0.72760919    0.0039186796
      9845.00      0.71324680    0.0039097078
      9854.84      0.69826707    0.0039048888
      9864.70      0.68457436    0.0039055956
      9874.56      0.67203480    0.0039074711
      9884.44      0.66187184    0.0039091700
      9894.32      0.65294704    0.0039135471
      9904.22      0.64356063    0.0039208715
      9914.13      0.63349694    0.0039288020
      9924.04      0.62442351    0.0039164676
      9933.96      0.61521770    0.0039251870
      9943.90      0.60543350    0.0039346641
      9953.84      0.59594454    0.0039453832
      9963.79      0.58258560    0.0039564380
      9973.76      0.56744268    0.0039684562
      9983.74      0.55305483    0.0039812008
      9993.72      0.53891896    0.0047059484
