# starting wavelength =        3115.1900
# ending wavelength =        10284.100
# O2 telluric scale =        0
# O2 telluric shift =        0
# H2O telluric scale =        0
# H2O telluric shift =        0
      3115.80       1.0325571      0.10133331
      3118.91       1.0699201     0.085101331
      3122.03       1.0808007     0.069808599
      3125.15       1.0921560     0.060537334
      3128.28       1.0830120     0.055522249
      3131.41       1.0774454     0.049507201
      3134.54       1.0668730     0.043475078
      3137.67       1.0607266     0.040119089
      3140.81       1.0425736     0.038233049
      3143.95       1.0135659     0.035980719
      3147.10       1.0097188     0.033802428
      3150.24       1.0043441     0.032443882
      3153.39       1.0030356     0.031681759
      3156.55      0.99132385     0.030665670
      3159.70      0.98219587     0.029849359
      3162.86      0.96866106     0.029117784
      3166.03      0.96866860     0.028460539
      3169.19      0.96563501     0.028119548
      3172.36      0.97420547     0.027561731
      3175.54      0.97282775     0.027285496
      3178.71      0.96414532     0.027209389
      3181.89      0.93964106     0.027377386
      3185.07      0.94356108     0.027095317
      3188.26      0.97731749     0.027259510
      3191.45      0.97425079     0.026983201
      3194.64      0.98155718     0.026908228
      3197.83      0.97124384     0.027074264
      3201.03      0.98212162     0.026794500
      3204.23      0.98107300     0.026956577
      3207.44       1.0106267     0.026890886
      3210.64       1.0127438     0.026841169
      3213.85       1.0222373     0.026772382
      3217.07       1.0488840     0.026942590
      3220.28       1.0742155     0.026655834
      3223.51       1.1066701     0.026589852
      3226.73       1.1082108     0.026754745
      3229.96       1.1143527     0.026472033
      3233.19       1.1257549     0.026641844
      3236.42       1.1181249     0.026568677
      3239.66       1.1172633     0.026531894
      3242.90       1.1184294     0.026455035
      3246.14       1.1241484     0.026384233
      3249.39       1.1311447     0.026344266
      3252.64       1.1223118     0.026269857
      3255.89       1.1138703     0.026437305
      3259.14       1.1046793     0.026158313
      3262.40       1.1136602     0.026085994
      3265.67       1.1188043     0.026254034
      3268.93       1.1107310     0.025973991
      3272.20       1.1080705     0.026137045
      3275.47       1.0998210     0.026071478
      3278.75       1.0993137     0.026023565
      3282.03       1.1036303     0.025954047
      3285.31       1.0982776     0.025889641
      3288.60       1.0950699     0.025839951
      3291.88       1.0806784     0.025771677
      3295.18       1.0800678     0.025944265
      3298.47       1.0835466     0.025657404
      3301.77       1.0840694     0.025590062
      3305.07       1.0785409     0.025760124
      3308.38       1.0701783     0.025688295
      3311.69       1.0742661     0.025409176
      3315.00       1.0725669     0.025577210
      3318.31       1.0680816     0.025505808
      3321.63       1.0727539     0.025470731
      3324.95       1.0748317     0.025395033
      3328.28       1.0858239     0.025324421
      3331.61       1.0858873     0.025493863
      3334.94       1.0779971     0.025214391
      3338.27       1.0777485     0.025378217
      3341.61       1.0668885     0.025311712
      3344.95       1.0565724     0.025034273
      3348.30       1.0482431     0.025196336
      3351.65       1.0496929     0.025130176
      3355.00       1.0434828     0.025068378
      3358.35       1.0384102     0.025016001
      3361.71       1.0438490     0.024949430
      3365.07       1.0369056     0.025123761
      3368.44       1.0379188     0.025051338
      3371.81       1.0368742     0.024769290
      3375.18       1.0352960     0.024943236
      3378.56       1.0336243     0.024871071
      3381.94       1.0362260     0.024803000
      3385.32       1.0316615     0.024765004
      3388.70       1.0342915     0.024692044
      3392.09       1.0313464     0.024623025
      3395.48       1.0268833     0.024794930
      3398.88       1.0282210     0.024514142
      3402.28       1.0261098     0.024444304
      3405.68       1.0227523     0.024613025
      3409.09       1.0161482     0.024550921
      3412.49       1.0139725     0.024500235
      3415.91       1.0187855     0.024432936
      3419.32       1.0199325     0.024369212
      3422.74       1.0202832     0.024542271
      3426.17       1.0262576     0.024253727
      3429.59       1.0368268     0.024188582
      3433.02       1.0398590     0.024364926
      3436.45       1.0313140     0.024293700
      3439.89       1.0359259     0.024009646
      3443.33       1.0380548     0.024190012
      3446.78       1.0359948     0.024117331
      3450.22       1.0348491     0.024048116
      3453.67       1.0387610     0.024221315
      3457.13       1.0350027     0.023942679
      3460.58       1.0328905     0.023871362
      3464.04       1.0407766     0.024040882
      3467.51       1.0382652     0.023975866
      3470.98       1.0329871     0.023914932
      3474.45       1.0345274     0.023863510
      3477.92       1.0334507     0.023796529
      3481.40       1.0421120     0.023732111
      3484.88       1.0376040     0.023671540
      3488.37       1.0385909     0.023841618
      3491.86       1.0382630     0.023553127
      3495.35       1.0395179     0.023490065
      3498.84       1.0401705     0.023667409
      3502.34       1.0324170     0.023597853
      3505.84       1.0273518     0.023531136
      3509.35       1.0314790     0.023496592
      3512.86       1.0294877     0.023424217
      3516.37       1.0351054     0.023355136
      3519.89       1.0354769     0.023529232
      3523.41       1.0457992     0.023465350
      3526.93       1.0476346     0.023404113
      3530.46       1.0519011     0.023114847
      3533.99       1.0525540     0.023285911
      3537.53       1.0528569     0.023221125
      3541.06       1.0468718     0.023159358
      3544.60       1.0365721     0.023339076
      3548.15       1.0263106     0.023270567
      3551.70       1.0241855     0.022979428
      3555.25       1.0221007     0.022917052
      3558.80       1.0222912     0.023098594
      3562.36       1.0234015     0.023028990
      3565.92       1.0176177     0.022962640
      3569.49       1.0119921     0.023143715
      3573.06       1.0143165     0.022860424
      3576.64       1.0156673     0.022790553
      3580.21       1.0093515     0.022722916
      3583.79       1.0099398     0.022900317
      3587.38       1.0107519     0.022836529
      3590.96       1.0077117     0.022775339
      3594.55       1.0076894     0.022716237
      3598.15       1.0058356     0.022659356
      3601.75       1.0128101     0.022594092
      3605.35       1.0227153     0.022531426
      3608.96       1.0193880     0.022723117
      3612.56       1.0195084     0.022653354
      3616.18       1.0287982     0.022585467
      3619.79       1.0268110     0.022520030
      3623.41       1.0291297     0.022706301
      3627.04       1.0250451     0.022419108
      3630.66       1.0251042     0.022349746
      3634.29       1.0157054     0.022281959
      3637.93       1.0144265     0.022463404
      3641.57       1.0167833     0.022398980
      3645.21       1.0132733     0.022336393
      3648.86       1.0125059     0.022275456
      3652.50       1.0110143     0.022466341
      3656.16       1.0026099     0.022398358
      3659.81       1.0024619     0.022333023
      3663.47       1.0062576     0.022031009
      3667.14       1.0049446     0.022234569
      3670.80      0.99877288     0.022163952
      3674.48       1.0083319     0.022095486
      3678.15       1.0133650     0.022029113
      3681.83       1.0137126     0.021963556
      3685.51       1.0192075     0.022153936
      3689.20       1.0198824     0.022091152
      3692.88       1.0194071     0.022030145
      3696.58       1.0030454     0.021970340
      3700.27      0.99879685     0.022163458
      3703.98       1.0038921     0.021848953
      3707.68       1.0128223     0.021784567
      3711.39       1.0081373     0.021721684
      3715.10       1.0045340     0.021659796
      3718.81       1.0001763     0.021864322
      3722.53      0.99276703     0.021796046
      3726.26       1.0071386     0.021729020
      3729.98       1.0162179     0.021663191
      3733.71       1.0158369     0.021598864
      3737.45       1.0179981     0.021795227
      3741.18       1.0064218     0.021733040
      3744.93       1.0112217     0.021671590
      3748.67       1.0239925     0.021610951
      3752.42       1.0448779     0.021816558
      3756.17       1.0909318     0.021749306
      3759.93       1.1163232     0.021683483
      3763.69       1.1114301     0.021618412
      3767.45       1.1094768     0.021554652
      3771.22       1.1015881     0.021492301
      3774.99       1.0963120     0.021701201
      3778.77       1.1033653     0.021389046
      3782.54       1.1193930     0.021321134
      3786.33       1.1429917     0.021254576
      3790.11       1.1540059     0.021188582
      3793.90       1.1629028     0.021390105
      3797.70       1.1797477     0.021325468
      3801.50       1.1825266     0.021262215
      3805.30       1.1737470     0.021199577
      3809.10       1.1421025     0.021137008
      3812.91       1.1077819     0.021075086
      3816.73       1.0898017     0.021299063
      3820.54       1.0806021     0.021231702
      3824.36       1.0880669     0.021164743
      3828.19       1.1083462     0.021099709
      3832.02       1.1254342     0.021034347
      3835.85       1.1288142     0.020969754
      3839.68       1.1297267     0.020905490
      3843.52       1.1378786     0.021116883
      3847.37       1.1622082     0.021053429
      3851.22       1.2029738     0.020990239
      3855.07       1.2277476     0.020927890
      3858.92       1.2326976     0.020866523
      3862.78       1.2333188     0.020804403
      3866.64       1.2247238     0.020490003
      3870.51       1.2164173     0.020424590
      3874.38       1.1919262     0.020360591
      3878.26       1.1688184     0.020296769
      3882.13       1.1591353     0.020233009
      3886.02       1.1595026     0.020170706
      3889.90       1.1774995     0.020107194
      3893.79       1.1899539     0.020045108
      3897.69       1.2019524     0.019983021
      3901.59       1.2236253     0.019920949
      3905.49       1.2556592     0.019860074
      3909.39       1.2875144     0.019799163
      3913.30       1.3202060     0.019738305
      3917.22       1.3552379     0.019677337
      3921.13       1.3822788     0.019372006
      3925.06       1.4062679     0.019312539
      3928.98       1.4028231     0.019253120
      3932.91       1.3885827     0.019193996
      3936.84       1.3747208     0.019135377
      3940.78       1.3421657     0.019076229
      3944.72       1.3077995     0.019017438
      3948.67       1.2830170     0.018958573
      3952.61       1.2677792     0.018900069
      3956.57       1.2604096     0.018841904
      3960.52       1.2511656     0.018783587
      3964.48       1.2473405     0.018725616
      3968.45       1.2386421     0.018667419
      3972.42       1.2430115     0.018609019
      3976.39       1.2534165     0.018550978
      3980.37       1.2736471     0.018492818
      3984.35       1.2994394     0.018435074
      3988.33       1.3339725     0.018377658
      3992.32       1.3776036     0.018320158
      3996.31       1.4162853     0.018262264
      4000.31       1.4557369     0.018204306
      4004.31       1.4749897     0.018146777
      4008.31       1.4974030     0.018089568
      4012.32       1.5042143     0.018032234
      4016.33       1.5038900     0.017975313
      4020.35       1.5052397     0.017918112
      4024.37       1.5095411     0.017860677
      4028.40       1.5069513     0.017803662
      4032.42       1.5085239     0.017746488
      4036.46       1.5066955     0.017689617
      4040.50       1.5042074     0.017633103
      4044.54       1.5031577     0.017576490
      4048.58       1.5038380     0.017520259
      4052.63       1.5019667     0.017463538
      4056.68       1.5048208     0.017407232
      4060.74       1.5129954     0.017351286
      4064.80       1.5059776     0.017295301
      4068.86       1.4862620     0.017239629
      4072.93       1.4391734     0.016969870
      4077.01       1.3999089     0.016915229
      4081.08       1.3587781     0.016860617
      4085.17       1.3255616     0.016806420
      4089.25       1.2966598     0.016752735
      4093.34       1.2793613     0.016698922
      4097.43       1.2522284     0.016645660
      4101.53       1.2391337     0.016592497
      4105.63       1.2383022     0.016539549
      4109.74       1.2380506     0.016487156
      4113.85       1.2468553     0.016434754
      4117.96       1.2602552     0.016382991
      4122.08       1.2701035     0.016331754
      4126.20       1.2922845     0.016280639
      4130.33       1.3312171     0.016020171
      4134.46       1.3645175     0.015967087
      4138.59       1.3905081     0.015914078
      4142.73       1.3979144     0.015862082
      4146.88       1.3976241     0.015810134
      4151.02       1.3896583     0.015758433
      4155.18       1.3912548     0.015707568
      4159.33       1.3925374     0.015843198
      4163.49       1.3949785     0.015792331
      4167.65       1.3965776     0.015742163
      4171.82       1.3929483     0.015500284
      4175.99       1.3935247     0.015447147
      4180.17       1.4059799     0.015394917
      4184.35       1.4197659     0.015342586
      4188.54       1.4202665     0.015291457
      4192.72       1.4235693     0.015240577
      4196.92       1.4255884     0.015189855
      4201.11       1.4226707     0.015140795
      4205.31       1.4318363     0.015091809
      4209.52       1.4428655     0.014863328
      4213.73       1.4473449     0.014988864
      4217.94       1.4491846     0.014936761
      4222.16       1.4490722     0.014885071
      4226.38       1.4495049     0.014834718
      4230.61       1.4573028     0.014784856
      4234.84       1.4670551     0.014735651
      4239.08       1.4659748     0.014511373
      4243.32       1.4669806     0.014464208
      4247.56       1.4655635     0.014417951
      4251.81       1.4675137     0.014372677
      4256.06       1.4760834     0.014486750
      4260.32       1.4872535     0.014436837
      4264.58       1.4897686     0.014387690
      4268.84       1.4795893     0.014167856
      4273.11       1.4622427     0.014121285
      4277.38       1.4489487     0.014075811
      4281.66       1.4379006     0.014031092
      4285.94       1.4333122     0.013987480
      4290.23       1.4248065     0.013944770
      4294.52       1.4211037     0.013877831
      4298.81       1.4088773     0.013831273
      4303.11       1.3997767     0.013785957
      4307.42       1.3844328     0.013741507
      4311.72       1.3714533     0.013698302
      4316.04       1.3528585     0.013656139
      4320.35       1.3248127     0.013440902
      4324.67       1.3128097     0.013546749
      4329.00       1.3113859     0.013501998
      4333.33       1.3175337     0.013458246
      4337.66       1.3244066     0.013415875
      4342.00       1.3459210     0.013209409
      4346.34       1.3538343     0.013163646
      4350.69       1.3575087     0.013118949
      4355.04       1.3612661     0.013223570
      4359.39       1.3770812     0.013181028
      4363.75       1.3985177     0.012981323
      4368.12       1.4169172     0.012935579
      4372.48       1.4352274     0.012891102
      4376.86       1.4484687     0.012847855
      4381.23       1.4495770     0.012950998
      4385.61       1.4501831     0.012756403
      4390.00       1.4468991     0.012710616
      4394.39       1.4433897     0.012666536
      4398.79       1.4414836     0.012624028
      4403.18       1.4390253     0.012438551
      4407.59       1.4383519     0.012533892
      4412.00       1.4494386     0.012488876
      4416.41       1.4566054     0.012445408
      4420.82       1.4607330     0.012403846
      4425.25       1.4646168     0.012221936
      4429.67       1.4605549     0.012314207
      4434.10       1.4498346     0.012270132
      4438.54       1.4470493     0.012227943
      4442.97       1.4383646     0.012047681
      4447.42       1.4341360     0.012009484
      4451.86       1.4306808     0.012097377
      4456.32       1.4300307     0.012055020
      4460.77       1.4208924     0.011876623
      4465.24       1.4184193     0.011838321
      4469.70       1.4256790     0.011802086
      4474.17       1.4361514     0.011884341
      4478.65       1.4541914     0.011707869
      4483.12       1.4802243     0.011670186
      4487.61       1.5126242     0.011634276
      4492.09       1.5453870     0.011581231
      4496.59       1.5850868     0.011541828
      4501.08       1.6212123     0.011504619
      4505.58       1.6606108     0.011469117
      4510.09       1.7022059     0.011295462
      4514.60       1.7344243     0.011378395
      4519.12       1.7549896     0.011341804
      4523.63       1.7787184     0.011307213
      4528.16       1.7915102     0.011135147
      4532.69       1.8047517     0.011217122
      4537.22       1.8153822     0.011181343
      4541.76       1.8150291     0.011015291
      4546.30       1.8055669     0.010977039
      4550.85       1.7978595     0.011058490
      4555.40       1.7874600     0.010897660
      4559.95       1.7752813     0.010858470
      4564.51       1.7587296     0.010821490
      4569.08       1.7441243     0.010902893
      4573.65       1.7245915     0.010741891
      4578.22       1.7044173     0.010704276
      4582.80       1.6887514     0.010669068
      4587.38       1.6801932     0.010626831
      4591.97       1.6711906     0.010588696
      4596.56       1.6621460     0.010552970
      4601.16       1.6453482     0.010513000
      4605.76       1.6268671     0.010474502
      4610.37       1.6130967     0.010438604
      4614.98       1.5930690     0.010290619
      4619.59       1.5835765     0.010361939
      4624.21       1.5737844     0.010325843
      4628.84       1.5545555     0.010178762
      4633.47       1.5353196     0.010250393
      4638.10       1.5230779     0.010214442
      4642.74       1.5027600     0.010068830
      4647.38       1.4828603     0.010140423
      4652.03       1.4679182     0.010104346
      4656.68       1.4630174    0.0099601914
      4661.34       1.4517985    0.0099302369
      4666.00       1.4455635    0.0099956634
      4670.67       1.4396843    0.0098531827
      4675.33       1.4340136    0.0098237533
      4680.01       1.4289858    0.0097791602
      4684.69       1.4330310    0.0097474413
      4689.38       1.4326562    0.0097187850
      4694.07       1.4254384    0.0096744331
      4698.76       1.4199668    0.0096435591
      4703.46       1.4153038    0.0096155215
      4708.16       1.4215162    0.0095708918
      4712.87       1.4219766    0.0095408371
      4717.58       1.4244204    0.0094043698
      4722.30       1.4246843    0.0094689540
      4727.03       1.4233297    0.0094400582
      4731.75       1.4187168    0.0093037545
      4736.48       1.4199249    0.0093684553
      4741.22       1.4252841    0.0092367229
      4745.96       1.4263912    0.0092045875
      4750.71       1.4232282    0.0092698101
      4755.46       1.4198547    0.0091378738
      4760.22       1.4181956    0.0091069994
      4764.97       1.4185001    0.0090728738
      4769.74       1.4177395    0.0090406211
      4774.51       1.4213904    0.0091041181
      4779.29       1.4182104    0.0089756684
      4784.07       1.4160400    0.0089452169
      4788.85       1.4128871    0.0089124827
      4793.64       1.4135782    0.0088803555
      4798.43       1.4164582    0.0088518371
      4803.23       1.4201219    0.0088171807
      4808.03       1.4238733    0.0087871570
      4812.84       1.4211487    0.0087550045
      4817.66       1.4102556    0.0087236829
      4822.48       1.3988239    0.0086041120
      4827.30       1.3860692    0.0086618643
      4832.12       1.3655181    0.0086328615
      4836.96       1.3387869    0.0085167289
      4841.79       1.3208399    0.0085709009
      4846.63       1.2989707    0.0084543347
      4851.48       1.2824230    0.0085099860
      4856.33       1.2722080    0.0083932473
      4861.19       1.2615804    0.0084502395
      4866.05       1.2632754    0.0083330686
      4870.92       1.2673623    0.0083089303
      4875.79       1.2847279    0.0082738104
      4880.66       1.2880915    0.0082493233
      4885.55       1.2995786    0.0082157796
      4890.43       1.3149106    0.0081902161
      4895.32       1.3276327    0.0081687305
      4900.22       1.3463864    0.0081322960
      4905.12       1.3552434    0.0081102826
      4910.02       1.3630391    0.0080752039
      4914.94       1.3677921    0.0080526941
      4919.85       1.3687365    0.0080188069
      4924.77       1.3659847    0.0079958800
      4929.70       1.3620261    0.0078851829
      4934.62       1.3634564    0.0079399445
      4939.56       1.3609969    0.0078307910
      4944.50       1.3581649    0.0078848313
      4949.44       1.3577690    0.0077768824
      4954.39       1.3613958    0.0078302319
      4959.35       1.3634184    0.0077238279
      4964.31       1.3624803    0.0077767297
      4969.27       1.3653139    0.0076712962
      4974.24       1.3530069    0.0077235975
      4979.22       1.3383985    0.0076192926
      4984.20       1.3272962    0.0075963255
      4989.18       1.3115738    0.0075680337
      4994.17       1.3066435    0.0075451845
      4999.16       1.2992985    0.0075171595
      5004.16       1.2945272    0.0074185457
      5009.17       1.2859882    0.0074669561
      5014.18       1.2770340    0.0073693035
      5019.19       1.2720196    0.0074174606
      5024.21       1.2757168    0.0073206297
      5029.23       1.2813810    0.0073683038
      5034.26       1.2854843    0.0072726062
      5039.30       1.2854768    0.0073198592
      5044.34       1.2877769    0.0072254650
      5049.39       1.2955698    0.0072721127
      5054.43       1.2989360    0.0071786615
      5059.49       1.3036455    0.0072248065
      5064.55       1.3087347    0.0071328441
      5069.61       1.3063445    0.0071059466
      5074.68       1.3065925    0.0070876803
      5079.76       1.3142721    0.0070604935
      5084.84       1.3210002    0.0070432663
      5089.92       1.3316368    0.0070159972
      5095.01       1.3399131    0.0069997576
      5100.11       1.3427103    0.0069722006
      5105.21       1.3440819    0.0068821545
      5110.31       1.3418174    0.0069291574
      5115.42       1.3500300    0.0069043746
      5120.54       1.3556625    0.0068870176
      5125.66       1.3553031    0.0068618326
      5130.79       1.3465741    0.0067747936
      5135.92       1.3382820    0.0068200660
      5141.05       1.3248688    0.0067329735
      5146.20       1.3168473    0.0067792875
      5151.34       1.3019841    0.0066920804
      5156.49       1.2891982    0.0066714594
      5161.65       1.2811348    0.0066519768
      5166.81       1.2681327    0.0066307475
      5171.98       1.2604515    0.0066760478
      5177.15       1.2594644    0.0065910765
      5182.33       1.2624666    0.0065716622
      5187.51       1.2618326    0.0065523573
      5192.70       1.2669312    0.0065322234
      5197.89       1.2695719    0.0065147109
      5203.09       1.2768737    0.0064939813
      5208.29       1.2821403    0.0064753816
      5213.50       1.2919528    0.0064567650
      5218.72       1.3026667    0.0064373777
      5223.93       1.3056141    0.0063587197
      5229.16       1.3056819    0.0064006998
      5234.39       1.3072749    0.0063825645
      5239.62       1.2962998    0.0063036435
      5244.86       1.2910407    0.0063461490
      5250.11       1.2863832    0.0062698360
      5255.36       1.2804098    0.0062502747
      5260.61       1.2770793    0.0062933330
      5265.87       1.2753443    0.0062170877
      5271.14       1.2825095    0.0061984559
      5276.41       1.2908527    0.0061853287
      5281.69       1.2970643    0.0061659167
      5286.97       1.2991084    0.0061481659
      5292.26       1.3052286    0.0061348871
      5297.55       1.3144130    0.0061162429
      5302.85       1.3208997    0.0060433006
      5308.15       1.3272354    0.0060860351
      5313.46       1.3355797    0.0060681132
      5318.77       1.3451463    0.0059961361
      5324.09       1.3500704    0.0060386880
      5329.42       1.3523992    0.0060214001
      5334.75       1.3534767    0.0059503699
      5340.08       1.3484877    0.0059929098
      5345.42       1.3447739    0.0059760706
      5350.77       1.3371781    0.0059058061
      5356.12       1.3265567    0.0058918117
      5361.48       1.3177164    0.0059323109
      5366.83       1.3068188    0.0058627296
      5372.20       1.2976604    0.0058489695
      5377.58       1.2832627    0.0058898008
      5382.95       1.2686232    0.0058208819
      5388.34       1.2535382    0.0058074411
      5393.72       1.2455110    0.0057950491
      5399.12       1.2393477    0.0057805296
      5404.52       1.2304803    0.0057671944
      5409.92       1.2207378    0.0057549981
      5415.33       1.2166235    0.0057416606
      5420.75       1.2138582    0.0057283926
      5426.17       1.2104540    0.0057162154
      5431.60       1.2087073    0.0056518697
      5437.03       1.2087218    0.0056911975
      5442.47       1.2049754    0.0056790092
      5447.91       1.1990143    0.0056165606
      5453.36       1.1917921    0.0056035391
      5458.81       1.1875473    0.0056432911
      5464.27       1.1811724    0.0055831015
      5469.73       1.1744730    0.0055701765
      5475.20       1.1728980    0.0055580028
      5480.68       1.1711419    0.0055467153
      5486.16       1.1724373    0.0055383252
      5491.65       1.1781222    0.0055261852
      5497.14       1.1856876    0.0055149047
      5502.64       1.1937421    0.0055042760
      5508.14       1.1959177    0.0054964143
      5513.65       1.1973849    0.0054849592
      5519.16       1.2063868    0.0054742994
      5524.68       1.2079059    0.0054152262
      5530.20       1.2118368    0.0054059454
      5535.73       1.2135513    0.0054463418
      5541.27       1.2096794    0.0054362000
      5546.81       1.2072281    0.0053779586
      5552.36       1.2000303    0.0053690584
      5557.91       1.1902021    0.0053608378
      5563.47       1.1814796    0.0054005902
      5569.04       1.1730015    0.0053429705
      5574.60       1.1618477    0.0053345571
      5580.18       1.1527572    0.0053266898
      5585.76       1.1417419    0.0053193425
      5591.35       1.1324067    0.0053106701
      5596.94       1.1254166    0.0053025459
      5602.53       1.1171143    0.0052949073
      5608.14       1.1119421    0.0052878594
      5613.75       1.1075770    0.0052812597
      5619.36       1.1008289    0.0052272699
      5624.98       1.0952066    0.0052659853
      5630.60       1.0865834    0.0052590815
      5636.23       1.0820384    0.0052526407
      5641.87       1.0751368    0.0052466647
      5647.51       1.0679334    0.0051943289
      5653.16       1.0648091    0.0051876594
      5658.82       1.0560731    0.0051814774
      5664.47       1.0515582    0.0052211177
      5670.14       1.0501202    0.0052156670
      5675.81       1.0483223    0.0051654005
      5681.48       1.0454814    0.0051593402
      5687.17       1.0444241    0.0051537340
      5692.85       1.0434143    0.0051484510
      5698.55       1.0463094    0.0051435363
      5704.25       1.0490594    0.0050937544
      5709.95       1.0524053    0.0051353690
      5715.66       1.0554760    0.0051301619
      5721.38       1.0582028    0.0051253275
      5727.10       1.0622744    0.0051208346
      5732.83       1.0652735    0.0051166877
      5738.56       1.0681581    0.0050677114
      5744.30       1.0703898    0.0050641268
      5750.04       1.0686918    0.0050608365
      5755.79       1.0694091    0.0050578476
      5761.55       1.0671143    0.0050550896
      5767.31       1.0700113    0.0050955959
      5773.08       1.0778989    0.0050923897
      5778.85       1.0911134    0.0050444008
      5784.63       1.1025421    0.0050417581
      5790.41       1.1126252    0.0050393355
      5796.21       1.1296948    0.0050371150
      5802.00       1.1441848    0.0050351708
      5807.81       1.1596350    0.0050335903
      5813.61       1.1758768    0.0050324761
      5819.43       1.1851927    0.0050318902
      5825.25       1.1970690    0.0049873553
      5831.07       1.2052387    0.0049861540
      5836.90       1.2138590    0.0049854577
      5842.74       1.2121199    0.0049858528
      5848.58       1.2041537    0.0049881401
      5854.43       1.1908694    0.0049917461
      5860.29       1.1771493    0.0049956070
      5866.15       1.1654559    0.0050409749
      5872.01       1.1543782    0.0050461753
      5877.89       1.1553361    0.0050516560
      5883.76       1.1528822    0.0050126973
      5889.65       1.1539216    0.0050148911
      5895.54       1.1515543    0.0050164122
      5901.43       1.1508290    0.0050173899
      5907.34       1.1562971    0.0050176212
      5913.24       1.1587716    0.0050172203
      5919.16       1.1625864    0.0050167466
      5925.08       1.1684505    0.0050167738
      5931.00       1.1671304    0.0050171366
      5936.93       1.1689249    0.0050172270
      5942.87       1.1670714    0.0050167712
      5948.81       1.1645253    0.0050158473
      5954.76       1.1571561    0.0050148004
      5960.72       1.1493686    0.0050140129
      5966.68       1.1392723    0.0050130708
      5972.64       1.1291473    0.0050114517
      5978.62       1.1219592    0.0049669201
      5984.60       1.1170252    0.0049667127
      5990.58       1.1128748    0.0049674676
      5996.57       1.1039232    0.0049678015
      6002.57       1.0993038    0.0049679374
      6008.57       1.0938615    0.0049298504
      6014.58       1.0899748    0.0049318663
      6020.60       1.0884746    0.0049343073
      6026.62       1.0867805    0.0049370040
      6032.65       1.0849253    0.0049401153
      6038.68       1.0833569    0.0049436561
      6044.72       1.0792617    0.0049473148
      6050.76       1.0756874    0.0049510543
      6056.81       1.0772406    0.0049550257
      6062.87       1.0766253    0.0049592527
      6068.93       1.0745834    0.0049636494
      6075.00       1.0729874    0.0049682172
      6081.08       1.0703986    0.0049729159
      6087.16       1.0671516    0.0049778187
      6093.25       1.0640144    0.0049829041
      6099.34       1.0608856    0.0049881104
      6105.44       1.0590303    0.0049530191
      6111.54       1.0527452    0.0049581434
      6117.66       1.0472781    0.0049634443
      6123.78       1.0438616    0.0049688533
      6129.90       1.0398993    0.0049744276
      6136.03       1.0403283    0.0050230976
      6142.17       1.0417977    0.0050290754
      6148.31       1.0478782    0.0050351868
      6154.46       1.0546791    0.0050414848
      6160.61       1.0657313    0.0050479188
      6166.77       1.0819192    0.0050159625
      6172.94       1.1126314    0.0050221506
      6179.11       1.1522714    0.0050285294
      6185.29       1.1985205    0.0050350516
      6191.48       1.2517706    0.0050418829
      6197.67       1.3105327    0.0050493667
      6203.87       1.3744510    0.0050584076
      6210.07       1.4367663    0.0050681096
      6216.28       1.5015076    0.0050378520
      6222.50       1.5622579    0.0050460999
      6228.72       1.6130080    0.0050573045
      6234.95       1.6674473    0.0051147417
      6241.19       1.7159165    0.0051313930
      6247.42       1.7586172    0.0051503527
      6253.67       1.8001397    0.0051706199
      6259.93       1.8368248    0.0051532247
      6266.19       1.8645832    0.0051718866
      6272.46       1.8832424    0.0051884335
      6278.73       1.8969635    0.0052019877
      6285.01       1.9048430    0.0052119990
      6291.29       1.9111520    0.0051759566
      6297.58       1.9136961    0.0052211972
      6303.88       1.9032387    0.0052208865
      6310.19       1.8871194    0.0052203330
      6316.50       1.8633474    0.0052215418
      6322.81       1.8351685    0.0052261712
      6329.14       1.7977760    0.0051916446
      6335.47       1.7526766    0.0051954895
      6341.80       1.7032301    0.0052428389
      6348.14       1.6478211    0.0052494586
      6354.49       1.5987940    0.0052566563
      6360.85       1.5483403    0.0052246702
      6367.21       1.4977203    0.0052320227
      6373.57       1.4534215    0.0052400880
      6379.95       1.4093053    0.0052488860
      6386.33       1.3648173    0.0052647030
      6392.72       1.3234078    0.0052739091
      6399.11       1.2848813    0.0052839224
      6405.51       1.2509467    0.0052945607
      6411.92       1.2186133    0.0052680622
      6418.32       1.1911580    0.0052798976
      6424.74       1.1649132    0.0053362569
      6431.17       1.1458223    0.0053496514
      6437.60       1.1284608    0.0053275925
      6444.04       1.1136213    0.0053440531
      6450.48       1.0977542    0.0053600460
      6456.94       1.0811867    0.0054198251
      6463.39       1.0672161    0.0053961405
      6469.85       1.0531274    0.0054108701
      6476.33       1.0413314    0.0054251576
      6482.80       1.0261748    0.0054386907
      6489.28       1.0117090    0.0054543804
      6495.77       1.0037731    0.0054650473
      6502.27       1.0013168    0.0054759103
      6508.77       1.0030901    0.0054468818
      6515.28       1.0110562    0.0055031806
      6521.80       1.0159767    0.0055155203
      6528.32       1.0271766    0.0055285452
      6534.85       1.0424070    0.0055004709
      6541.38       1.0563178    0.0055114655
      6547.92       1.0685854    0.0055680189
      6554.47       1.0741228    0.0055391930
      6561.03       1.0739124    0.0055502547
      6567.59       1.0703205    0.0055622639
      6574.16       1.0629223    0.0055800446
      6580.73       1.0521344    0.0055899083
      6587.31       1.0380412    0.0056013392
      6593.90       1.0180617    0.0056219585
      6600.50      0.99686015    0.0056341810
      6607.10      0.97373475    0.0056471729
      6613.70      0.95600368    0.0056223392
      6620.32      0.94225284    0.0056825736
      6626.94      0.93086394    0.0056961387
      6633.57      0.92294974    0.0056712885
      6640.20      0.92078338    0.0056862788
      6646.84      0.91517823    0.0057460892
      6653.49      0.91760019    0.0057215041
      6660.14      0.92015623    0.0057369082
      6666.80      0.91852540    0.0057976275
      6673.47      0.91386733    0.0057729449
      6680.14      0.90787967    0.0057887490
      6686.82      0.90402887    0.0058101116
      6693.51      0.90009755    0.0058253397
      6700.20      0.89639365    0.0058415122
      6706.90      0.89029976    0.0058631551
      6713.61      0.88575173    0.0058787794
      6720.32      0.88241274    0.0058543194
      6727.05      0.87800998    0.0059170575
      6733.77      0.87411389    0.0059333027
      6740.51      0.87115636    0.0059082767
      6747.25      0.86684360    0.0059719840
      6754.00      0.86072002    0.0059480321
      6760.75      0.85952511    0.0059632038
      6767.51      0.85827443    0.0060279720
      6774.28      0.85559089    0.0060033773
      6781.05      0.85284516    0.0060212645
      6787.84      0.85483078    0.0060622290
      6794.62      0.85032188    0.0060952262
      6801.42      0.84498377    0.0060751974
      6808.22      0.84028808    0.0061340935
      6815.03      0.83606356    0.0061660621
      6821.85      0.83214939    0.0062420835
      6828.67      0.82923655    0.0063145211
      6835.50      0.82486648    0.0063721729
      6842.33      0.81983568    0.0065424132
      6849.17      0.82221551    0.0066150366
      6856.02      0.82277710    0.0067186560
      6862.88      0.82384732    0.0068372511
      6869.74      0.82107031    0.0069020310
      6876.61      0.82040856    0.0069479162
      6883.49      0.82391973    0.0069492603
      6890.37      0.82814015    0.0068625509
      6897.27      0.83385924    0.0068660740
      6904.16      0.83780971    0.0068129088
      6911.07      0.84328534    0.0067482524
      6917.98      0.84313243    0.0067216397
      6924.89      0.83779675    0.0067080397
      6931.82      0.83607620    0.0066845428
      6938.75      0.84033791    0.0066109670
      6945.69      0.84261184    0.0066508805
      6952.64      0.84319869    0.0066038439
      6959.59      0.84362348    0.0066079431
      6966.55      0.84456676    0.0066110094
      6973.52      0.84741327    0.0066264698
      6980.49      0.85201927    0.0066385454
      6987.47      0.85728218    0.0066639451
      6994.46      0.85949766    0.0066805186
      7001.46      0.86067844    0.0067066590
      7008.46      0.86539768    0.0067204923
      7015.46      0.87342236    0.0067412551
      7022.48      0.87900047    0.0067508805
      7029.51      0.88702692    0.0067188672
      7036.53      0.89036734    0.0067815744
      7043.57      0.89382992    0.0067523627
      7050.62      0.89093220    0.0067721050
      7057.66      0.89318672    0.0067868431
      7064.72      0.89463796    0.0068075575
      7071.79      0.89651875    0.0068245737
      7078.86      0.89776837    0.0068484489
      7085.94      0.89883135    0.0068706631
      7093.03      0.90141122    0.0069031173
      7100.12      0.90469928    0.0068838525
      7107.22      0.90645481    0.0069653364
      7114.33      0.91446366    0.0070058927
      7121.44      0.93220967    0.0070427910
      7128.56      0.94972493    0.0071059134
      7135.69      0.97318153    0.0071335029
      7142.83       1.0012381    0.0072710259
      7149.97       1.0399282    0.0073292573
      7157.12       1.0826731    0.0074842376
      7164.28       1.1301500    0.0075230319
      7171.44       1.1816398    0.0076082560
      7178.62       1.2325689    0.0076549310
      7185.80       1.2861857    0.0077039083
      7192.98       1.3365999    0.0077366627
      7200.17       1.3806889    0.0077447640
      7207.38       1.4233095    0.0077544569
      7214.58       1.4590167    0.0077603002
      7221.80       1.4867488    0.0077837078
      7229.02       1.4994902    0.0077611140
      7236.25       1.5034524    0.0078512947
      7243.49       1.4946333    0.0078919936
      7250.73       1.4914863    0.0078603067
      7257.98       1.4883006    0.0079313298
      7265.24       1.4750478    0.0078784135
      7272.51       1.4556487    0.0078696687
      7279.78       1.4351414    0.0079172544
      7287.06       1.4180055    0.0078606432
      7294.35       1.4029215    0.0078535179
      7301.64       1.3864940    0.0077854456
      7308.94       1.3702125    0.0078232694
      7316.25       1.3529212    0.0078067492
      7323.57       1.3370148    0.0077438801
      7330.89       1.3201720    0.0077925417
      7338.22       1.3067175    0.0077911073
      7345.56       1.2905532    0.0077424473
      7352.91       1.2700429    0.0078046526
      7360.26       1.2440436    0.0077636835
      7367.62       1.2077831    0.0077808218
      7374.99       1.1736258    0.0077973374
      7382.37       1.1449327    0.0078054879
      7389.75       1.1258976    0.0078221926
      7397.14       1.1013571    0.0078419661
      7404.53       1.0646473    0.0078072785
      7411.94       1.0341882    0.0078786663
      7419.35       1.0086751    0.0079040482
      7426.77      0.99090281    0.0078730700
      7434.20      0.97228125    0.0078985036
      7441.63      0.94806604    0.0079746540
      7449.07      0.92780850    0.0079467943
      7456.52      0.91224287    0.0079748764
      7463.98      0.90076682    0.0080038448
      7471.45      0.88768403    0.0080831648
      7478.92      0.86998273    0.0080558622
      7486.40      0.85567245    0.0080858790
      7493.88      0.84663594    0.0081178115
      7501.38      0.84028511    0.0081053769
      7508.88      0.82853317    0.0082330201
      7516.39      0.82221667    0.0083632701
      7523.91      0.81390574    0.0084622790
      7531.43      0.80168470    0.0083855593
      7538.96      0.78881216    0.0084560334
      7546.50      0.78037277    0.0086732856
      7554.05      0.78183569    0.0089882998
      7561.60      0.78130989    0.0093522876
      7569.16      0.77905269    0.0099284084
      7576.73      0.76908032     0.010609916
      7584.31      0.75914456     0.011325509
      7591.89      0.76667220     0.011913270
      7599.49      0.77578453     0.012572654
      7607.09      0.77943896     0.013004906
      7614.70      0.77071736     0.013098336
      7622.31      0.77774565     0.012770614
      7629.93      0.79598346     0.012296157
      7637.56      0.80922679     0.011809093
      7645.20      0.80985579     0.011134099
      7652.85      0.79873474     0.010539931
      7660.50      0.77794277     0.010097049
      7668.16      0.75946360    0.0097376513
      7675.83      0.74847617    0.0094353741
      7683.50      0.74444492    0.0092393038
      7691.19      0.74491263    0.0091465976
      7698.88      0.74053492    0.0090934858
      7706.58      0.73228224    0.0090318279
      7714.29      0.72253994    0.0089893869
      7722.00      0.71654897    0.0089682335
      7729.73      0.71862784    0.0089652710
      7737.45      0.72681053    0.0089179497
      7745.19      0.72993312    0.0089352638
      7752.94      0.73425822    0.0089589649
      7760.69      0.73913472    0.0089859620
      7768.45      0.74305310    0.0090152188
      7776.22      0.74844520    0.0090466965
      7784.00      0.75104204    0.0091314560
      7791.78      0.75023004    0.0090988339
      7799.57      0.74631511    0.0091307881
      7807.37      0.73773401    0.0091634092
      7815.18      0.73249163    0.0091960509
      7822.99      0.72425565    0.0092293439
      7830.82      0.71805373    0.0092645638
      7838.65      0.71808425    0.0093017536
      7846.49      0.71520642    0.0093400143
      7854.34      0.70776125    0.0093143382
      7862.19      0.69746321    0.0093553177
      7870.05      0.68518321    0.0093969485
      7877.93      0.68064773    0.0094357272
      7885.80      0.68460008    0.0094705860
      7893.69      0.68403299    0.0095037714
      7901.58      0.68377226    0.0095360961
      7909.49      0.67662182    0.0095679097
      7917.40      0.66936706    0.0095992834
      7925.31      0.66757320    0.0096299347
      7933.24      0.66479935    0.0096608973
      7941.17      0.66485675    0.0096266649
      7949.11      0.66901379    0.0096604392
      7957.06      0.66640012    0.0096954279
      7965.02      0.66704978    0.0097298593
      7972.98      0.66705130    0.0097643714
      7980.96      0.66802581    0.0097985593
      7988.94      0.67838222    0.0098312001
      7996.93      0.68308112    0.0098614154
      8004.93      0.67809100    0.0098908382
      8012.93      0.67694533    0.0099214207
      8020.95      0.67512018    0.0099529341
      8028.97      0.67772291    0.0099826807
      8036.99      0.68850489     0.010012373
      8045.03      0.69600501    0.0099929908
      8053.08      0.69074827     0.010032149
      8061.13      0.67681036     0.010078149
      8069.20      0.66564444     0.010133208
      8077.26      0.65875995     0.010195352
      8085.34      0.65593104     0.010268943
      8093.43      0.65696610     0.010360438
      8101.52      0.65596280     0.010470158
      8109.62      0.65493673     0.010592893
      8117.73      0.64907724     0.010724342
      8125.85      0.63801549     0.010867901
      8133.98      0.62859574     0.011017368
      8142.11      0.62309042     0.011076417
      8150.25      0.60522605     0.011140183
      8158.41      0.59079994     0.011187273
      8166.56      0.59385298     0.011226988
      8174.73      0.59786366     0.011254781
      8182.91      0.59667819     0.011274172
      8191.09      0.59875503     0.011283932
      8199.28      0.59266226     0.011219189
      8207.48      0.58996524     0.011216432
      8215.69      0.59778041     0.011292429
      8223.91      0.60181174     0.011306080
      8232.13      0.60724500     0.011315710
      8240.36      0.60245995     0.011317254
      8248.60      0.58985875     0.011315977
      8256.85      0.59692587     0.011244523
      8265.11      0.60905567     0.011237386
      8273.37      0.60351068     0.011232907
      8281.65      0.59747063     0.011248039
      8289.93      0.59845938     0.011279947
      8298.22      0.59769207     0.011220414
      8306.52      0.59249755     0.011256361
      8314.83      0.59061252     0.011232608
      8323.14      0.59247031     0.011216253
      8331.46      0.58916072     0.011202982
      8339.80      0.59232713     0.011130282
      8348.13      0.59974835     0.011127473
      8356.48      0.61221810     0.011121993
      8364.84      0.62134622     0.011119839
      8373.21      0.62502058     0.011130032
      8381.58      0.61495969     0.011141227
      8389.96      0.61445990     0.011154583
      8398.35      0.61563957     0.011167776
      8406.75      0.61856967     0.011183733
      8415.16      0.63631041     0.011140183
      8423.57      0.64674582     0.011231513
      8432.00      0.62644254     0.011253526
      8440.43      0.61082826     0.011277412
      8448.87      0.60327610     0.011241523
      8457.32      0.60404200     0.011268154
      8465.78      0.59638908     0.011366682
      8474.25      0.59319472     0.011333253
      8482.72      0.59091084     0.011362241
      8491.20      0.59441041     0.011391422
      8499.69      0.60298698     0.011421269
      8508.19      0.61134322     0.011456168
      8516.70      0.62415352     0.011482295
      8525.22      0.64207756     0.011508276
      8533.75      0.67569220     0.011468563
      8542.28      0.70916339     0.011492250
      8550.82      0.75944651     0.011589328
      8559.37      0.79767515     0.011550972
      8567.93      0.82798671     0.011575209
      8576.50      0.85825914     0.011599283
      8585.08      0.87836542     0.011633516
      8593.66      0.89233793     0.011657995
      8602.26      0.92044127     0.011684832
      8610.86      0.94686129     0.011650767
      8619.47      0.97114996     0.011750227
      8628.09      0.98081651     0.011777300
      8636.72      0.98380119     0.011742260
      8645.36      0.97806959     0.011842184
      8654.00      0.97624953     0.011804537
      8662.66      0.98061762     0.011830659
      8671.32       1.0062175     0.011857157
      8679.99       1.0375458     0.011888778
      8688.67       1.0566751     0.011913281
      8697.36       1.0550963     0.011938779
      8706.06       1.0323432     0.011969829
      8714.76       1.0290821     0.011995237
      8723.48       1.0255406     0.011956008
      8732.21       1.0148515     0.012055420
      8740.93      0.99549785     0.012081891
      8749.68      0.97281783     0.012042348
      8758.43      0.96336078     0.012143739
      8767.19      0.93508048     0.012105616
      8775.96      0.89683142     0.012131410
      8784.73      0.85140168     0.012168419
      8793.52      0.81822164     0.012193364
      8802.31      0.78172215     0.012155886
      8811.11      0.74417237     0.012256039
      8819.92      0.72380479     0.012282651
      8828.75      0.71339462     0.012248262
      8837.57      0.71209045     0.012349429
      8846.41      0.69002183     0.012318664
      8855.26      0.65556382     0.012428717
      8864.12      0.61792007     0.012409412
      8872.98      0.59346650     0.012453087
      8881.85      0.59824602     0.012522110
      8890.73      0.59328612     0.012596387
      8899.63      0.57131024     0.012701885
      8908.52      0.55485348     0.012809288
      8917.43      0.55680879     0.012896002
      8926.35      0.56305235     0.013145790
      8935.28      0.54706784     0.013277355
      8944.22      0.53334909     0.013563237
      8953.16      0.52222573     0.013706164
      8962.11      0.51903911     0.013978023
      8971.08      0.51201983     0.014045587
      8980.05      0.50898594     0.014119479
      8989.03      0.51702592     0.014140949
      8998.02      0.52022832     0.014037607
      9007.02      0.51904662     0.014061308
      9016.02      0.51619627     0.013945948
      9025.04      0.51040008     0.014003926
      9034.07      0.49823132     0.013948379
      9043.10      0.49694844     0.014050480
      9052.14      0.49090831     0.014046499
      9061.20      0.47338375     0.014227491
      9070.26      0.45185138     0.014242759
      9079.33      0.44422475     0.014347852
      9088.41      0.44471877     0.014414282
      9097.50      0.43972358     0.014469349
      9106.60      0.43723737     0.014494834
      9115.70      0.44550613     0.014517373
      9124.82      0.46013805     0.014442498
      9133.94      0.47633153     0.014528469
      9143.08      0.48345511     0.014424185
      9152.22      0.48008370     0.014362870
      9161.37      0.48588838     0.014288080
      9170.54      0.49152884     0.014204666
      9179.71      0.50228604     0.014143123
      9188.89      0.51612570     0.014081635
      9198.08      0.53023379     0.014065862
      9207.28      0.52859239     0.014081207
      9216.48      0.50564410     0.014143278
      9225.70      0.48433109     0.014197197
      9234.92      0.46938088     0.014433041
      9244.16      0.45611588     0.014615801
      9253.40      0.44391530     0.015011914
      9262.66      0.43802855     0.015595369
      9271.92      0.43647200     0.016156210
      9281.20      0.44094290     0.017041385
      9290.48      0.44691644     0.017859181
      9299.77      0.44390014     0.018958825
      9309.07      0.43075419     0.020059414
      9318.38      0.39972279     0.020780773
      9327.69      0.38915151     0.021557002
      9337.02      0.40393728     0.021690067
      9346.36      0.40694740     0.021650755
      9355.71      0.41054820     0.021546991
      9365.07      0.39049484     0.020947908
      9374.43      0.36895570     0.020471414
      9383.80      0.33761038     0.020116438
      9393.19      0.30190659     0.019958122
      9402.58      0.30639021     0.019883034
      9411.98      0.32790169     0.020005767
      9421.40      0.33645250     0.020020505
      9430.82      0.34717957     0.020248310
      9440.25      0.38863551     0.020381972
      9449.69      0.39671268     0.020296467
      9459.14      0.38632643     0.020150933
      9468.60      0.40994281     0.019911436
      9478.07      0.41506371     0.019781175
      9487.55      0.42576690     0.019639173
      9497.04      0.43445823     0.019466369
      9506.53      0.44750709     0.019228549
      9516.04      0.43535678     0.019089972
      9525.56      0.41498131     0.019031295
      9535.08      0.40137666     0.018860749
      9544.62      0.39475418     0.018577093
      9554.16      0.39026887     0.018365576
      9563.72      0.39166392     0.018130649
      9573.29      0.38915659     0.017803291
      9582.85      0.38007827     0.017470678
      9592.44      0.36855237     0.017034222
      9602.03      0.37049916     0.016787040
      9611.63      0.38629340     0.016333238
      9621.25      0.39268475     0.015991859
      9630.87      0.39970492     0.015551239
      9640.50      0.38747854     0.015217348
      9650.14      0.38768478     0.014800167
      9659.79      0.40626824     0.014524969
      9669.45      0.40669108     0.014228571
      9679.12      0.40320204     0.013985716
      9688.80      0.40507327     0.013881228
      9698.49      0.40592799     0.013692396
      9708.19      0.40573107     0.013598551
      9717.90      0.40555171     0.013464533
      9727.62      0.41045152     0.013387896
      9737.34      0.41668156     0.013258695
      9747.08      0.42502002     0.013181483
      9756.83      0.42995538     0.013086978
      9766.59      0.41753626     0.012926774
      9776.35      0.41757459     0.012808491
      9786.13      0.42357828     0.012627038
      9795.92      0.41765605     0.012451936
      9805.71      0.42484995     0.012341411
      9815.52      0.43660769     0.012219059
      9825.34      0.44592996     0.012070616
      9835.17      0.45215358     0.011983990
      9845.00      0.45021201     0.011857730
      9854.84      0.44633980     0.011740265
      9864.70      0.44395442     0.011710168
      9874.56      0.44456395     0.011601251
      9884.44      0.44197336     0.011496034
      9894.32      0.44375944     0.011436927
      9904.22      0.44327262     0.011346203
      9914.13      0.43380487     0.011299627
      9924.04      0.42113993     0.011216857
      9933.96      0.41335867     0.011172686
      9943.90      0.40390726     0.011093664
      9953.84      0.39725974     0.011019907
      9963.79      0.39440586     0.010983522
      9973.76      0.39062759     0.010947114
      9983.74      0.38487312     0.010877954
      9993.72      0.38873108     0.010810142
