# starting wavelength =        3205.0500
# ending wavelength =        10184.300
# O2 telluric scale =        0
# O2 telluric shift =        0
# H2O telluric scale =        0
# H2O telluric shift =        0
      3207.44     0.038159156     0.012893481
      3210.64     0.044678667     0.010517333
      3213.85     0.050715152    0.0090612105
      3217.07     0.054279719    0.0082648555
      3220.28     0.058069174    0.0073209515
      3223.51     0.058879019    0.0065900408
      3226.73     0.060344634    0.0058530750
      3229.96     0.063790240    0.0054441574
      3233.19     0.065713902    0.0052145656
      3236.42     0.069400440    0.0049401591
      3239.66     0.074080181    0.0046773755
      3242.90     0.073040662    0.0045104320
      3246.14     0.077758177    0.0043700011
      3249.39     0.080936450    0.0042919485
      3252.64     0.080940419    0.0041830540
      3255.89     0.083095993    0.0041040008
      3259.14     0.082334594    0.0040222637
      3262.40     0.082919493    0.0039481848
      3265.67     0.083603531    0.0039112183
      3268.93     0.083196656    0.0038784646
      3272.20     0.083094275    0.0039075450
      3275.47     0.084856592    0.0039067002
      3278.75     0.084218318    0.0038736798
      3282.03     0.085648842    0.0039028854
      3285.31     0.085937468    0.0039021577
      3288.60     0.084496700    0.0038994825
      3291.88     0.083543433    0.0038982021
      3295.18     0.081407017    0.0038975901
      3298.47     0.079666574    0.0038946926
      3301.77     0.079780511    0.0038935029
      3305.07     0.080657191    0.0039240363
      3308.38     0.079810228    0.0039222259
      3311.69     0.079659408    0.0038887734
      3315.00     0.078789962    0.0039191229
      3318.31     0.075663264    0.0039174323
      3321.63     0.075764608    0.0039166396
      3324.95     0.075125432    0.0039142938
      3328.28     0.075812901    0.0039125546
      3331.61     0.075288621    0.0039434402
      3334.94     0.075975183    0.0039094286
      3338.27     0.077324963    0.0039395836
      3341.61     0.078700975    0.0039385172
      3344.95     0.081273316    0.0039046334
      3348.30     0.087279093    0.0039346873
      3351.65     0.090308742    0.0039335735
      3355.00     0.096161641    0.0039330284
      3358.35     0.099494657    0.0039298126
      3361.71      0.10492426    0.0039285814
      3365.07      0.11166015    0.0039605376
      3368.44      0.11619010    0.0039586740
      3371.81      0.11942446    0.0039235798
      3375.18      0.12501016    0.0039557433
      3378.56      0.13095308    0.0039536920
      3381.94      0.13458864    0.0039185129
      3385.32      0.14022201    0.0039509535
      3388.70      0.14490087    0.0039487852
      3392.09      0.14866769    0.0039471581
      3395.48      0.15304534    0.0039462400
      3398.88      0.15553777    0.0039439239
      3402.28      0.15970904    0.0039421291
      3405.68      0.15994582    0.0039740821
      3409.09      0.15825150    0.0039733483
      3412.49      0.15929458    0.0039703012
      3415.91      0.16212165    0.0039688005
      3419.32      0.16351442    0.0039678648
      3422.74      0.16375562    0.0040007215
      3426.17      0.16464009    0.0039636490
      3429.59      0.16556289    0.0039623991
      3433.02      0.16560186    0.0039958871
      3436.45      0.16832779    0.0039938601
      3439.89      0.16871744    0.0039570877
      3443.33      0.16921995    0.0039912322
      3446.78      0.17043098    0.0039889466
      3450.22      0.17268370    0.0039871376
      3453.67      0.17349243    0.0040205113
      3457.13      0.17609171    0.0039841782
      3460.58      0.17932182    0.0039820354
      3464.04      0.18030400    0.0040150145
      3467.51      0.18194232    0.0040138600
      3470.98      0.18538254    0.0040131516
      3474.45      0.18792240    0.0040098410
      3477.92      0.18903715    0.0040082448
      3481.40      0.19047846    0.0040071296
      3484.88      0.19066430    0.0040064361
      3488.37      0.19338164    0.0040399958
      3491.86      0.19403252    0.0040013885
      3495.35      0.19281791    0.0040003116
      3498.84      0.19235196    0.0040350952
      3502.34      0.19322424    0.0040331235
      3505.84      0.19422526    0.0040315641
      3509.35      0.19385061    0.0040306013
      3512.86      0.19369598    0.0040281667
      3516.37      0.19136956    0.0040261228
      3519.89      0.19255011    0.0040608457
      3523.41      0.19442434    0.0040596676
      3526.93      0.19507450    0.0040589555
      3530.46      0.19567721    0.0040192434
      3533.99      0.19694465    0.0040537604
      3537.53      0.19967086    0.0040523991
      3541.06      0.20079071    0.0040514706
      3544.60      0.20133760    0.0040874370
      3548.15      0.20430597    0.0040856106
      3551.70      0.20788282    0.0040451937
      3555.25      0.20937180    0.0040440763
      3558.80      0.20993483    0.0040805692
      3562.36      0.21321763    0.0040785097
      3565.92      0.21319387    0.0040767802
      3569.49      0.21322321    0.0041135297
      3573.06      0.21338599    0.0040738211
      3576.64      0.21488574    0.0040715476
      3580.21      0.21472265    0.0040696569
      3583.79      0.21428533    0.0041060157
      3587.38      0.21169188    0.0041047259
      3590.96      0.21139927    0.0041037292
      3594.55      0.20888233    0.0041031844
      3598.15      0.20666404    0.0040985669
      3601.75      0.20726027    0.0040970232
      3605.35      0.20671335    0.0040957747
      3608.96      0.20560230    0.0041349198
      3612.56      0.20528650    0.0041325650
      3616.18      0.20340341    0.0041305741
      3619.79      0.20303908    0.0041289293
      3623.41      0.20357879    0.0041675797
      3627.04      0.20484508    0.0041259686
      3630.66      0.20594289    0.0041236196
      3634.29      0.20596984    0.0041216026
      3637.93      0.20852606    0.0041596783
      3641.57      0.20948704    0.0041580949
      3645.21      0.21084135    0.0041568496
      3648.86      0.21360292    0.0041559055
      3652.50      0.21421769    0.0041957238
      3656.16      0.21459176    0.0041938163
      3659.81      0.21605826    0.0041920545
      3663.47      0.21552678    0.0041472154
      3667.14      0.21430663    0.0041893369
      3670.80      0.21391805    0.0041868694
      3674.48      0.21248635    0.0041846089
      3678.15      0.20895335    0.0041825597
      3681.83      0.20698497    0.0041808809
      3685.51      0.20177504    0.0042213514
      3689.20      0.19754704    0.0042201013
      3692.88      0.19298465    0.0042189375
      3696.58      0.18863130    0.0042180454
      3700.27      0.18154770    0.0042594019
      3703.98      0.17401429    0.0042575267
      3707.68      0.16866259    0.0042098824
      3711.39      0.15994116    0.0042083100
      3715.10      0.15344387    0.0042070565
      3718.81      0.14878904    0.0042506314
      3722.53      0.14481979    0.0042482343
      3726.26      0.14051696    0.0042460879
      3729.98      0.13576192    0.0042441902
      3733.71      0.13165915    0.0042868687
      3737.45      0.12907200    0.0042852822
      3741.18      0.12761414    0.0042838346
      3744.93      0.12677539    0.0042825810
      3748.67      0.12665780    0.0042814650
      3752.42      0.12632087    0.0043261060
      3756.17      0.12551271    0.0043240520
      3759.93      0.12453309    0.0043220005
      3763.69      0.12284803    0.0043202639
      3767.45      0.12305461    0.0043185944
      3771.22      0.12370730    0.0043642281
      3774.99      0.12256258    0.0043629300
      3778.77      0.12552055    0.0043616939
      3782.54      0.13017298    0.0043108316
      3786.33      0.13313442    0.0043085035
      3790.11      0.13716407    0.0043064547
      3793.90      0.14441336    0.0043514273
      3797.70      0.15058114    0.0043495324
      3801.50      0.15882241    0.0043478495
      3805.30      0.17215873    0.0043462129
      3809.10      0.18647902    0.0043446560
      3812.91      0.20013956    0.0043951008
      3816.73      0.21629685    0.0043925422
      3820.54      0.23276244    0.0043901679
      3824.36      0.25213621    0.0043879355
      3828.19      0.27324034    0.0043857650
      3832.02      0.29330110    0.0043837392
      3835.85      0.31349229    0.0044315826
      3839.68      0.33359346    0.0044297094
      3843.52      0.35368018    0.0044278383
      3847.37      0.37479151    0.0044259394
      3851.22      0.39522800    0.0044243122
      3855.07      0.41478675    0.0044226608
      3858.92      0.43237219    0.0044770628
      3862.78      0.44993231    0.0044745318
      3866.64      0.46452564    0.0044720664
      3870.51      0.47684304    0.0044697407
      3874.38      0.48827417    0.0044673766
      3878.26      0.50048242    0.0045232023
      3882.13      0.51166911    0.0045218598
      3886.02      0.52394831    0.0045741700
      3889.90      0.53456368    0.0045718452
      3893.79      0.54472545    0.0045698066
      3897.69      0.55390962    0.0045677315
      3901.59      0.56426018    0.0045656209
      3905.49      0.57629946    0.0045637535
      3909.39      0.58598636    0.0045618444
      3913.30      0.59701018    0.0045599150
      3917.22      0.60759424    0.0045579221
      3921.13      0.61790451    0.0044961959
      3925.06      0.62826132    0.0044943265
      3928.98      0.63458708    0.0044924336
      3932.91      0.64107165    0.0044905845
      3936.84      0.64553439    0.0044888099
      3940.78      0.65285060    0.0044868927
      3944.72      0.65928258    0.0044850090
      3948.67      0.66691591    0.0044830744
      3952.61      0.67606241    0.0044811969
      3956.57      0.68661252    0.0044793559
      3960.52      0.69696043    0.0044774483
      3964.48      0.70621959    0.0044755978
      3968.45      0.71509759    0.0044736452
      3972.42      0.72567278    0.0044716137
      3976.39      0.73798890    0.0044696256
      3980.37      0.74831074    0.0044675731
      3984.35      0.75882290    0.0044655941
      3988.33      0.76841562    0.0044636500
      3992.32      0.77553670    0.0044616524
      3996.31      0.78055554    0.0044595238
      4000.31      0.77978558    0.0044573379
      4004.31      0.77595303    0.0044552273
      4008.31      0.77143267    0.0044531492
      4012.32      0.76416748    0.0044510038
      4016.33      0.75722631    0.0044489343
      4020.35      0.74618488    0.0044467434
      4024.37      0.73560466    0.0044444713
      4028.40      0.72125394    0.0044422534
      4032.42      0.70735232    0.0044399563
      4036.46      0.69329827    0.0044377042
      4040.50      0.67774503    0.0044354962
      4044.54      0.66486166    0.0044332244
      4048.58      0.65409610    0.0044310238
      4052.63      0.64254449    0.0044286499
      4056.68      0.63130977    0.0044263471
      4060.74      0.62204044    0.0044240957
      4064.80      0.61158620    0.0044217791
      4068.86      0.60147891    0.0044195219
      4072.93      0.58891954    0.0043651740
      4077.01      0.57427387    0.0043629521
      4081.08      0.56287126    0.0043606994
      4085.17      0.55155129    0.0043585068
      4089.25      0.53945506    0.0043564128
      4093.34      0.52791842    0.0043542496
      4097.43      0.51599900    0.0043521847
      4101.53      0.50418173    0.0043501243
      4105.63      0.49139334    0.0043480644
      4109.74      0.48225038    0.0043461192
      4113.85      0.47389550    0.0043441322
      4117.96      0.46466815    0.0043422694
      4122.08      0.45824208    0.0043405170
      4126.20      0.45160999    0.0043387614
      4130.33      0.44542352    0.0042839959
      4134.46      0.44230749    0.0042814772
      4138.59      0.43892083    0.0042789379
      4142.73      0.43486955    0.0042766300
      4146.88      0.43125467    0.0042742954
      4151.02      0.42847600    0.0042719895
      4155.18      0.42634707    0.0042698779
      4159.33      0.42660245    0.0043214768
      4163.49      0.42836933    0.0043194108
      4167.65      0.43067766    0.0043175058
      4171.82      0.43292257    0.0042658107
      4175.99      0.43510230    0.0042628575
      4180.17      0.43739895    0.0042601176
      4184.35      0.44291936    0.0042572996
      4188.54      0.44866149    0.0042547685
      4192.72      0.45531787    0.0042522672
      4196.92      0.45879048    0.0042498293
      4201.11      0.46226655    0.0042476968
      4205.31      0.46525300    0.0042456040
      4209.52      0.46869721    0.0041957635
      4213.73      0.47256218    0.0042457552
      4217.94      0.47401014    0.0042426461
      4222.16      0.47439787    0.0042396054
      4226.38      0.47429016    0.0042369076
      4230.61      0.47295079    0.0042343059
      4234.84      0.47245545    0.0042318526
      4239.08      0.47428967    0.0041818448
      4243.32      0.47428223    0.0041797488
      4247.56      0.47533398    0.0041778827
      4251.81      0.47578515    0.0041762548
      4256.06      0.47493781    0.0042239139
      4260.32      0.47770826    0.0042209868
      4264.58      0.48245612    0.0042182330
      4268.84      0.48693702    0.0041681522
      4273.11      0.48998285    0.0041659359
      4277.38      0.49196064    0.0041639917
      4281.66      0.49417777    0.0041622311
      4285.94      0.49733093    0.0041607679
      4290.23      0.49994148    0.0041595316
      4294.52      0.50154927    0.0041567507
      4298.81      0.50167160    0.0041542682
      4303.11      0.50149433    0.0041521075
      4307.42      0.49953278    0.0041501655
      4311.72      0.49775733    0.0041485683
      4316.04      0.49799074    0.0041472450
      4320.35      0.49775603    0.0040960471
      4324.67      0.49521660    0.0041425505
      4329.00      0.49188409    0.0041402912
      4333.33      0.48729826    0.0041382938
      4337.66      0.48303203    0.0041366913
      4342.00      0.48046490    0.0040871740
      4346.34      0.47695036    0.0040842877
      4350.69      0.47308921    0.0040816867
      4355.04      0.46781396    0.0041284405
      4359.39      0.46428855    0.0041265488
      4363.75      0.45973527    0.0040781517
      4368.12      0.45677896    0.0040750279
      4372.48      0.45386355    0.0040722583
      4376.86      0.45028088    0.0040698320
      4381.23      0.44761133    0.0041166680
      4385.61      0.44589722    0.0040688926
      4390.00      0.44555492    0.0040655135
      4394.39      0.44829050    0.0040626490
      4398.79      0.45092276    0.0040601967
      4403.18      0.45491748    0.0040144143
      4407.59      0.45924440    0.0040591658
      4412.00      0.46514028    0.0040557682
      4416.41      0.47443596    0.0040528360
      4420.82      0.48617941    0.0040504715
      4425.25      0.49968313    0.0040049037
      4429.67      0.51435428    0.0040490718
      4434.10      0.53208799    0.0040457290
      4438.54      0.55251501    0.0040429567
      4442.97      0.57456814    0.0039971544
      4447.42      0.59754653    0.0039954963
      4451.86      0.62272493    0.0040386168
      4456.32      0.64888628    0.0040355877
      4460.77      0.67531130    0.0039896181
      4465.24      0.70237659    0.0039877290
      4469.70      0.72990112    0.0039864998
      4474.17      0.75878676    0.0040281150
      4478.65      0.78690775    0.0039820078
      4483.12      0.81516714    0.0039801363
      4487.61      0.84346507    0.0039788247
      4492.09      0.87181760    0.0039770672
      4496.59      0.89929747    0.0039744510
      4501.08      0.92658162    0.0039725532
      4505.58      0.95209627    0.0039711986
      4510.09      0.97808153    0.0039245584
      4514.60       1.0047911    0.0039669273
      4519.12       1.0318666    0.0039650392
      4523.63       1.0605023    0.0039638083
      4528.16       1.0917199    0.0039169411
      4532.69       1.1216595    0.0039592834
      4537.22       1.1507857    0.0039574829
      4541.76       1.1798769    0.0039121180
      4546.30       1.2083140    0.0039092112
      4550.85       1.2351501    0.0039516832
      4555.40       1.2618516    0.0039075864
      4559.95       1.2851298    0.0039041788
      4564.51       1.3066166    0.0039015171
      4569.08       1.3288465    0.0039442697
      4573.65       1.3478477    0.0038993372
      4578.22       1.3649992    0.0038962870
      4582.80       1.3780340    0.0038940695
      4587.38       1.3888842    0.0038945336
      4591.97       1.3951034    0.0038911181
      4596.56       1.3994729    0.0038885412
      4601.16       1.4007406    0.0038896472
      4605.76       1.3991582    0.0038859358
      4610.37       1.3963337    0.0038831273
      4614.98       1.3899353    0.0038410956
      4619.59       1.3779518    0.0038808117
      4624.21       1.3632893    0.0038777632
      4628.84       1.3458590    0.0038354939
      4633.47       1.3273161    0.0038755341
      4638.10       1.3058022    0.0038723738
      4642.74       1.2820538    0.0038300789
      4647.38       1.2546231    0.0038703035
      4652.03       1.2293361    0.0038669227
      4656.68       1.2051161    0.0038246058
      4661.34       1.1811203    0.0038233650
      4666.00       1.1575065    0.0038614702
      4670.67       1.1343218    0.0038192246
      4675.33       1.1117465    0.0038180207
      4680.01       1.0898528    0.0038159713
      4684.69       1.0693782    0.0038137748
      4689.38       1.0490581    0.0038127265
      4694.07       1.0285551    0.0038105280
      4698.76       1.0092204    0.0038084955
      4703.46      0.98978159    0.0038075357
      4708.16      0.97103030    0.0038049946
      4712.87      0.95307320    0.0038031203
      4717.58      0.93571828    0.0037611883
      4722.30      0.91788072    0.0037995395
      4727.03      0.89905819    0.0037979615
      4731.75      0.87894095    0.0037555185
      4736.48      0.85870881    0.0037940935
      4741.22      0.83956397    0.0037530989
      4745.96      0.82335555    0.0037498772
      4750.71      0.80833065    0.0037888268
      4755.46      0.79578654    0.0037471840
      4760.22      0.78563489    0.0037442976
      4764.97      0.77645371    0.0037449232
      4769.74      0.77140799    0.0037413546
      4774.51      0.76893638    0.0037798858
      4779.29      0.77011139    0.0037387093
      4784.07      0.77162688    0.0037357029
      4788.85      0.77740844    0.0037365350
      4793.64      0.78241481    0.0037327053
      4798.43      0.78848371    0.0037303353
      4803.23      0.79648374    0.0037301286
      4808.03      0.80270670    0.0037269971
      4812.84      0.80768869    0.0037277029
      4817.66      0.81088059    0.0037238879
      4822.48      0.81236001    0.0036846295
      4827.30      0.81283235    0.0037211066
      4832.12      0.81402129    0.0037182051
      4836.96      0.81433583    0.0036798879
      4841.79      0.81551854    0.0037150464
      4846.63      0.81697217    0.0036761586
      4851.48      0.81981663    0.0037120548
      4856.33      0.82560199    0.0036727076
      4861.19      0.83416458    0.0037092790
      4866.05      0.84859010    0.0036693569
      4870.92      0.86568182    0.0036679059
      4875.79      0.88682331    0.0036661209
      4880.66      0.90977202    0.0036643987
      4885.55      0.93832515    0.0036631368
      4890.43      0.96722001    0.0036608151
      4895.32      0.99525526    0.0036602627
      4900.22       1.0260518    0.0036574649
      4905.12       1.0513540    0.0036565617
      4910.02       1.0766333    0.0036541896
      4914.94       1.0942123    0.0036529470
      4919.85       1.1092404    0.0036509347
      4924.77       1.1173548    0.0036493823
      4929.70       1.1194099    0.0036098333
      4934.62       1.1172123    0.0036459225
      4939.56       1.1070799    0.0036067007
      4944.50       1.0904790    0.0036425283
      4949.44       1.0688203    0.0036034888
      4954.39       1.0436172    0.0036390778
      4959.35       1.0143586    0.0036003847
      4964.31      0.98266141    0.0036358325
      4969.27      0.95152955    0.0035972153
      4974.24      0.92021110    0.0036324573
      4979.22      0.89031059    0.0035940066
      4984.20      0.86361940    0.0035916092
      4989.18      0.83686021    0.0035908415
      4994.17      0.81558446    0.0035883729
      4999.16      0.79677968    0.0035875611
      5004.16      0.78292204    0.0035507893
      5009.17      0.77234252    0.0035842945
      5014.18      0.76698595    0.0035476274
      5019.19      0.76653557    0.0035810666
      5024.21      0.77038687    0.0035444468
      5029.23      0.77656901    0.0035776971
      5034.26      0.78486162    0.0035412713
      5039.30      0.79471255    0.0035743634
      5044.34      0.80800572    0.0035382299
      5049.39      0.82094781    0.0035710665
      5054.43      0.83331336    0.0035350497
      5059.49      0.84732487    0.0035676761
      5064.55      0.86175948    0.0035320562
      5069.61      0.87528765    0.0035304016
      5074.68      0.88806022    0.0035290730
      5079.76      0.90072974    0.0035270969
      5084.84      0.91327216    0.0035261666
      5089.92      0.92489440    0.0035239651
      5095.01      0.93552378    0.0035234109
      5100.11      0.94426897    0.0035208778
      5105.21      0.95290312    0.0034847250
      5110.31      0.96080480    0.0035178661
      5115.42      0.96961805    0.0035164407
      5120.54      0.97793965    0.0035150079
      5125.66      0.98556920    0.0035131827
      5130.79      0.99322508    0.0034777031
      5135.92       1.0013892    0.0035100337
      5141.05       1.0084050    0.0034741798
      5146.20       1.0158198    0.0035070741
      5151.34       1.0248727    0.0034708277
      5156.49       1.0357064    0.0034707056
      5161.65       1.0469994    0.0034675736
      5166.81       1.0588395    0.0034669560
      5171.98       1.0737322    0.0034993745
      5177.15       1.0907761    0.0034634394
      5182.33       1.1099839    0.0034634925
      5187.51       1.1288530    0.0034601073
      5192.70       1.1490895    0.0034596020
      5197.89       1.1703656    0.0034570331
      5203.09       1.1940595    0.0034560319
      5208.29       1.2190429    0.0034560582
      5213.50       1.2445274    0.0034526906
      5218.72       1.2713576    0.0034520993
      5223.93       1.2975286    0.0034179562
      5229.16       1.3226563    0.0034485717
      5234.39       1.3460733    0.0034483852
      5239.62       1.3684235    0.0034135908
      5244.86       1.3914824    0.0034444766
      5250.11       1.4144041    0.0034107939
      5255.36       1.4368671    0.0034093634
      5260.61       1.4582615    0.0034405478
      5265.87       1.4795814    0.0034064195
      5271.14       1.5007384    0.0034052031
      5276.41       1.5205467    0.0034039446
      5281.69       1.5398449    0.0034021176
      5286.97       1.5585731    0.0034011016
      5292.26       1.5744234    0.0033995612
      5297.55       1.5886570    0.0033978624
      5302.85       1.6003180    0.0033643982
      5308.15       1.6115566    0.0033952647
      5313.46       1.6210137    0.0033936771
      5318.77       1.6279133    0.0033602953
      5324.09       1.6328426    0.0033910262
      5329.42       1.6341221    0.0033894939
      5334.75       1.6329838    0.0033561903
      5340.08       1.6312158    0.0033868810
      5345.42       1.6255935    0.0033853068
      5350.77       1.6180799    0.0033519892
      5356.12       1.6102550    0.0033517611
      5361.48       1.6030906    0.0033812179
      5366.83       1.5958156    0.0033478488
      5372.20       1.5890216    0.0033474644
      5377.58       1.5861513    0.0033770579
      5382.95       1.5854401    0.0033436267
      5388.34       1.5885057    0.0033431394
      5393.72       1.5934244    0.0033431527
      5399.12       1.6044050    0.0033394847
      5404.52       1.6214530    0.0033387687
      5409.92       1.6420596    0.0033386086
      5415.33       1.6650382    0.0033354175
      5420.75       1.6956198    0.0033344529
      5426.17       1.7290506    0.0033340167
      5431.60       1.7601784    0.0033018926
      5437.03       1.7881170    0.0033302893
      5442.47       1.8155695    0.0033295607
      5447.91       1.8329234    0.0032981353
      5453.36       1.8455263    0.0032966738
      5458.81       1.8520243    0.0033251918
      5464.27       1.8473985    0.0032947195
      5469.73       1.8334811    0.0032930140
      5475.20       1.8123937    0.0032916434
      5480.68       1.7832292    0.0032906897
      5486.16       1.7499169    0.0032894814
      5491.65       1.7096761    0.0032878431
      5497.14       1.6641181    0.0032866089
      5502.64       1.6165534    0.0032856549
      5508.14       1.5705964    0.0032844951
      5513.65       1.5185315    0.0032828709
      5519.16       1.4715291    0.0032816135
      5524.68       1.4292944    0.0032503442
      5530.20       1.3900054    0.0032496746
      5535.73       1.3541001    0.0032780193
      5541.27       1.3229021    0.0032766807
      5546.81       1.2983142    0.0032454212
      5552.36       1.2756819    0.0032445955
      5557.91       1.2558407    0.0032440759
      5563.47       1.2389011    0.0032718141
      5569.04       1.2228415    0.0032404540
      5574.60       1.2089190    0.0032395351
      5580.18       1.1981806    0.0032388489
      5585.76       1.1861658    0.0032383750
      5591.35       1.1716754    0.0032357003
      5596.94       1.1582887    0.0032345768
      5602.53       1.1435427    0.0032336472
      5608.14       1.1254830    0.0032329741
      5613.75       1.1052244    0.0032324707
      5619.36       1.0837341    0.0032022490
      5624.98       1.0612317    0.0032287974
      5630.60       1.0379350    0.0032278204
      5636.23       1.0158043    0.0032270373
      5641.87      0.99263216    0.0032264358
      5647.51      0.97148091    0.0031966938
      5653.16      0.95102144    0.0031954534
      5658.82      0.92952741    0.0031944110
      5664.47      0.91197534    0.0032211177
      5670.14      0.89630403    0.0032203629
      5675.81      0.88370168    0.0031913850
      5681.48      0.87595906    0.0031900461
      5687.17      0.87458817    0.0031888871
      5692.85      0.87490960    0.0031878259
      5698.55      0.88245951    0.0031868926
      5704.25      0.89614669    0.0031576958
      5709.95      0.91558496    0.0031851302
      5715.66      0.93980372    0.0031837508
      5721.38      0.97171362    0.0031824998
      5727.10       1.0070665    0.0031813644
      5732.83       1.0450309    0.0031803427
      5738.56       1.0851325    0.0031510886
      5744.30       1.1291680    0.0031502213
      5750.04       1.1758353    0.0031494427
      5755.79       1.2255478    0.0031487531
      5761.55       1.2758325    0.0031481104
      5767.31       1.3257255    0.0031741878
      5773.08       1.3775061    0.0031730966
      5778.85       1.4316039    0.0031438467
      5784.63       1.4873267    0.0031429226
      5790.41       1.5436971    0.0031420378
      5796.21       1.5982631    0.0031411849
      5802.00       1.6497995    0.0031404073
      5807.81       1.6994697    0.0031397618
      5813.61       1.7449883    0.0031393124
      5819.43       1.7866137    0.0031390978
      5825.25       1.8257271    0.0031113499
      5831.07       1.8640072    0.0031105804
      5836.90       1.8898158    0.0031100337
      5842.74       1.9077255    0.0031100753
      5848.58       1.9131312    0.0031112053
      5854.43       1.9129797    0.0031130653
      5860.29       1.9108012    0.0031149986
      5866.15       1.9095783    0.0031428206
      5872.01       1.9045741    0.0031454031
      5877.89       1.9011570    0.0031480659
      5883.76       1.9003508    0.0031230721
      5889.65       1.9010744    0.0031235164
      5895.54       1.9021097    0.0031234530
      5901.43       1.9034568    0.0031229613
      5907.34       1.9057385    0.0031219179
      5913.24       1.9089353    0.0031203875
      5919.16       1.9098818    0.0031187284
      5925.08       1.9149517    0.0031172881
      5931.00       1.9207702    0.0031159629
      5936.93       1.9269871    0.0031143803
      5942.87       1.9282054    0.0031123749
      5948.81       1.9200708    0.0031099940
      5954.76       1.9077175    0.0031074524
      5960.72       1.8880273    0.0031049843
      5966.68       1.8697377    0.0031023357
      5972.64       1.8528183    0.0030991934
      5978.62       1.8353855    0.0030698011
      5984.60       1.8160293    0.0030673945
      5990.58       1.7945125    0.0030654937
      5996.57       1.7727804    0.0030632620
      6002.57       1.7513062    0.0030608316
      6008.57       1.7277675    0.0030343306
      6014.58       1.7043418    0.0030329000
      6020.60       1.6800172    0.0030316494
      6026.62       1.6573082    0.0030304754
      6032.65       1.6356405    0.0030294749
      6038.68       1.6182268    0.0030286557
      6044.72       1.6012331    0.0030278294
      6050.76       1.5843247    0.0030269732
      6056.81       1.5687157    0.0030261786
      6062.87       1.5554320    0.0030254597
      6068.93       1.5428690    0.0030247652
      6075.00       1.5307292    0.0030240983
      6081.08       1.5199935    0.0030234307
      6087.16       1.5110547    0.0030228062
      6093.25       1.5019100    0.0030222233
      6099.34       1.4942349    0.0030216322
      6105.44       1.4889676    0.0029959273
      6111.54       1.4878208    0.0029951529
      6117.66       1.4885125    0.0029944113
      6123.78       1.4900167    0.0029936609
      6129.90       1.4931139    0.0029929362
      6136.03       1.4981741    0.0030173413
      6142.17       1.5034988    0.0030166621
      6148.31       1.5075783    0.0030159913
      6154.46       1.5106946    0.0030153585
      6160.61       1.5107454    0.0030147324
      6166.77       1.5073076    0.0029903646
      6172.94       1.5018274    0.0029894744
      6179.11       1.4935288    0.0029886280
      6185.29       1.4829562    0.0029877955
      6191.48       1.4697367    0.0029870785
      6197.67       1.4556912    0.0029866863
      6203.87       1.4397800    0.0029871763
      6210.07       1.4218174    0.0029879941
      6216.28       1.4033097    0.0029643087
      6222.50       1.3881515    0.0029641032
      6228.72       1.3750288    0.0029656004
      6234.95       1.3632428    0.0029932346
      6241.19       1.3555790    0.0029977298
      6247.42       1.3490410    0.0030034760
      6253.67       1.3436158    0.0030098683
      6259.93       1.3388450    0.0029933196
      6266.19       1.3342512    0.0029985449
      6272.46       1.3302676    0.0030024285
      6278.73       1.3276676    0.0030044813
      6285.01       1.3253320    0.0030044157
      6291.29       1.3227471    0.0029768207
      6297.58       1.3221656    0.0029959739
      6303.88       1.3246524    0.0029898982
      6310.19       1.3274316    0.0029836710
      6316.50       1.3298442    0.0029784059
      6322.81       1.3335010    0.0029750060
      6329.14       1.3365875    0.0029482817
      6335.47       1.3435163    0.0029444347
      6341.80       1.3533766    0.0029641511
      6348.14       1.3632207    0.0029617052
      6354.49       1.3750529    0.0029595378
      6360.85       1.3903298    0.0029342466
      6367.21       1.4034091    0.0029321007
      6373.57       1.4164543    0.0029303013
      6379.95       1.4325984    0.0029288611
      6386.33       1.4495013    0.0029291243
      6392.72       1.4654713    0.0029277884
      6399.11       1.4821476    0.0029268534
      6405.51       1.4975747    0.0029262101
      6411.92       1.5114385    0.0029039291
      6418.32       1.5234956    0.0029038647
      6424.74       1.5331730    0.0029270608
      6431.17       1.5412340    0.0029276892
      6437.60       1.5478160    0.0029078015
      6444.04       1.5535573    0.0029100353
      6450.48       1.5559708    0.0029119100
      6456.94       1.5602232    0.0029362644
      6463.39       1.5603700    0.0029153253
      6469.85       1.5598402    0.0029162949
      6476.33       1.5605416    0.0029169690
      6482.80       1.5623888    0.0029171795
      6489.28       1.5647052    0.0029161284
      6495.77       1.5695624    0.0029147131
      6502.27       1.5758158    0.0029133659
      6508.77       1.5846423    0.0028896144
      6515.28       1.5924835    0.0029110749
      6521.80       1.6020313    0.0029103556
      6528.32       1.6111602    0.0029099487
      6534.85       1.6172354    0.0028867143
      6541.38       1.6239132    0.0028852203
      6547.92       1.6290896    0.0029062593
      6554.47       1.6335654    0.0028826590
      6561.03       1.6377640    0.0028810497
      6567.59       1.6387915    0.0028798849
      6574.16       1.6366543    0.0028792203
      6580.73       1.6334877    0.0028769135
      6587.31       1.6264480    0.0028753684
      6593.90       1.6182632    0.0028759820
      6600.50       1.6116831    0.0028747406
      6607.10       1.6047006    0.0028738557
      6613.70       1.5949268    0.0028524878
      6620.32       1.5839311    0.0028742010
      6626.94       1.5719435    0.0028734705
      6633.57       1.5601980    0.0028521203
      6640.20       1.5472986    0.0028520778
      6646.84       1.5341660    0.0028731253
      6653.49       1.5204465    0.0028519390
      6660.14       1.5058674    0.0028519646
      6666.80       1.4939275    0.0028731194
      6673.47       1.4813970    0.0028519227
      6680.14       1.4695298    0.0028520163
      6686.82       1.4607747    0.0028522315
      6693.51       1.4514199    0.0028519551
      6700.20       1.4426365    0.0028521088
      6706.90       1.4362642    0.0028522914
      6713.61       1.4301786    0.0028520894
      6720.32       1.4260517    0.0028311711
      6727.05       1.4248741    0.0028523691
      6733.77       1.4206862    0.0028523529
      6740.51       1.4144460    0.0028312189
      6747.25       1.4080303    0.0028525538
      6754.00       1.3996523    0.0028319725
      6760.75       1.3897487    0.0028313557
      6767.51       1.3798746    0.0028528663
      6774.28       1.3675185    0.0028320541
      6781.05       1.3525392    0.0028326836
      6787.84       1.3340704    0.0028419078
      6794.62       1.3175421    0.0028500378
      6801.42       1.2989436    0.0028314828
      6808.22       1.2800541    0.0028493598
      6815.03       1.2643095    0.0028564161
      6821.85       1.2475400    0.0028814714
      6828.67       1.2329057    0.0029073029
      6835.50       1.2220999    0.0029249190
      6842.33       1.2128222    0.0029935651
      6849.17       1.2062237    0.0030170125
      6856.02       1.2030043    0.0030553500
      6862.88       1.2006174    0.0030966516
      6869.74       1.2009245    0.0031161083
      6876.61       1.2065463    0.0031234603
      6883.49       1.2140522    0.0031142255
      6890.37       1.2245319    0.0030644578
      6897.27       1.2347393    0.0030557053
      6904.16       1.2441978    0.0030236912
      6911.07       1.2550407    0.0029841438
      6917.98       1.2629786    0.0029639331
      6924.89       1.2720476    0.0029463547
      6931.82       1.2785351    0.0029280349
      6938.75       1.2821676    0.0028867878
      6945.69       1.2830379    0.0028949308
      6952.64       1.2778467    0.0028651648
      6959.59       1.2694910    0.0028564946
      6966.55       1.2614313    0.0028500217
      6973.52       1.2495053    0.0028462263
      6980.49       1.2396804    0.0028435030
      6987.47       1.2283082    0.0028437064
      6994.46       1.2186476    0.0028427323
      7001.46       1.2105139    0.0028431047
      7008.46       1.2041290    0.0028409304
      7015.46       1.1996863    0.0028390257
      7022.48       1.1955412    0.0028351343
      7029.51       1.1942314    0.0028124884
      7036.53       1.1951074    0.0028294250
      7043.57       1.1972933    0.0028080188
      7050.62       1.1998682    0.0028057281
      7057.66       1.2017715    0.0028039903
      7064.72       1.2046645    0.0028021118
      7071.79       1.2067753    0.0028013010
      7078.86       1.2069884    0.0028007237
      7085.94       1.2075802    0.0028021239
      7093.03       1.2074310    0.0028052289
      7100.12       1.2066977    0.0027885853
      7107.22       1.2076689    0.0028126046
      7114.33       1.2101172    0.0028186959
      7121.44       1.2109299    0.0028258554
      7128.56       1.2130109    0.0028408879
      7135.69       1.2147039    0.0028430007
      7142.83       1.2177034    0.0028888343
      7149.97       1.2229752    0.0029030462
      7157.12       1.2275314    0.0029550031
      7164.28       1.2337817    0.0029605190
      7171.44       1.2393723    0.0029823512
      7178.62       1.2458090    0.0029917887
      7185.80       1.2525688    0.0029992143
      7192.98       1.2590957    0.0030006110
      7200.17       1.2644712    0.0029954442
      7207.38       1.2717294    0.0029884034
      7214.58       1.2773442    0.0029827350
      7221.80       1.2837014    0.0029810928
      7229.02       1.2876268    0.0029630427
      7236.25       1.2900423    0.0029878015
      7243.49       1.2938011    0.0029921151
      7250.73       1.2947005    0.0029704920
      7257.98       1.2951004    0.0029878084
      7265.24       1.2956135    0.0029586182
      7272.51       1.2954080    0.0029449211
      7279.78       1.2965040    0.0029534354
      7287.06       1.2957217    0.0029229679
      7294.35       1.2938314    0.0029096755
      7301.64       1.2922507    0.0028754650
      7308.94       1.2921123    0.0028805990
      7316.25       1.2939444    0.0028645354
      7323.57       1.2964416    0.0028328524
      7330.89       1.2981470    0.0028420464
      7338.22       1.3003281    0.0028318005
      7345.56       1.3047988    0.0028056792
      7352.91       1.3100537    0.0028197034
      7360.26       1.3169253    0.0027964495
      7367.62       1.3244379    0.0027929755
      7374.99       1.3317748    0.0027893333
      7382.37       1.3368503    0.0027851291
      7389.75       1.3410635    0.0027816057
      7397.14       1.3449364    0.0027791680
      7404.53       1.3459009    0.0027586824
      7411.94       1.3446826    0.0027756417
      7419.35       1.3392567    0.0027751792
      7426.77       1.3318154    0.0027561792
      7434.20       1.3233812    0.0027558177
      7441.63       1.3121841    0.0027742233
      7449.07       1.2984785    0.0027564703
      7456.52       1.2821042    0.0027570051
      7463.98       1.2600640    0.0027578436
      7471.45       1.2337430    0.0027770871
      7478.92       1.2047795    0.0027597305
      7486.40       1.1736826    0.0027608988
      7493.88       1.1405866    0.0027627449
      7501.38       1.1060587    0.0027509994
      7508.88       1.0724571    0.0027873466
      7516.39       1.0371778    0.0028246925
      7523.91       1.0018258    0.0028507767
      7531.43      0.96763951    0.0028158340
      7538.96      0.93692064    0.0028297434
      7546.50      0.91001645    0.0028952825
      7554.05      0.88807768    0.0029925225
      7561.60      0.87482615    0.0031067155
      7569.16      0.86915344    0.0032900562
      7576.73      0.87010860    0.0035070323
      7584.31      0.87844224    0.0037341388
      7591.89      0.89525692    0.0039160189
      7599.49      0.91881362    0.0041150643
      7607.09      0.95027366    0.0042351298
      7614.70      0.99014881    0.0042431133
      7622.31       1.0289241    0.0041194400
      7629.93       1.0707315    0.0039502114
      7637.56       1.1092784    0.0037830611
      7645.20       1.1436739    0.0035571115
      7652.85       1.1756709    0.0033581010
      7660.50       1.2058750    0.0032084080
      7668.16       1.2351006    0.0030855435
      7675.83       1.2577017    0.0029829584
      7683.50       1.2755946    0.0029136268
      7691.19       1.2892570    0.0028762739
      7698.88       1.3003089    0.0028538385
      7706.58       1.3071488    0.0028272259
      7714.29       1.3121576    0.0028066649
      7722.00       1.3147365    0.0027926100
      7729.73       1.3177705    0.0027840578
      7737.45       1.3197205    0.0027626027
      7745.19       1.3190104    0.0027601920
      7752.94       1.3201277    0.0027596879
      7760.69       1.3233334    0.0027601712
      7768.45       1.3249533    0.0027613337
      7776.22       1.3280032    0.0027631683
      7784.00       1.3332070    0.0027821880
      7791.78       1.3377104    0.0027654777
      7799.57       1.3441433    0.0027674676
      7807.37       1.3524652    0.0027696723
      7815.18       1.3589905    0.0027718794
      7822.99       1.3628521    0.0027742840
      7830.82       1.3641394    0.0027772851
      7838.65       1.3640170    0.0027808812
      7846.49       1.3634228    0.0027847863
      7854.34       1.3609639    0.0027706267
      7862.19       1.3574678    0.0027753877
      7870.05       1.3522962    0.0027803345
      7877.93       1.3461831    0.0027843908
      7885.80       1.3350472    0.0027872523
      7893.69       1.3224094    0.0027896368
      7901.58       1.3097038    0.0027918060
      7909.49       1.2968657    0.0027938647
      7917.40       1.2820638    0.0027958247
      7925.31       1.2673874    0.0027975799
      7933.24       1.2551173    0.0027994388
      7941.17       1.2415704    0.0027833627
      7949.11       1.2284465    0.0027860917
      7957.06       1.2141143    0.0027891636
      7965.02       1.1966081    0.0027920868
      7972.98       1.1788937    0.0027950513
      7980.96       1.1602427    0.0027979301
      7988.94       1.1396820    0.0028003825
      7996.93       1.1196621    0.0028021720
      8004.93       1.0968904    0.0028037437
      8012.93       1.0725163    0.0028056358
      8020.95       1.0463156    0.0028078019
      8028.97       1.0166539    0.0028095223
      8036.99      0.98176920    0.0028113219
      8045.03      0.94597649    0.0027986663
      8053.08      0.90769982    0.0028032306
      8061.13      0.86748033    0.0028097272
      8069.20      0.82389887    0.0028187684
      8077.26      0.77816446    0.0028297403
      8085.34      0.73151366    0.0028438440
      8093.43      0.68357932    0.0028628801
      8101.52      0.63620852    0.0028868948
      8109.62      0.58699449    0.0029143608
      8117.73      0.54013167    0.0029440441
      8125.85      0.49715587    0.0029769553
      8133.98      0.45655393    0.0030114048
      8142.11      0.41838910    0.0030199295
      8150.25      0.38642727    0.0030301247
      8158.41      0.36003553    0.0030359163
      8166.56      0.33835545    0.0030399825
      8174.73      0.32112413    0.0030410055
      8182.91      0.30683826    0.0030399270
      8191.09      0.29637572    0.0030363001
      8199.28      0.29121129    0.0030118541
      8207.48      0.28852456    0.0030048926
      8215.69      0.28989927    0.0030182474
      8223.91      0.29189790    0.0030157443
      8232.13      0.29423285    0.0030122611
      8240.36      0.29843145    0.0030067151
      8248.60      0.30407111    0.0030005156
      8256.85      0.31208798    0.0029751585
      8265.11      0.31972126    0.0029677058
      8273.37      0.32950879    0.0029609879
      8281.65      0.34134095    0.0029592674
      8289.93      0.35262531    0.0029617587
      8298.22      0.36718686    0.0029397556
      8306.52      0.38356000    0.0029432057
      8314.83      0.40036369    0.0029317029
      8323.14      0.41885311    0.0029221346
      8331.46      0.43917622    0.0029134342
      8339.80      0.46024611    0.0028887116
      8348.13      0.48585160    0.0028828798
      8356.48      0.51425888    0.0028764717
      8364.84      0.54511239    0.0028709986
      8373.21      0.57899546    0.0028675294
      8381.58      0.61467587    0.0028655546
      8389.96      0.65349298    0.0028641799
      8398.35      0.69588897    0.0028628218
      8406.75      0.74314182    0.0028622047
      8415.16      0.79521787    0.0028458421
      8423.57      0.85029771    0.0028639324
      8432.00      0.90762081    0.0028649473
      8440.43      0.97031024    0.0028664811
      8448.87       1.0344092    0.0028523339
      8457.32       1.1000866    0.0028546463
      8465.78       1.1672200    0.0028745984
      8474.25       1.2360656    0.0028612373
      8482.72       1.3025756    0.0028642260
      8491.20       1.3673881    0.0028672898
      8499.69       1.4300715    0.0028705412
      8508.19       1.4926434    0.0028740411
      8516.70       1.5492591    0.0028764291
      8525.22       1.6016439    0.0028788092
      8533.75       1.6488422    0.0028643180
      8542.28       1.6919301    0.0028662212
      8550.82       1.7319885    0.0028859277
      8559.37       1.7671870    0.0028719774
      8567.93       1.7971303    0.0028741286
      8576.50       1.8194204    0.0028762703
      8585.08       1.8342032    0.0028800215
      8593.66       1.8432509    0.0028823433
      8602.26       1.8487869    0.0028852746
      8610.86       1.8501261    0.0028727785
      8619.47       1.8467740    0.0028932223
      8628.09       1.8400540    0.0028963159
      8636.72       1.8295144    0.0028837588
      8645.36       1.8148720    0.0029043569
      8654.00       1.7988423    0.0028912797
      8662.66       1.7807948    0.0028942922
      8671.32       1.7597925    0.0028974298
      8679.99       1.7362573    0.0029010339
      8688.67       1.7063505    0.0029037667
      8697.36       1.6725003    0.0029067795
      8706.06       1.6367771    0.0029103964
      8714.76       1.5992033    0.0029134639
      8723.48       1.5557174    0.0029005134
      8732.21       1.5070567    0.0029212164
      8740.93       1.4510387    0.0029246535
      8749.68       1.3888793    0.0029118132
      8758.43       1.3262276    0.0029330721
      8767.19       1.2629933    0.0029206954
      8775.96       1.2047988    0.0029241360
      8784.73       1.1450390    0.0029296315
      8793.52       1.0903311    0.0029329443
      8802.31       1.0420245    0.0029209791
      8811.11       1.0012133    0.0029421053
      8819.92      0.96959729    0.0029459415
      8828.75      0.94728098    0.0029349077
      8837.57      0.93224838    0.0029563750
      8846.41      0.92528532    0.0029463482
      8855.26      0.92020887    0.0029700264
      8864.12      0.92363590    0.0029628806
      8872.98      0.93249023    0.0029710681
      8881.85      0.94801759    0.0029848124
      8890.73      0.96284195    0.0030004082
      8899.63      0.98054170    0.0030229058
      8908.52      0.99219147    0.0030463995
      8917.43       1.0056791    0.0030647647
      8926.35       1.0211417    0.0031218303
      8935.28       1.0368155    0.0031507973
      8944.22       1.0497932    0.0032163236
      8953.16       1.0578810    0.0032479491
      8962.11       1.0602564    0.0033100400
      8971.08       1.0587315    0.0033237573
      8980.05       1.0558764    0.0033391877
      8989.03       1.0517083    0.0033417447
      8998.02       1.0464308    0.0033152163
      9007.02       1.0390754    0.0033188136
      9016.02       1.0299944    0.0032897816
      9025.04       1.0188433    0.0033017501
      9034.07       1.0108842    0.0032870721
      9043.10       1.0032267    0.0033095571
      9052.14      0.99547993    0.0033071057
      9061.20      0.98829564    0.0033481668
      9070.26      0.98182783    0.0033502966
      9079.33      0.97338558    0.0033734106
      9088.41      0.96796803    0.0033877703
      9097.50      0.96372287    0.0033992349
      9106.60      0.95620369    0.0034041315
      9115.70      0.94507683    0.0034081316
      9124.82      0.93309410    0.0033894513
      9133.94      0.92236091    0.0034085426
      9143.08      0.91564947    0.0033830781
      9152.22      0.91596612    0.0033676677
      9161.37      0.91704238    0.0033493930
      9170.54      0.91987275    0.0033290268
      9179.71      0.92289318    0.0033140334
      9188.89      0.92890511    0.0032989943
      9198.08      0.93754613    0.0032947401
      9207.28      0.94862178    0.0032979436
      9216.48      0.96165951    0.0033120661
      9225.70      0.97134585    0.0033243771
      9234.92      0.97978566    0.0033792979
      9244.16      0.98311001    0.0034218524
      9253.40      0.98257326    0.0035143638
      9262.66      0.97883730    0.0036508070
      9271.92      0.96863542    0.0037820348
      9281.20      0.95161311    0.0039892472
      9290.48      0.93202749    0.0041807587
      9299.77      0.90889408    0.0044383730
      9309.07      0.88358535    0.0046963823
      9318.38      0.85953917    0.0048657816
      9327.69      0.83365521    0.0050482020
      9337.02      0.80511216    0.0050802569
      9346.36      0.77583393    0.0050722010
      9355.71      0.75068042    0.0050489449
      9365.07      0.73392305    0.0049095715
      9374.43      0.72166516    0.0047989526
      9383.80      0.71807453    0.0047168101
      9393.19      0.71654712    0.0046806158
      9402.58      0.71710205    0.0046643744
      9411.98      0.72237054    0.0046946918
      9421.40      0.73177473    0.0046996707
      9430.82      0.74635592    0.0047548370
      9440.25      0.76289528    0.0047883056
      9449.69      0.78296624    0.0047701394
      9459.14      0.80985004    0.0047380309
      9468.60      0.84050208    0.0046838738
      9478.07      0.86668722    0.0046550295
      9487.55      0.89386310    0.0046239888
      9497.04      0.91747810    0.0045350639
      9506.53      0.94031938    0.0044839360
      9516.04      0.95999027    0.0044095333
      9525.56      0.97413410    0.0043555728
      9535.08      0.98408070    0.0042982738
      9544.62      0.99003260    0.0042139294
      9554.16      0.99476064    0.0041487429
      9563.72      0.99283861    0.0040691482
      9573.29      0.99270056    0.0040039492
      9582.85      0.99006398    0.0039177778
      9592.44      0.98178773    0.0038499872
      9602.03      0.97326452    0.0037563948
      9611.63      0.96637002    0.0036673081
      9621.25      0.95964821    0.0035972875
      9630.87      0.95437934    0.0035016205
      9640.50      0.94784735    0.0034306885
      9650.14      0.94287942    0.0033525454
      9659.79      0.93827095    0.0033025444
      9669.45      0.93411231    0.0032486378
      9679.12      0.92981526    0.0032100291
      9688.80      0.92408053    0.0031686426
      9698.49      0.92091708    0.0031327258
      9708.19      0.91741986    0.0031110538
      9717.90      0.91821160    0.0030795761
      9727.62      0.91907789    0.0030639242
      9737.34      0.91873432    0.0030380228
      9747.08      0.91386521    0.0030234204
      9756.83      0.90679686    0.0030072073
      9766.59      0.89964517    0.0029772676
      9776.35      0.89016148    0.0029456977
      9786.13      0.88040864    0.0029235606
      9795.92      0.86708231    0.0028883357
      9805.71      0.85210031    0.0028662240
      9815.52      0.83780319    0.0028428279
      9825.34      0.82006238    0.0028137986
      9835.17      0.80225576    0.0027870872
      9845.00      0.78493324    0.0027727286
      9854.84      0.76837787    0.0027507672
      9864.70      0.75378050    0.0027308408
      9874.56      0.73824967    0.0027206836
      9884.44      0.72410592    0.0027107379
      9894.32      0.70909362    0.0026930316
      9904.22      0.69304531    0.0026761959
      9914.13      0.67606254    0.0026691087
      9924.04      0.65894153    0.0026558160
      9933.96      0.64262844    0.0026510989
      9943.90      0.62587240    0.0026378485
      9953.84      0.60739817    0.0026324682
      9963.79      0.58852186    0.0026206734
      9973.76      0.56918045    0.0026099164
      9983.74      0.54823506    0.0025992934
      9993.72      0.53024238    0.0026037192
