# starting wavelength =        3741.2500
# ending wavelength =        7658.6500
# O2 telluric scale =        0
# O2 telluric shift =        0
# H2O telluric scale =        0
# H2O telluric shift =        0
      3744.93      0.67874909      0.16536859
      3748.67      0.69159090      0.14097052
      3752.42      0.73242950      0.11814616
      3756.17      0.74301273      0.10359115
      3759.93      0.74044849     0.092155611
      3763.69      0.73816411     0.084836431
      3767.45      0.73919413     0.077587361
      3771.22      0.76249384     0.071978545
      3774.99      0.75902429     0.066908098
      3778.77      0.77589856     0.063679184
      3782.54      0.77827020     0.061162912
      3786.33      0.75888325     0.059237445
      3790.11      0.74493404     0.057522677
      3793.90      0.77866957     0.055747288
      3797.70      0.80856923     0.054621832
      3801.50      0.82664970     0.053676994
      3805.30      0.83729683     0.052602706
      3809.10      0.85258258     0.051877367
      3812.91      0.86774824     0.051406619
      3816.73      0.89006637     0.051484928
      3820.54      0.89437241     0.051568496
      3824.36      0.88091440     0.051338140
      3828.19      0.87808078     0.051182389
      3832.02      0.89757657     0.050950395
      3835.85      0.90562170     0.051032634
      3839.68      0.94118519     0.051121257
      3843.52      0.93841098     0.050891061
      3847.37      0.95181336     0.050736950
      3851.22       1.0006618     0.050505193
      3855.07       1.0233817     0.050590747
      3858.92       1.0281368     0.050685573
      3862.78       1.0739219     0.050455115
      3866.64       1.1333580     0.050547446
      3870.51       1.1590664     0.050326903
      3874.38       1.1730556     0.050160298
      3878.26       1.2067546     0.050263809
      3882.13       1.2093124     0.050032172
      3886.02       1.2067128     0.050126796
      3889.90       1.2126714     0.049904148
      3893.79       1.2451384     0.050003578
      3897.69       1.2763749     0.049777221
      3901.59       1.3016325     0.049622310
      3905.49       1.3257612     0.049718956
      3909.39       1.3755142     0.049493216
      3913.30       1.3788358     0.049605016
      3917.22       1.3871382     0.049375674
      3921.13       1.4319553     0.049481957
      3925.06       1.4357499     0.049261537
      3928.98       1.4266245     0.049370404
      3932.91       1.4064720     0.049145232
      3936.84       1.4286589     0.049261043
      3940.78       1.4449663     0.049098391
      3944.72       1.4182589     0.048872792
      3948.67       1.4186553     0.048999145
      3952.61       1.4052835     0.048769604
      3956.57       1.3923335     0.048885507
      3960.52       1.4041666     0.048663926
      3964.48       1.3949128     0.048790245
      3968.45       1.4013821     0.048563443
      3972.42       1.4247819     0.048688893
      3976.39       1.4772277     0.048470587
      3980.37       1.5203410     0.048597094
      3984.35       1.5084505     0.048373025
      3988.33       1.4835611     0.048507796
      3992.32       1.5026976     0.048290991
      3996.31       1.5466842     0.048420521
      4000.31       1.5575693     0.048561271
      4004.31       1.5651337     0.048042219
      4008.31       1.5601079     0.048175498
      4012.32       1.5915904     0.047951030
      4016.33       1.5969980     0.048109676
      4020.35       1.5897593     0.047879853
      4024.37       1.5769131     0.048021608
      4028.40       1.5686954     0.047797553
      4032.42       1.5743520     0.047964364
      4036.46       1.5496790     0.047733917
      4040.50       1.5347386     0.047884264
      4044.54       1.5259805     0.047660313
      4048.58       1.4682822     0.047837287
      4052.63       1.5033735     0.047606189
      4056.68       1.4765846     0.047765360
      4060.74       1.4952584     0.047541469
      4064.80       1.4788856     0.047729752
      4068.86       1.4675050     0.047497974
      4072.93       1.4706908     0.047664690
      4077.01       1.4272992     0.047789309
      4081.08       1.3875270     0.047565284
      4085.17       1.3695380     0.047753565
      4089.25       1.3804117     0.047537017
      4093.34       1.3222148     0.047720058
      4097.43       1.2848284     0.047494889
      4101.53       1.2379606     0.047691558
      4105.63       1.2460018     0.047471872
      4109.74       1.2237468     0.047675390
      4113.85       1.2093970     0.047447168
      4117.96       1.1732490     0.047653049
      4122.08       1.1384792     0.047430093
      4126.20       1.1203431     0.047660352
      4130.33       1.1253763     0.047427010
      4134.46       1.1572555     0.047198526
      4138.59       1.2016718     0.047414755
      4142.73       1.1802138     0.047190280
      4146.88       1.2201394     0.046969327
      4151.02       1.2043993     0.046367240
      4155.18       1.1920189     0.046140459
      4159.33       1.1733738     0.045917815
      4163.49       1.1982577     0.045698256
      4167.65       1.2143256     0.045908866
      4171.82       1.2224912     0.045330086
      4175.99       1.1921723     0.045105602
      4180.17       1.2129494     0.044885089
      4184.35       1.1828153     0.044666979
      4188.54       1.1680323     0.044450180
      4192.72       1.1391899     0.044237035
      4196.92       1.1174868     0.043666057
      4201.11       1.1048473     0.043874367
      4205.31       1.1260677     0.043657613
      4209.52       1.1339967     0.043443280
      4213.73       1.1440300     0.043229927
      4217.94       1.0969006     0.043019768
      4222.16       1.1024416     0.042461814
      4226.38       1.1075644     0.042256815
      4230.61       1.1130860     0.042054017
      4234.84       1.1152715     0.041851893
      4239.08       1.1322808     0.041651491
      4243.32       1.1622773     0.041834192
      4247.56       1.1823557     0.041626799
      4251.81       1.1941415     0.041084566
      4256.06       1.2006572     0.040883422
      4260.32       1.2246456     0.040682376
      4264.58       1.2394524     0.040484402
      4268.84       1.2376761     0.040287729
      4273.11       1.2289406     0.040091520
      4277.38       1.1906423     0.039896943
      4281.66       1.2081017     0.039703620
      4285.94       1.1860612     0.039193840
      4290.23       1.1626928     0.038998811
      4294.52       1.1297241     0.038805131
      4298.81       1.0889490     0.038612707
      4303.11       1.0833593     0.038421022
      4307.42       1.0615876     0.038231035
      4311.72       1.0355976     0.038041211
      4316.04       1.0039980     0.037853074
      4320.35      0.98671274     0.038010695
      4324.67       1.0018875     0.037821836
      4329.00       1.0216673     0.037353297
      4333.33       1.0309408     0.037165319
      4337.66       1.0279425     0.036978294
      4342.00       1.0551173     0.036793123
      4346.34       1.0545420     0.036608207
      4350.69       1.0673103     0.036424011
      4355.04       1.0484063     0.036241480
      4359.39       1.0360936     0.036059818
      4363.75       1.0615459     0.035879075
      4368.12       1.0656605     0.035698804
      4372.48       1.0500359     0.035519429
      4376.86       1.0419963     0.035340959
      4381.23       1.0289195     0.035162943
      4385.61       1.0042125     0.034985807
      4390.00      0.98652461     0.034809489
      4394.39      0.96792410     0.034634516
      4398.79      0.95480239     0.034459874
      4403.18      0.96237018     0.034017812
      4407.59      0.98718558     0.033548516
      4412.00       1.0029186     0.033378978
      4416.41      0.97590046     0.033210780
      4420.82      0.95059894     0.033043258
      4425.25      0.96481116     0.032875910
      4429.67      0.95266191     0.032709955
      4434.10      0.95923037     0.032544754
      4438.54      0.94697266     0.032379689
      4442.97      0.96260639     0.032216379
      4447.42      0.98647086     0.032053172
      4451.86      0.99241927     0.031890754
      4456.32       1.0063100     0.031729809
      4460.77       1.0264222     0.031569106
      4465.24       1.0369807     0.031409269
      4469.70       1.0581535     0.031250877
      4474.17       1.0808731     0.031092823
      4478.65       1.1374263     0.030935662
      4483.12       1.1717488     0.030779921
      4487.61       1.2056524     0.030341772
      4492.09       1.2303422     0.030186404
      4496.59       1.2686680     0.030031792
      4501.08       1.2483301     0.030105752
      4505.58       1.2625829     0.029951619
      4510.09       1.2799646     0.029798342
      4514.60       1.2933566     0.029646628
      4519.12       1.3124382     0.029495158
      4523.63       1.3517253     0.029344608
      4528.16       1.3946393     0.029195596
      4532.69       1.4156615     0.028790981
      4537.22       1.4460544     0.028641613
      4541.76       1.4836560     0.028493100
      4546.30       1.5136876     0.028346487
      4550.85       1.5392542     0.028199973
      4555.40       1.5691635     0.028054514
      4559.95       1.6020792     0.027911004
      4564.51       1.6258546     0.027529684
      4569.08       1.6366667     0.027388962
      4573.65       1.6525226     0.027249723
      4578.22       1.6659523     0.027309262
      4582.80       1.6626498     0.027166436
      4587.38       1.6628437     0.027024863
      4591.97       1.6803984     0.026885386
      4596.56       1.6605388     0.026517002
      4601.16       1.6837476     0.026380648
      4605.76       1.6755265     0.026246003
      4610.37       1.6753258     0.026112370
      4614.98       1.6717862     0.025980141
      4619.59       1.6620771     0.025849580
      4624.21       1.6577463     0.025673605
      4628.84       1.6592336     0.025540886
      4633.47       1.6505864     0.025409129
      4638.10       1.6405820     0.025279847
      4642.74       1.6361787     0.025151673
      4647.38       1.6173821     0.024805349
      4652.03       1.5776027     0.024675800
      4656.68       1.5521526     0.024547877
      4661.34       1.5317456     0.024600198
      4666.00       1.5165956     0.024474070
      4670.67       1.4793813     0.024141017
      4675.33       1.4662651     0.024014285
      4680.01       1.4473398     0.023889183
      4684.69       1.4029174     0.023765567
      4689.38       1.4076848     0.023817089
      4694.07       1.3707503     0.023494270
      4698.76       1.3498284     0.023370306
      4703.46       1.3428739     0.023248065
      4708.16       1.3245596     0.023128161
      4712.87       1.3100448     0.022818002
      4717.58       1.3116068     0.022863911
      4722.30       1.2948919     0.022743481
      4727.03       1.2808746     0.022624845
      4731.75       1.2548532     0.022320894
      4736.48       1.2302327     0.022207637
      4741.22       1.1964138     0.022096324
      4745.96       1.1581435     0.022133667
      4750.71       1.1299275     0.021835870
      4755.46       1.0983683     0.021724472
      4760.22       1.0643844     0.021615373
      4764.97       1.0382214     0.021653328
      4769.74       1.0132141     0.021361714
      4774.51      0.99056578     0.021252945
      4779.29      0.99045411     0.021146625
      4784.07      0.98376294     0.020860222
      4788.85      0.98926560     0.020899465
      4793.64      0.99990920     0.020793331
      4798.43       1.0104764     0.020690017
      4803.23       1.0346752     0.020409177
      4808.03       1.0594765     0.020448090
      4812.84       1.0663743     0.020345255
      4817.66       1.0645137     0.020072499
      4822.48       1.0735235     0.019968741
      4827.30       1.0744981     0.020008018
      4832.12       1.0704317     0.019742255
      4836.96       1.0620169     0.019639608
      4841.79       1.0568943     0.019539642
      4846.63       1.0476059     0.019418936
      4851.48       1.0403080     0.019316968
      4856.33       1.0217608     0.019218381
      4861.19       1.0071289     0.018967374
      4866.05      0.99214625     0.019001017
      4870.92      0.97860904     0.018903298
      4875.79      0.98014444     0.018656475
      4880.66      0.98390017     0.018691008
      4885.55      0.98313167     0.018594995
      4890.43      0.99352067     0.018352055
      4895.32       1.0207748     0.018263134
      4900.22       1.0347619     0.018144339
      4905.12       1.0532828     0.018053845
      4910.02       1.0650425     0.017966390
      4914.94       1.0976137     0.017850019
      4919.85       1.1263012     0.017761975
      4924.77       1.1550349     0.017676775
      4929.70       1.1916615     0.017561927
      4934.62       1.2237430     0.017476003
      4939.56       1.2467570     0.017248360
      4944.50       1.2692271     0.017279995
      4949.44       1.2725606     0.017196279
      4954.39       1.2867911     0.016971671
      4959.35       1.2896008     0.017004173
      4964.31       1.2831909     0.016785380
      4969.27       1.2843243     0.016701242
      4974.24       1.2635821     0.016734530
      4979.22       1.2452973     0.016517871
      4984.20       1.2096167     0.016436688
      4989.18       1.1853585     0.016338125
      4994.17       1.1575552     0.016256507
      4999.16       1.1428219     0.016051582
      5004.16       1.1108068     0.016080033
      5009.17       1.0871162     0.016001641
      5014.18       1.0537062     0.015906565
      5019.19       1.0339946     0.015828396
      5024.21       1.0202682     0.015630277
      5029.23       1.0102093     0.015658196
      5034.26       1.0107403     0.015461531
      5039.30       1.0155552     0.015490802
      5044.34      0.99956206     0.015295515
      5049.39       1.0022873     0.015225437
      5054.43      0.99925855     0.015132650
      5059.49      0.99479760     0.015062825
      5064.55      0.98327641     0.014972687
      5069.61      0.97777950     0.014903141
      5074.68      0.97801894     0.014716868
      5079.76      0.97531715     0.014746408
      5084.84      0.99468087     0.014563344
      5089.92       1.0103805     0.014592277
      5095.01       1.0213644     0.014412276
      5100.11       1.0262953     0.014441090
      5105.21       1.0396818     0.014263964
      5110.31       1.0626902     0.014197115
      5115.42       1.1010844     0.014117549
      5120.54       1.1241449     0.014051805
      5125.66       1.1464466     0.013974176
      5130.79       1.1608079     0.013909240
      5135.92       1.1734884     0.013832870
      5141.05       1.1807440     0.013768859
      5146.20       1.2003783     0.013693687
      5151.34       1.2105242     0.013631056
      5156.49       1.2242023     0.013557384
      5161.65       1.2221620     0.013495623
      5166.81       1.2426795     0.013422941
      5171.98       1.2517281     0.013261543
      5177.15       1.2658712     0.013291044
      5182.33       1.2679383     0.013132149
      5187.51       1.2743913     0.013161352
      5192.70       1.2763062     0.013004866
      5197.89       1.2840215     0.013034210
      5203.09       1.2922595     0.012880712
      5208.29       1.3087663     0.012812214
      5213.50       1.3267922     0.012758585
      5218.72       1.3311657     0.012690620
      5223.93       1.3463741     0.012639007
      5229.16       1.3646939     0.012572001
      5234.39       1.3867103     0.012522083
      5239.62       1.3978075     0.012455525
      5244.86       1.4279634     0.012311304
      5250.11       1.4449344     0.012341627
      5255.36       1.4686390     0.012198670
      5260.61       1.4797621     0.012139201
      5265.87       1.4924173     0.012088513
      5271.14       1.4991103     0.012029269
      5276.41       1.5050480     0.011980984
      5281.69       1.5023586     0.011921987
      5286.97       1.5014403     0.011865769
      5292.26       1.4747184     0.011817306
      5297.55       1.4554936     0.011761087
      5302.85       1.4389343     0.011629764
      5308.15       1.4292516     0.011659320
      5313.46       1.4053361     0.011531291
      5318.77       1.3917975     0.011476032
      5324.09       1.3845643     0.011506762
      5329.42       1.3627393     0.011380579
      5334.75       1.3429791     0.011327828
      5340.08       1.3300044     0.011288111
      5345.42       1.3386825     0.011235302
      5350.77       1.3379850     0.011184594
      5356.12       1.3443252     0.011145719
      5361.48       1.3399097     0.011095058
      5366.83       1.3479320     0.010975523
      5372.20       1.3510526     0.011008568
      5377.58       1.3432158     0.010959930
      5382.95       1.3267393     0.010843000
      5388.34       1.3120083     0.010876530
      5393.72       1.2841638     0.010829706
      5399.12       1.2656165     0.010715156
      5404.52       1.2617038     0.010671980
      5409.92       1.2520666     0.010704420
      5415.33       1.2373184     0.010592111
      5420.75       1.2373994     0.010550433
      5426.17       1.2292270     0.010515427
      5431.60       1.2190003     0.010473542
      5437.03       1.2278184     0.010433247
      5442.47       1.2436799     0.010327534
      5447.91       1.2625737     0.010359908
      5453.36       1.2792374     0.010320880
      5458.81       1.2939670     0.010283238
      5464.27       1.3073109     0.010179338
      5469.73       1.3213982     0.010213018
      5475.20       1.3167526     0.010176527
      5480.68       1.3018900     0.010076045
      5486.16       1.2818041     0.010039678
      5491.65       1.2562920     0.010074464
      5497.14       1.2246155    0.0099774705
      5502.64       1.1910431    0.0099420633
      5508.14       1.1639597    0.0099078665
      5513.65       1.1273443    0.0098121921
      5519.16       1.0898889    0.0098496890
      5524.68       1.0497052    0.0098164989
      5530.20       1.0132417    0.0097844800
      5535.73      0.97974386    0.0096911379
      5541.27      0.95254304    0.0096612213
      5546.81      0.91606601    0.0096987228
      5552.36      0.87947507    0.0096685313
      5557.91      0.84370262    0.0095776716
      5563.47      0.81592534    0.0095494645
      5569.04      0.79563220    0.0095221403
      5574.60      0.76836699    0.0094957695
      5580.18      0.73991659    0.0094715791
      5585.76      0.71027550    0.0094450713
      5591.35      0.68627198    0.0094193581
      5596.94      0.65466292    0.0093944668
      5602.53      0.62729955    0.0093108491
      5608.14      0.60441375    0.0092860861
      5613.75      0.58704634    0.0092619838
      5619.36      0.57748351    0.0093005034
      5624.98      0.56267146    0.0092777741
      5630.60      0.54696785    0.0091977842
      5636.23      0.53680804    0.0091751767
      5641.87      0.51949178    0.0091532624
      5647.51      0.49855632    0.0091320339
      5653.16      0.48346190    0.0091114455
      5658.82      0.48307548    0.0090340993
      5664.47      0.48577467    0.0090758049
      5670.14      0.49199314    0.0090558219
      5675.81      0.49932848    0.0090364522
      5681.48      0.49964366    0.0090177368
      5687.17      0.51253173    0.0089996119
      5692.85      0.52295357    0.0089250035
      5698.55      0.53104421    0.0089080369
      5704.25      0.53750895    0.0088917001
      5709.95      0.55303230    0.0088758496
      5715.66      0.57179512    0.0088604667
      5721.38      0.59237729    0.0088456864
      5727.10      0.61268895    0.0087746173
      5732.83      0.62703495    0.0088163134
      5738.56      0.64712035    0.0088020145
      5744.30      0.66801493    0.0087882246
      5750.04      0.69008361    0.0087749956
      5755.79      0.71705801    0.0087621040
      5761.55      0.74786910    0.0087497575
      5767.31      0.78440973    0.0087377944
      5773.08      0.81644918    0.0086722409
      5778.85      0.84443277    0.0086607500
      5784.63      0.87326003    0.0086495739
      5790.41      0.90744891    0.0086388092
      5796.21      0.94463240    0.0086285468
      5802.00      0.96873163    0.0086186300
      5807.81      0.99965902    0.0086094256
      5813.61       1.0325775    0.0086011062
      5819.43       1.0551825    0.0085935980
      5825.25       1.0827921    0.0085862399
      5831.07       1.1232647    0.0085788288
      5836.90       1.1300233    0.0085723443
      5842.74       1.1495389    0.0085132755
      5848.58       1.1543426    0.0085115111
      5854.43       1.1621868    0.0085122383
      5860.29       1.1618968    0.0085135976
      5866.15       1.1592592    0.0085155469
      5872.01       1.1462145    0.0085190130
      5877.89       1.1384586    0.0085229132
      5883.76       1.1258962    0.0085245402
      5889.65       1.1099480    0.0085235969
      5895.54       1.1041426    0.0085216420
      5901.43       1.1082355    0.0085189239
      5907.34       1.1118431    0.0084631398
      5913.24       1.1147179    0.0084582447
      5919.16       1.1266039    0.0084533024
      5925.08       1.1379809    0.0084491969
      5931.00       1.1496833    0.0084457477
      5936.93       1.1718596    0.0084418425
      5942.87       1.1861160    0.0084371580
      5948.81       1.1753227    0.0084318344
      5954.76       1.1850239    0.0084261258
      5960.72       1.1740584    0.0084210143
      5966.68       1.1700196    0.0084158938
      5972.64       1.1591804    0.0084097908
      5978.62       1.1436580    0.0083516411
      5984.60       1.1168051    0.0083475668
      5990.58       1.0897339    0.0083450108
      5996.57       1.0626904    0.0083417402
      6002.57       1.0361102    0.0083384102
      6008.57       1.0208151    0.0083366324
      6014.58       1.0066958    0.0083362223
      6020.60      0.98883990    0.0083367438
      6026.62      0.97276169    0.0083410511
      6032.65      0.96267989    0.0083422971
      6038.68      0.95441179    0.0083442063
      6044.72      0.95057956    0.0083463799
      6050.76      0.94157992    0.0083489103
      6056.81      0.93123050    0.0083516830
      6062.87      0.91863303    0.0083062373
      6068.93      0.91293972    0.0083098865
      6075.00      0.90570437    0.0083139214
      6081.08      0.89671490    0.0083183333
      6087.16      0.88600313    0.0083230489
      6093.25      0.87316076    0.0083280779
      6099.34      0.85712418    0.0083340748
      6105.44      0.84806105    0.0083388814
      6111.54      0.84469964    0.0083441038
      6117.66      0.85070742    0.0083496963
      6123.78      0.85269696    0.0083556532
      6129.90      0.86010197    0.0083120844
      6136.03      0.87086388    0.0083176751
      6142.17      0.88548326    0.0083236942
      6148.31      0.90605328    0.0083820266
      6154.46      0.92830323    0.0083405696
      6160.61      0.95547149    0.0083464548
      6166.77      0.97793520    0.0083527684
      6172.94       1.0042455    0.0083594658
      6179.11       1.0255260    0.0083193695
      6185.29       1.0529475    0.0083782790
      6191.48       1.0763127    0.0083850474
      6197.67       1.0961012    0.0083929663
      6203.87       1.1162871    0.0083577029
      6210.07       1.1335675    0.0083694459
      6216.28       1.1532850    0.0083773110
      6222.50       1.1637280    0.0084358612
      6228.72       1.1776168    0.0084028240
      6234.95       1.1906043    0.0084212873
      6241.19       1.1894986    0.0084442390
      6247.42       1.1939945    0.0084249980
      6253.67       1.1984129    0.0085057763
      6259.93       1.1924921    0.0085337902
      6266.19       1.1848074    0.0085602339
      6272.46       1.1805268    0.0085338040
      6278.73       1.1766135    0.0086034820
      6285.01       1.1691935    0.0086133671
      6291.29       1.1584916    0.0085660060
      6297.58       1.1459132    0.0085634567
      6303.88       1.1342002    0.0086094490
      6310.19       1.1276881    0.0085522070
      6316.50       1.1204509    0.0085477775
      6322.81       1.1126675    0.0085489473
      6329.14       1.0981876    0.0085559576
      6335.47       1.0865928    0.0085551437
      6341.80       1.0625111    0.0085086789
      6348.14       1.0567677    0.0085132716
      6354.49       1.0450123    0.0085680408
      6360.85       1.0322868    0.0085256567
      6367.21       1.0243602    0.0085321599
      6373.57       1.0151802    0.0085894323
      6379.95       1.0077719    0.0085492360
      6386.33      0.99782693    0.0085578860
      6392.72      0.99507146    0.0085193985
      6399.11      0.98598415    0.0085800859
      6405.51      0.97764113    0.0085907563
      6411.92      0.97160068    0.0085529709
      6418.32      0.97023442    0.0086154784
      6424.74      0.96837090    0.0085811392
      6431.17      0.96748125    0.0085945928
      6437.60      0.96916527    0.0086634161
      6444.04      0.96580564    0.0086347929
      6450.48      0.95845090    0.0086509064
      6456.94      0.95475508    0.0086723279
      6463.39      0.94748275    0.0086865486
      6469.85      0.94837740    0.0086546226
      6476.33      0.94547781    0.0087186431
      6482.80      0.93815439    0.0086819736
      6489.28      0.93831773    0.0087417226
      6495.77      0.94015682    0.0087482081
      6502.27      0.93560921    0.0087081503
      6508.77      0.92848269    0.0087652431
      6515.28      0.92207826    0.0087258881
      6521.80      0.91166831    0.0087859497
      6528.32      0.91067653    0.0087472137
      6534.85      0.91131097    0.0087560692
      6541.38      0.90399101    0.0087651769
      6547.92      0.90250117    0.0087716927
      6554.47      0.89689813    0.0087798484
      6561.03      0.89566962    0.0087871324
      6567.59      0.88905865    0.0087457341
      6574.16      0.88331255    0.0088021822
      6580.73      0.87147094    0.0087585772
      6587.31      0.85644553    0.0088158349
      6593.90      0.84281593    0.0087748260
      6600.50      0.82846011    0.0087875558
      6607.10      0.81280713    0.0087942409
      6613.70      0.80407044    0.0087561538
      6620.32      0.79634881    0.0088143666
      6626.94      0.77934100    0.0087762284
      6633.57      0.77098186    0.0088341664
      6640.20      0.75243059    0.0087957219
      6646.84      0.73947546    0.0088534657
      6653.49      0.73363461    0.0088150432
      6660.14      0.72125802    0.0088259123
      6666.80      0.70597408    0.0088341808
      6673.47      0.69525004    0.0088444156
      6680.14      0.68256718    0.0088526025
      6686.82      0.67076799    0.0088621913
      6693.51      0.65776060    0.0088224036
      6700.20      0.64335478    0.0088794393
      6706.90      0.63331125    0.0088388635
      6713.61      0.62090714    0.0088960137
      6720.32      0.61449041    0.0088546193
      6727.05      0.60924368    0.0088643832
      6733.77      0.60722533    0.0088696702
      6740.51      0.60684122    0.0088787125
      6747.25      0.61294834    0.0088883206
      6754.00      0.61056181    0.0088923315
      6760.75      0.60938325    0.0089009908
      6767.51      0.60149680    0.0089052648
      6774.28      0.60090633    0.0089131506
      6781.05      0.59628926    0.0088760287
      6787.84      0.58818580    0.0089466035
      6794.62      0.58320295    0.0089885805
      6801.42      0.57299646    0.0089508981
      6808.22      0.56806351    0.0089927732
      6815.03      0.56253415    0.0089761320
      6821.85      0.55398703    0.0090461592
      6828.67      0.54552427    0.0090964158
      6835.50      0.54304807    0.0092583017
      6842.33      0.53360600    0.0094124582
      6849.17      0.52908995    0.0095105561
      6856.02      0.52566789    0.0096964588
      6862.88      0.52218960    0.0098216031
      6869.74      0.52508145    0.0098332015
      6876.61      0.52594022    0.0098553697
      6883.49      0.52618579    0.0098280964
      6890.37      0.53170114    0.0097495370
      6897.27      0.53775879    0.0096370773
      6904.16      0.54871426    0.0095357378
      6911.07      0.55807795    0.0094213841
      6917.98      0.57614499    0.0093454214
      6924.89      0.59113697    0.0092512068
      6931.82      0.60722330    0.0091837968
      6938.75      0.61896999    0.0091673102
      6945.69      0.62729307    0.0090815222
      6952.64      0.62603390    0.0090477893
      6959.59      0.63142167    0.0090168918
      6966.55      0.63395495    0.0089970107
      6973.52      0.63273608    0.0089780021
      6980.49      0.63154273    0.0089661059
      6987.47      0.63321238    0.0089588086
      6994.46      0.63343137    0.0089065193
      7001.46      0.63123069    0.0089467109
      7008.46      0.62778906    0.0089355893
      7015.46      0.62917135    0.0088748672
      7022.48      0.63024075    0.0088567454
      7029.51      0.62769928    0.0088386030
      7036.53      0.63087643    0.0088228065
      7043.57      0.63506083    0.0088086029
      7050.62      0.64262045    0.0087925128
      7057.66      0.64384654    0.0087759637
      7064.72      0.64675641    0.0087606221
      7071.79      0.64446392    0.0087022174
      7078.86      0.64693995    0.0086896615
      7085.94      0.64962190    0.0086828331
      7093.03      0.66054210    0.0087228111
      7100.12      0.66897617    0.0087210046
      7107.22      0.67978507    0.0086779996
      7114.33      0.69292292    0.0086798388
      7121.44      0.71679093    0.0086921715
      7128.56      0.73607598    0.0087194136
      7135.69      0.76438906    0.0087685794
      7142.83      0.78950281    0.0087933740
      7149.97      0.81402902    0.0088803448
      7157.12      0.83971033    0.0089634646
      7164.28      0.86763263    0.0090677353
      7171.44      0.90461238    0.0091082780
      7178.62      0.93206540    0.0091242155
      7185.80      0.96139198    0.0090695967
      7192.98      0.98877806    0.0090502740
      7200.17       1.0087832    0.0090137467
      7207.38       1.0308236    0.0089690091
      7214.58       1.0442431    0.0089275422
      7221.80       1.0563058    0.0088978249
      7229.02       1.0641959    0.0088807329
      7236.25       1.0718856    0.0088193572
      7243.49       1.0802823    0.0088006559
      7250.73       1.0872952    0.0087740905
      7257.98       1.0861546    0.0087340767
      7265.24       1.0804380    0.0086777962
      7272.51       1.0778906    0.0085253661
      7279.78       1.0602440    0.0083741997
      7287.06       1.0333882    0.0082263722
      7294.35       1.0087695    0.0081270746
      7301.64      0.98881531    0.0079843480
      7308.94      0.96601532    0.0078416989
      7316.25      0.95020407    0.0077025624
      7323.57      0.93185220    0.0075699865
      7330.89      0.91180717    0.0074444386
      7338.22      0.89559265    0.0073257809
      7345.56      0.88102642    0.0072131040
      7352.91      0.86087888    0.0071044220
      7360.26      0.84516114    0.0069996037
      7367.62      0.82979371    0.0068998238
      7374.99      0.81886016    0.0068032335
      7382.37      0.81130888    0.0067088971
      7389.75      0.80230086    0.0066164132
      7397.14      0.79034807    0.0065249372
      7404.53      0.77832246    0.0064073645
      7411.94      0.76304247    0.0063198106
      7419.35      0.75108511    0.0062347124
      7426.77      0.73240148    0.0061516414
      7434.20      0.71616352    0.0060703093
      7441.63      0.70467894    0.0059906712
      7449.07      0.68899515    0.0059122057
      7456.52      0.66973536    0.0058350549
      7463.98      0.64667420    0.0057661578
      7471.45      0.62755008    0.0057346914
      7478.92      0.61162589    0.0057448736
      7486.40      0.59591918    0.0057080153
      7493.88      0.58082861    0.0056080828
      7501.38      0.56613460    0.0055266078
      7508.88      0.55353926    0.0054575051
      7516.39      0.53903005    0.0054019956
      7523.91      0.52339747    0.0053728267
      7531.43      0.51032526    0.0053968981
      7538.96      0.50223934    0.0054684322
      7546.50      0.49597274    0.0055681804
      7554.05      0.49232681    0.0056904840
      7561.60      0.48894714    0.0058405167
      7569.16      0.48801066    0.0060254867
      7576.73      0.49040127    0.0062553711
      7584.31      0.49580070    0.0065436481
      7591.89      0.50338958    0.0069085555
      7599.49      0.51526470    0.0073733920
      7607.09      0.52675755    0.0079260790
      7614.70      0.53900048    0.0086722702
      7622.31      0.55356039    0.0096340612
      7629.93      0.57295444     0.010868109
      7637.56      0.59666521     0.012452059
      7645.20      0.62519276     0.014472802
      7652.85      0.65661041     0.017047830
