# starting wavelength =        3918.5200
# ending wavelength =        9726.8300
# O2 telluric scale =        0
# O2 telluric shift =        0
# H2O telluric scale =        0
# H2O telluric shift =        0
      3921.13      0.30836333     0.053858717
      3925.06      0.34144606     0.049479940
      3928.98      0.35294687     0.039711063
      3932.91      0.36042598     0.037173202
      3936.84      0.36527632     0.031055725
      3940.78      0.36893964     0.029560290
      3944.72      0.38302968     0.025795840
      3948.67      0.39019282     0.023984467
      3952.61      0.38974574     0.023254554
      3956.57      0.39156524     0.021534923
      3960.52      0.39284889     0.021025597
      3964.48      0.40497220     0.019976097
      3968.45      0.41488353     0.019583646
      3972.42      0.42600275     0.018914324
      3976.39      0.43910122     0.018587689
      3980.37      0.44338285     0.018138975
      3984.35      0.44870912     0.017853167
      3988.33      0.45858450     0.017541046
      3992.32      0.46706327     0.017282769
      3996.31      0.47568309     0.017257162
      4000.31      0.48094569     0.017231326
      4004.31      0.47819980     0.017205536
      4008.31      0.47505853     0.017179765
      4012.32      0.47717584     0.017384320
      4016.33      0.47894189     0.017358284
      4020.35      0.47803644     0.017332272
      4024.37      0.48121678     0.017306303
      4028.40      0.48686593     0.017280388
      4032.42      0.48978134     0.017254508
      4036.46      0.48953034     0.017466590
      4040.50      0.48805783     0.017440425
      4044.54      0.49412948     0.017414320
      4048.58      0.49469098     0.017388286
      4052.63      0.49673401     0.017362303
      4056.68      0.48749057     0.017336396
      4060.74      0.48358319     0.017310567
      4064.80      0.47558071     0.017284807
      4068.86      0.45857483     0.017505388
      4072.93      0.45929011     0.017479435
      4077.01      0.45692346     0.017453578
      4081.08      0.45451377     0.017427826
      4085.17      0.45556422     0.017402181
      4089.25      0.46350482     0.017376650
      4093.34      0.46240761     0.017351242
      4097.43      0.46979784     0.017325960
      4101.53      0.47933177     0.017300816
      4105.63      0.49612463     0.017275813
      4109.74      0.50556854     0.017250962
      4113.85      0.51450835     0.017226257
      4117.96      0.51996850     0.017447595
      4122.08      0.52796948     0.017419881
      4126.20      0.54183113     0.017392322
      4130.33      0.55003656     0.017364859
      4134.46      0.55111420     0.017337534
      4138.59      0.55420749     0.017310390
      4142.73      0.55653587     0.017283372
      4146.88      0.56639034     0.017256524
      4151.02      0.58093474     0.017229555
      4155.18      0.58341354     0.017202891
      4159.33      0.57831117     0.017438372
      4163.49      0.58155280     0.017411833
      4167.65      0.58793305     0.017385599
      4171.82      0.59099646     0.017359675
      4175.99      0.58839257     0.017334035
      4180.17      0.58561157     0.017308690
      4184.35      0.58297908     0.017283636
      4188.54      0.57914114     0.017258885
      4192.72      0.57513856     0.017234425
      4196.92      0.56937999     0.017483639
      4201.11      0.57196145     0.017454127
      4205.31      0.57236770     0.017424931
      4209.52      0.57326119     0.017395983
      4213.73      0.57607242     0.017367314
      4217.94      0.58352072     0.017339008
      4222.16      0.57921577     0.017310983
      4226.38      0.57854510     0.017283311
      4230.61      0.58828989     0.017538226
      4234.84      0.59016614     0.017510752
      4239.08      0.59597274     0.017483739
      4243.32      0.60573000     0.017457183
      4247.56      0.60579692     0.017431133
      4251.81      0.61025397     0.017405625
      4256.06      0.60373888     0.017380684
      4260.32      0.59590402     0.017356354
      4264.58      0.60407579     0.017624289
      4268.84      0.60421902     0.017593223
      4273.11      0.60143770     0.017562984
      4277.38      0.59203268     0.017532905
      4281.66      0.58730789     0.017503469
      4285.94      0.58941500     0.017474729
      4290.23      0.59294801     0.017446650
      4294.52      0.58485692     0.017725851
      4298.81      0.58453969     0.017698637
      4303.11      0.58132988     0.017672208
      4307.42      0.58315450     0.017646612
      4311.72      0.58726166     0.017621871
      4316.04      0.59850313     0.017598013
      4320.35      0.61088386     0.017575053
      4324.67      0.61646287     0.017855220
      4329.00      0.62268035     0.017822853
      4333.33      0.62755099     0.017791711
      4337.66      0.62819068     0.017761583
      4342.00      0.63092321     0.017732533
      4346.34      0.64467006     0.017704588
      4350.69      0.65940029     0.018014340
      4355.04      0.66221338     0.017988148
      4359.39      0.65523872     0.017963228
      4363.75      0.64522693     0.017939628
      4368.12      0.64231456     0.017917372
      4372.48      0.64483287     0.017896531
      4376.86      0.63821871     0.018189174
      4381.23      0.63552333     0.018156569
      4385.61      0.63074909     0.018125524
      4390.00      0.63282936     0.018096105
      4394.39      0.63384454     0.018068341
      4398.79      0.63292967     0.018042281
      4403.18      0.62562247     0.018055623
      4407.59      0.62586170     0.018016846
      4412.00      0.63595280     0.017979893
      4416.41      0.63337088     0.017944870
      4420.82      0.63444318     0.017911650
      4425.25      0.62729506     0.018251670
      4429.67      0.61921262     0.018221365
      4434.10      0.61149895     0.018193183
      4438.54      0.61910032     0.018167161
      4442.97      0.62521713     0.018143329
      4447.42      0.64023173     0.018503196
      4451.86      0.63901436     0.018462209
      4456.32      0.64421650     0.018424714
      4460.77      0.64627446     0.018389828
      4465.24      0.66145872     0.018357034
      4469.70      0.67397285     0.018327259
      4474.17      0.68714303     0.018716469
      4478.65      0.70188920     0.018692119
      4483.12      0.72035347     0.018671013
      4487.61      0.74091774     0.018653141
      4492.09      0.75604883     0.019017226
      4496.59      0.77037986     0.018978762
      4501.08      0.77364833     0.018550493
      4505.58      0.77808156     0.018520957
      4510.09      0.78517108     0.018494768
      4514.60      0.79725215     0.018471897
      4519.12      0.80157180     0.018452552
      4523.63      0.81369760     0.018822478
      4528.16      0.82648751     0.018781845
      4532.69      0.82588599     0.018356032
      4537.22      0.83999504     0.018325762
      4541.76      0.84937698     0.018299469
      4546.30      0.85521758     0.018276245
      4550.85      0.86006018     0.018257887
      4555.40      0.86333156     0.018243953
      4559.95      0.87235341     0.018198161
      4564.51      0.88153265     0.018164522
      4569.08      0.89238475     0.018135050
      4573.65      0.90579270     0.018109772
      4578.22      0.90627946     0.018088741
      4582.80      0.90472962     0.018072072
      4587.38      0.89829631     0.017638687
      4591.97      0.89968000     0.018005705
      4596.56      0.90741116     0.017974123
      4601.16      0.90332882     0.017947108
      4605.76      0.89572360     0.017924702
      4610.37      0.88986759     0.017906954
      4614.98      0.89378171     0.017485293
      4619.59      0.89180733     0.017449471
      4624.21      0.89813817     0.017815248
      4628.84      0.88348018     0.017787575
      4633.47      0.86918952     0.017764877
      4638.10      0.86359531     0.017747231
      4642.74      0.85014233     0.017330974
      4647.38      0.84055324     0.017295066
      4652.03      0.84225152     0.017657620
      4656.68      0.84034878     0.017630513
      4661.34      0.83077688     0.017608766
      4666.00      0.81764085     0.017215849
      4670.67      0.80926782     0.017175722
      4675.33      0.79824550     0.017140895
      4680.01      0.80120923     0.017501395
      4684.69      0.80461805     0.017476232
      4689.38      0.80440398     0.017456809
      4694.07      0.80956939     0.017058208
      4698.76      0.81466107     0.017020260
      4703.46      0.82534851     0.016987843
      4708.16      0.82631270     0.017347703
      4712.87      0.82711677     0.017325945
      4717.58      0.82086365     0.016941035
      4722.30      0.82241459     0.016900639
      4727.03      0.82842851     0.016866210
      4731.75      0.82555402     0.016837697
      4736.48      0.81757230     0.017198553
      4741.22      0.81631525     0.016822943
      4745.96      0.81206989     0.016780501
      4750.71      0.80334692     0.016744727
      4755.46      0.79400159     0.016715374
      4760.22      0.78615330     0.017072985
      4764.97      0.77261500     0.016703409
      4769.74      0.77076219     0.016661207
      4774.51      0.76560677     0.016625666
      4779.29      0.75681116     0.016596674
      4784.07      0.75308174     0.016256011
      4788.85      0.75412801     0.016583373
      4793.64      0.76079670     0.016541109
      4798.43      0.76416326     0.016505781
      4803.23      0.76350314     0.016477332
      4808.03      0.76225005     0.016140109
      4812.84      0.77073846     0.016459268
      4817.66      0.77534983     0.016418252
      4822.48      0.77720958     0.016384724
      4827.30      0.78223195     0.016044921
      4832.12      0.78762126     0.016026489
      4836.96      0.79468744     0.016336178
      4841.79      0.79723756     0.016298166
      4846.63      0.79870825     0.016267733
      4851.48      0.79989910     0.015933438
      4856.33      0.79494531     0.015918161
      4861.19      0.78861243     0.016213128
      4866.05      0.78077512     0.016178847
      4870.92      0.77712836     0.015842837
      4875.79      0.77733939     0.015824795
      4880.66      0.77934603     0.016129487
      4885.55      0.77481455     0.016091901
      4890.43      0.76649181     0.015754570
      4895.32      0.76734183     0.015734247
      4900.22      0.77007134     0.015721238
      4905.12      0.77399873     0.016006059
      4910.02      0.78403698     0.015667955
      4914.94      0.79676204     0.015645894
      4919.85      0.80978642     0.015631418
      4924.77      0.82474374     0.015920689
      4929.70      0.85003341     0.015582452
      4934.62      0.87365047     0.015559244
      4939.56      0.89664491     0.015543873
      4944.50      0.91098723     0.015536499
      4949.44      0.93187422     0.015497736
      4954.39      0.94874889     0.015473949
      4959.35      0.96427467     0.015458291
      4964.31      0.97402059     0.015450919
      4969.27      0.98465038     0.015413580
      4974.24      0.98238684     0.015389889
      4979.22      0.97454434     0.015374607
      4984.20      0.96785263     0.015367897
      4989.18      0.96069588     0.015329978
      4994.17      0.94724836     0.015307006
      4999.16      0.93065351     0.015292774
      5004.16      0.90791042     0.014963892
      5009.17      0.88112550     0.015246956
      5014.18      0.85968110     0.015225482
      5019.19      0.84161105     0.015212979
      5024.21      0.82391939     0.014881695
      5029.23      0.80292604     0.015164897
      5034.26      0.79106036     0.015145582
      5039.30      0.78009417     0.015135098
      5044.34      0.76958710     0.014799537
      5049.39      0.76352665     0.015083447
      5054.43      0.76228119     0.015067289
      5059.49      0.76436108     0.014750661
      5064.55      0.77250897     0.014720150
      5069.61      0.77577745     0.015005937
      5074.68      0.78611327     0.014993507
      5079.76      0.80440138     0.014669247
      5084.84      0.82047688     0.014642065
      5089.92      0.83639320     0.014930105
      5095.01      0.85439168     0.014620709
      5100.11      0.87014040     0.014588150
      5105.21      0.88275654     0.014869854
      5110.31      0.88760971     0.014574326
      5115.42      0.90319530     0.014536743
      5120.54      0.91351592     0.014509273
      5125.66      0.92501672     0.014795109
      5130.79      0.93033778     0.014488745
      5135.92      0.93074423     0.014457450
      5141.05      0.93201542     0.014435903
      5146.20      0.93317849     0.014442752
      5151.34      0.93436419     0.014406938
      5156.49      0.94192345     0.014381595
      5161.65      0.94835928     0.014397661
      5166.81      0.95702406     0.014357990
      5171.98      0.96275140     0.014329353
      5177.15      0.96806004     0.014056450
      5182.33      0.97048806     0.014310164
      5187.51      0.97265250     0.014278160
      5192.70      0.98193289     0.014003602
      5197.89      0.99272678     0.014263068
      5203.09      0.99769565     0.014228232
      5208.29       1.0005381     0.014204731
      5213.50       1.0202893     0.014216449
      5218.72       1.0298543     0.014179160
      5223.93       1.0437502     0.014153515
      5229.16       1.0507060     0.013887958
      5234.39       1.0557022     0.014130590
      5239.62       1.0641175     0.014103178
      5244.86       1.0721443     0.013837168
      5250.11       1.0814126     0.014082346
      5255.36       1.0940776     0.014053531
      5260.61       1.1079188     0.013787451
      5265.87       1.1222761     0.014034182
      5271.14       1.1260640     0.014004450
      5276.41       1.1366072     0.013738684
      5281.69       1.1415633     0.013986097
      5286.97       1.1472878     0.013707660
      5292.26       1.1533648     0.013690796
      5297.55       1.1598863     0.013937907
      5302.85       1.1595617     0.013660375
      5308.15       1.1650234     0.013643736
      5313.46       1.1773266     0.013638462
      5318.77       1.1767811     0.013613528
      5324.09       1.1797554     0.013597495
      5329.42       1.1750662     0.013592682
      5334.75       1.1738158     0.013566536
      5340.08       1.1754366     0.013551573
      5345.42       1.1738221     0.013548553
      5350.77       1.1687715     0.013521289
      5356.12       1.1729549     0.013507948
      5361.48       1.1773722     0.013506707
      5366.83       1.1623937     0.013476905
      5372.20       1.1519940     0.013465379
      5377.58       1.1561205     0.013198823
      5382.95       1.1515758     0.013432768
      5388.34       1.1377014     0.013423286
      5393.72       1.1301248     0.013153625
      5399.12       1.1187373     0.013388950
      5404.52       1.1124988     0.013382207
      5409.92       1.1046983     0.013362730
      5415.33       1.0969484     0.013346376
      5420.75       1.0967201     0.013090333
      5426.17       1.1004604     0.013318994
      5431.60       1.0992697     0.013306655
      5437.03       1.1042784     0.013045911
      5442.47       1.1106128     0.013276975
      5447.91       1.1125298     0.013268325
      5453.36       1.1155199     0.013002106
      5458.81       1.1252766     0.013236400
      5464.27       1.1262459     0.012985427
      5469.73       1.1248591     0.012959944
      5475.20       1.1373564     0.013198103
      5480.68       1.1532914     0.012940539
      5486.16       1.1586880     0.013170100
      5491.65       1.1634990     0.012926617
      5497.14       1.1668159     0.012897664
      5502.64       1.1675758     0.013131763
      5508.14       1.1760223     0.012880610
      5513.65       1.1737400     0.012857271
      5519.16       1.1717472     0.012868388
      5524.68       1.1729236     0.012837138
      5530.20       1.1685956     0.013068369
      5535.73       1.1563175     0.012821531
      5541.27       1.1486061     0.012796692
      5546.81       1.1365661     0.012810116
      5552.36       1.1200990     0.012777759
      5557.91       1.1052152     0.012759805
      5563.47       1.0891290     0.012762776
      5569.04       1.0750781     0.012737688
      5574.60       1.0590677     0.012751505
      5580.18       1.0524260     0.012719289
      5585.76       1.0481689     0.012492113
      5591.35       1.0413170     0.012704263
      5596.94       1.0325779     0.012680197
      5602.53       1.0293806     0.012692464
      5608.14       1.0243527     0.012661427
      5613.75       1.0174014     0.012437258
      5619.36       1.0103808     0.012645916
      5624.98       1.0000585     0.012624172
      5630.60      0.99010268     0.012633254
      5636.23      0.97478480     0.012605527
      5641.87      0.95385237     0.012385647
      5647.51      0.93601737     0.012589558
      5653.16      0.91061369     0.012364292
      5658.82      0.88215010     0.012575699
      5664.47      0.85538670     0.012344963
      5670.14      0.82813722     0.012337370
      5675.81      0.79848357     0.012534291
      5681.48      0.78074463     0.012314890
      5687.17      0.76590249     0.012518375
      5692.85      0.75027550     0.012294256
      5698.55      0.73680646     0.012504236
      5704.25      0.73685452     0.012275520
      5709.95      0.73687152     0.012269191
      5715.66      0.74401754     0.012258994
      5721.38      0.75649845     0.012248457
      5727.10      0.77824590     0.012449256
      5732.83      0.79306637     0.012229241
      5738.56      0.81067036     0.012230194
      5744.30      0.82947742     0.012211226
      5750.04      0.84492332     0.012208554
      5755.79      0.86047118     0.012194440
      5761.55      0.87853995     0.012188329
      5767.31      0.89213319     0.012178828
      5773.08      0.90326532     0.012169699
      5778.85      0.91323585     0.012165928
      5784.63      0.93094331     0.012154691
      5790.41      0.95133728     0.011938275
      5796.21      0.96304745     0.012140356
      5802.00      0.97320283     0.011928242
      5807.81      0.98520110     0.012129612
      5813.61       1.0029780     0.012132508
      5819.43       1.0192898     0.012132914
      5825.25       1.0412609     0.012136430
      5831.07       1.0677477     0.012141311
      5836.90       1.0799364     0.012143765
      5842.74       1.1061698     0.011934404
      5848.58       1.1122689     0.012152403
      5854.43       1.1141203     0.011935368
      5860.29       1.1191589     0.012146018
      5866.15       1.1207153     0.011927704
      5872.01       1.1243487     0.012132341
      5877.89       1.1213357     0.011912303
      5883.76       1.1175074     0.012112956
      5889.65       1.1214252     0.011895235
      5895.54       1.1302355     0.012095890
      5901.43       1.1377195     0.011878966
      5907.34       1.1419068     0.012074568
      5913.24       1.1520986     0.011856922
      5919.16       1.1582208     0.012049408
      5925.08       1.1582053     0.011832437
      5931.00       1.1619280     0.011812211
      5936.93       1.1667562     0.011805794
      5942.87       1.1677631     0.011783459
      5948.81       1.1643715     0.011780601
      5954.76       1.1697966     0.011761263
      5960.72       1.1505693     0.011759183
      5966.68       1.1481458     0.011738222
      5972.64       1.1379445     0.011737690
      5978.62       1.1206425     0.011719408
      5984.60       1.1057321     0.011721880
      5990.58       1.0938825     0.011704858
      5996.57       1.0821963     0.011708320
      6002.57       1.0776430     0.011513216
      6008.57       1.0751821     0.011697013
      6014.58       1.0597832     0.011503375
      6020.60       1.0624300     0.011685979
      6026.62       1.0564680     0.011493742
      6032.65       1.0466012     0.011675474
      6038.68       1.0441050     0.011484969
      6044.72       1.0410644     0.011665423
      6050.76       1.0378297     0.011476726
      6056.81       1.0367729     0.011655652
      6062.87       1.0337238     0.011468998
      6068.93       1.0384003     0.011646282
      6075.00       1.0378415     0.011461866
      6081.08       1.0421232     0.011458751
      6087.16       1.0367348     0.011455376
      6093.25       1.0366134     0.011450612
      6099.34       1.0411875     0.011449601
      6105.44       1.0402808     0.011443026
      6111.54       1.0409285     0.011444637
      6117.66       1.0381778     0.011436091
      6123.78       1.0319994     0.011619786
      6129.90       1.0376908     0.011429894
      6136.03       1.0503918     0.011432653
      6142.17       1.0598881     0.011424533
      6148.31       1.0683217     0.011424893
      6154.46       1.0790606     0.011420312
      6160.61       1.0816012     0.011419753
      6166.77       1.0998305     0.011421828
      6172.94       1.1225529     0.011424738
      6179.11       1.1517505     0.011427458
      6185.29       1.2005317     0.011419186
      6191.48       1.2541346     0.011241444
      6197.67       1.3092224     0.011435202
      6203.87       1.3677401     0.011463563
      6210.07       1.4200753     0.011475894
      6216.28       1.4744609     0.011510327
      6222.50       1.5099001     0.011528769
      6228.72       1.5439945     0.011555433
      6234.95       1.5568236     0.011383576
      6241.19       1.5727478     0.011579368
      6247.42       1.5869085     0.011385238
      6253.67       1.5946952     0.011570739
      6259.93       1.5953380     0.011357557
      6266.19       1.5808627     0.011340979
      6272.46       1.5565968     0.011500339
      6278.73       1.5498215     0.011294294
      6285.01       1.5334207     0.011468876
      6291.29       1.5183945     0.011270511
      6297.58       1.5033756     0.011267635
      6303.88       1.4949021     0.011242941
      6310.19       1.4811450     0.011241839
      6316.50       1.4807340     0.011414406
      6322.81       1.4717107     0.011222569
      6329.14       1.4694054     0.011230492
      6335.47       1.4587748     0.011209087
      6341.80       1.4465120     0.011214488
      6348.14       1.4364148     0.011201212
      6354.49       1.4217562     0.011204680
      6360.85       1.4202429     0.011219450
      6367.21       1.4234325     0.011200642
      6373.57       1.4317673     0.011211611
      6379.95       1.4310993     0.011041598
      6386.33       1.4313988     0.011210527
      6392.72       1.4303423     0.011233144
      6399.11       1.4291938     0.011221250
      6405.51       1.4207972     0.011244858
      6411.92       1.4099289     0.011081912
      6418.32       1.3986826     0.011256050
      6424.74       1.3889156     0.011278376
      6431.17       1.3827134     0.011106459
      6437.60       1.3732908     0.011280545
      6444.04       1.3579606     0.011113598
      6450.48       1.3501081     0.011276601
      6456.94       1.3338346     0.011283483
      6463.39       1.3208398     0.011108223
      6469.85       1.3094761     0.011271132
      6476.33       1.3005290     0.011106576
      6482.80       1.2822277     0.011105433
      6489.28       1.2734146     0.011275385
      6495.77       1.2611694     0.011107092
      6502.27       1.2538253     0.011105887
      6508.77       1.2546475     0.011273317
      6515.28       1.2653263     0.011100255
      6521.80       1.2684456     0.011101134
      6528.32       1.2778537     0.011102239
      6534.85       1.2956507     0.011095952
      6541.38       1.3108953     0.011095725
      6547.92       1.3163796     0.011093891
      6554.47       1.3176355     0.011091972
      6561.03       1.3027762     0.011098493
      6567.59       1.2938827     0.011096995
      6574.16       1.2828752     0.011098932
      6580.73       1.2627337     0.010932601
      6587.31       1.2386726     0.011106157
      6593.90       1.2095625     0.011109792
      6600.50       1.1773402     0.010943656
      6607.10       1.1409823     0.011117206
      6613.70       1.1086469     0.011121634
      6620.32       1.0796441     0.010955917
      6626.94       1.0573862     0.011129958
      6633.57       1.0418565     0.011134712
      6640.20       1.0207559     0.010968821
      6646.84      0.99341996     0.011143602
      6653.49      0.98936822     0.011148418
      6660.14      0.97792245     0.010982154
      6666.80      0.96517993     0.010998023
      6673.47      0.95051234     0.011162895
      6680.14      0.93681465     0.010996009
      6686.82      0.92242861     0.011011349
      6693.51      0.91374984     0.011178231
      6700.20      0.90382198     0.011010481
      6706.90      0.89227685     0.011025097
      6713.61      0.87911773     0.011194542
      6720.32      0.87263428     0.011025677
      6727.05      0.86356548     0.011039356
      6733.77      0.85576163     0.011058530
      6740.51      0.84535429     0.011044256
      6747.25      0.83850996     0.011080177
      6754.00      0.83591264     0.011139606
      6760.75      0.83046242     0.011128115
      6767.51      0.82251633     0.011128829
      6774.28      0.82104349     0.011188844
      6781.05      0.82257871     0.011105047
      6787.84      0.82266393     0.011362139
      6794.62      0.82479448     0.011553644
      6801.42      0.82225615     0.011781122
      6808.22      0.82225854     0.011744681
      6815.03      0.82270830     0.012091986
      6821.85      0.81890371     0.012270163
      6828.67      0.81744290     0.012142368
      6835.50      0.81721333     0.012369643
      6842.33      0.81394487     0.012337547
      6849.17      0.81348545     0.012084876
      6856.02      0.80774324     0.011947676
      6862.88      0.80461771     0.011973342
      6869.74      0.80394234     0.011838514
      6876.61      0.80592441     0.011605276
      6883.49      0.80847064     0.011547411
      6890.37      0.80995122     0.011641748
      6897.27      0.81154964     0.011419364
      6904.16      0.81778943     0.011365464
      6911.07      0.82416108     0.011333177
      6917.98      0.82886138     0.011468982
      6924.89      0.83467880     0.011293760
      6931.82      0.83837477     0.011280212
      6938.75      0.84506016     0.011280683
      6945.69      0.85003919     0.011287029
      6952.64      0.85214384     0.011290280
      6959.59      0.86002982     0.011295811
      6966.55      0.86550716     0.011299734
      6973.52      0.86750114     0.011135532
      6980.49      0.87420297     0.011293129
      6987.47      0.88021315     0.011285491
      6994.46      0.89156743     0.011284337
      7001.46      0.89847273     0.011120254
      7008.46      0.90435579     0.011284197
      7015.46      0.90986913     0.011281134
      7022.48      0.91603091     0.011283149
      7029.51      0.92092455     0.011122512
      7036.53      0.93052648     0.011135464
      7043.57      0.93354683     0.011301814
      7050.62      0.93525514     0.011323682
      7057.66      0.93686481     0.011175087
      7064.72      0.93852271     0.011205978
      7071.79      0.94145828     0.011248445
      7078.86      0.93980215     0.011438462
      7085.94      0.94361874     0.011327064
      7093.03      0.94656412     0.011430430
      7100.12      0.94468665     0.011572374
      7107.22      0.94861188     0.011737411
      7114.33      0.95387479     0.012008810
      7121.44      0.95368656     0.011935121
      7128.56      0.95746827     0.012037790
      7135.69      0.95996152     0.012107763
      7142.83      0.96445995     0.012149482
      7149.97      0.97351411     0.012138814
      7157.12      0.98473067     0.012134839
      7164.28      0.99202480     0.012117406
      7171.44       1.0086287     0.012108061
      7178.62       1.0251379     0.012123230
      7185.80       1.0526706     0.011964807
      7192.98       1.0809499     0.012150867
      7200.17       1.1184177     0.012182340
      7207.38       1.1638676     0.012199432
      7214.58       1.2084612     0.012193666
      7221.80       1.2451229     0.011996553
      7229.02       1.2830351     0.011951568
      7236.25       1.3153711     0.012074095
      7243.49       1.3446313     0.012041989
      7250.73       1.3631274     0.012003142
      7257.98       1.3757965     0.011796620
      7265.24       1.3877386     0.011738162
      7272.51       1.3882063     0.011684104
      7279.78       1.3867172     0.011799566
      7287.06       1.3791584     0.011765838
      7294.35       1.3747128     0.011588223
      7301.64       1.3616492     0.011560771
      7308.94       1.3483243     0.011546597
      7316.25       1.3369032     0.011539412
      7323.57       1.3263465     0.011536323
      7330.89       1.3176785     0.011684514
      7338.22       1.3100888     0.011526088
      7345.56       1.3062410     0.011518790
      7352.91       1.2943003     0.011516196
      7360.26       1.2781701     0.011518172
      7367.62       1.2607027     0.011524636
      7374.99       1.2407693     0.011534288
      7382.37       1.2251395     0.011383206
      7389.75       1.2086221     0.011546702
      7397.14       1.1846624     0.011556378
      7404.53       1.1647626     0.011568710
      7411.94       1.1424203     0.011582255
      7419.35       1.1249428     0.011597288
      7426.77       1.1049783     0.011448390
      7434.20       1.0843979     0.011466132
      7441.63       1.0611576     0.011484919
      7449.07       1.0365635     0.011506768
      7456.52       1.0185027     0.011679638
      7463.98       1.0022929     0.011762699
      7471.45      0.98730917     0.011926407
      7478.92      0.96790736     0.011831676
      7486.40      0.95010919     0.011825461
      7493.88      0.93345423     0.011886924
      7501.38      0.91728756     0.012155166
      7508.88      0.90005051     0.012610756
      7516.39      0.89027777     0.013253417
      7523.91      0.88260167     0.014064652
      7531.43      0.87337519     0.014869482
      7538.96      0.86741167     0.015484635
      7546.50      0.87414186     0.016492334
      7554.05      0.87761796     0.017377156
      7561.60      0.88086601     0.017953130
      7569.16      0.87966047     0.018065026
      7576.73      0.88432204     0.017684689
      7584.31      0.90091679     0.016932313
      7591.89      0.91729735     0.015997119
      7599.49      0.92495381     0.015056516
      7607.09      0.92889031     0.014317408
      7614.70      0.92547203     0.013651235
      7622.31      0.92878650     0.013148133
      7629.93      0.93769076     0.012723641
      7637.56      0.94838970     0.012633888
      7645.20      0.95561348     0.012479880
      7652.85      0.96172489     0.012359337
      7660.50      0.97095947     0.012250364
      7668.16      0.97768261     0.012169171
      7675.83      0.99027685     0.012118298
      7683.50       1.0033773     0.011943063
      7691.19       1.0185760     0.011928922
      7698.88       1.0244135     0.011928504
      7706.58       1.0347861     0.011936652
      7714.29       1.0413429     0.011949339
      7722.00       1.0551922     0.011964996
      7729.73       1.0681615     0.011983400
      7737.45       1.0737958     0.012003229
      7745.19       1.0710099     0.012023263
      7752.94       1.0711847     0.012044086
      7760.69       1.0679049     0.012065821
      7768.45       1.0693185     0.012087530
      7776.22       1.0656413     0.012110303
      7784.00       1.0675032     0.012135854
      7791.78       1.0621222     0.011996737
      7799.57       1.0559979     0.012025384
      7807.37       1.0520904     0.012056218
      7815.18       1.0474734     0.012089369
      7822.99       1.0423112     0.012122874
      7830.82       1.0444898     0.012152369
      7838.65       1.0422898     0.012177296
      7846.49       1.0318596     0.012200492
      7854.34       1.0250476     0.012222737
      7862.19       1.0212536     0.012244299
      7870.05       1.0159328     0.012265088
      7877.93       1.0063418     0.012285352
      7885.80      0.99645872     0.012306240
      7893.69      0.98861294     0.012328684
      7901.58      0.97745375     0.012353592
      7909.49      0.96145145     0.012379575
      7917.40      0.94750367     0.012404628
      7925.31      0.93501137     0.012429924
      7933.24      0.92593347     0.012454775
      7941.17      0.91510848     0.012477342
      7949.11      0.90489394     0.012497015
      7957.06      0.89325804     0.012516269
      7965.02      0.87697990     0.012537188
      7972.98      0.87017866     0.012558864
      7980.96      0.86910661     0.012577909
      7988.94      0.86429530     0.012597859
      7996.93      0.85920062     0.012623994
      8004.93      0.85640616     0.012655515
      8012.93      0.85961480     0.012696037
      8020.95      0.85501919     0.012748417
      8028.97      0.85585277     0.012811101
      8036.99      0.85552225     0.012888795
      8045.03      0.85886594     0.012989298
      8053.08      0.85542527     0.013112599
      8061.13      0.84975164     0.013252639
      8069.20      0.85020647     0.013401811
      8077.26      0.84929692     0.013561970
      8085.34      0.85295530     0.013726430
      8093.43      0.85281607     0.013861000
      8101.52      0.84707198     0.013764046
      8109.62      0.83967421     0.013802902
      8117.73      0.83633867     0.013833573
      8125.85      0.84504778     0.013850119
      8133.98      0.84884845     0.013857485
      8142.11      0.85411219     0.013852527
      8150.25      0.85517493     0.013836453
      8158.41      0.85801670     0.013817363
      8166.56      0.85636215     0.013806746
      8174.73      0.85164129     0.013807597
      8182.91      0.84747752     0.013806754
      8191.09      0.84087433     0.013795783
      8199.28      0.83060535     0.013781797
      8207.48      0.82352020     0.013763076
      8215.69      0.80487526     0.013572511
      8223.91      0.79207466     0.013549433
      8232.13      0.77763071     0.013551218
      8240.36      0.76607944     0.013575348
      8248.60      0.74984803     0.013576350
      8256.85      0.74155215     0.013530550
      8265.11      0.72880104     0.013646963
      8273.37      0.72527730     0.013614726
      8281.65      0.72454479     0.013586087
      8289.93      0.72462777     0.013568236
      8298.22      0.73324757     0.013392832
      8306.52      0.73955116     0.013372402
      8314.83      0.74550775     0.013356901
      8323.14      0.75704310     0.013349623
      8331.46      0.76672497     0.013350925
      8339.80      0.77387486     0.013355767
      8348.13      0.78537839     0.013360064
      8356.48      0.79455255     0.013367908
      8364.84      0.81110173     0.013233294
      8373.21      0.81344825     0.013248738
      8381.58      0.82375128     0.013434910
      8389.96      0.83798667     0.013451012
      8398.35      0.84375746     0.013469250
      8406.75      0.85348633     0.013488902
      8415.16      0.86158269     0.013511051
      8423.57      0.87054701     0.013535448
      8432.00      0.88415199     0.013415154
      8440.43      0.89898239     0.013440134
      8448.87      0.91722610     0.013465988
      8457.32      0.95160284     0.013491708
      8465.78      0.98669986     0.013680470
      8474.25       1.0242744     0.013699668
      8482.72       1.0596122     0.013718903
      8491.20       1.0973860     0.013590462
      8499.69       1.1462008     0.013611153
      8508.19       1.2079955     0.013633673
      8516.70       1.2761275     0.013657373
      8525.22       1.3589560     0.013680961
      8533.75       1.4438490     0.013705649
      8542.28       1.5660750     0.013739602
      8550.82       1.6821131     0.013764149
      8559.37       1.7958918     0.013790501
      8567.93       1.9202838     0.013817468
      8576.50       2.0434359     0.013845543
      8585.08       2.1663353     0.013719003
      8593.66       2.2619463     0.013742242
      8602.26       2.3438965     0.013939316
      8610.86       2.4044947     0.013963704
      8619.47       2.4516352     0.013988633
      8628.09       2.4674171     0.014014271
      8636.72       2.4472795     0.013881619
      8645.36       2.4154707     0.013902372
      8654.00       2.3853704     0.013924890
      8662.66       2.3363881     0.014124671
      8671.32       2.2862038     0.014151809
      8679.99       2.2342818     0.014025226
      8688.67       2.1845000     0.014047685
      8697.36       2.1372881     0.014072238
      8706.06       2.1013432     0.014099400
      8714.76       2.0618781     0.014158802
      8723.48       2.0410733     0.014180978
      8732.21       2.0248261     0.014204773
      8740.93       2.0134537     0.014230065
      8749.68       1.9935413     0.014257329
      8758.43       1.9651145     0.014318207
      8767.19       1.9315906     0.014341672
      8775.96       1.9013364     0.014368243
      8784.73       1.8646314     0.014396830
      8793.52       1.8205386     0.014289105
      8802.31       1.7702242     0.014332369
      8811.11       1.7136500     0.014547310
      8819.92       1.6620640     0.014591622
      8828.75       1.6065787     0.014521252
      8837.57       1.5456677     0.014605266
      8846.41       1.4848785     0.014700474
      8855.26       1.4122576     0.015014591
      8864.12       1.3456591     0.015052575
      8872.98       1.2932185     0.015238010
      8881.85       1.2417451     0.015442372
      8890.73       1.2045997     0.015916077
      8899.63       1.1663260     0.015998301
      8908.52       1.1383178     0.016196241
      8917.43       1.1119218     0.016357012
      8926.35       1.0891063     0.016459706
      8935.28       1.0802323     0.016494211
      8944.22       1.0699027     0.016462466
      8953.16       1.0561832     0.016411060
      8962.11       1.0434278     0.016362567
      8971.08       1.0276058     0.016340609
      8980.05       1.0148943     0.016355757
      8989.03       1.0170375     0.016385970
      8998.02       1.0235798     0.016305948
      9007.02       1.0179337     0.016615017
      9016.02       1.0168176     0.016717046
      9025.04       1.0122354     0.016824711
      9034.07       1.0204725     0.016743796
      9043.10       1.0351437     0.016996606
      9052.14       1.0363728     0.017027584
      9061.20       1.0413935     0.016871671
      9070.26       1.0404328     0.016877079
      9079.33       1.0476476     0.017090144
      9088.41       1.0578263     0.016874503
      9097.50       1.0638819     0.016811374
      9106.60       1.0686373     0.016728110
      9115.70       1.0758880     0.016632084
      9124.82       1.0821978     0.016556551
      9133.94       1.0895400     0.016494892
      9143.08       1.0965360     0.016470153
      9152.22       1.1097512     0.016364505
      9161.37       1.1222534     0.016264257
      9170.54       1.1322720     0.016364540
      9179.71       1.1301441     0.016463837
      9188.89       1.1250751     0.016625248
      9198.08       1.1301073     0.016958186
      9207.28       1.1314789     0.017470545
      9216.48       1.1461931     0.018132982
      9225.70       1.1501848     0.018802340
      9234.92       1.1431854     0.019598529
      9244.16       1.1410244     0.020471368
      9253.40       1.1428692     0.021174536
      9262.66       1.1484154     0.021756114
      9271.92       1.1597779     0.021854854
      9281.20       1.1834415     0.022017862
      9290.48       1.1909985     0.021993375
      9299.77       1.2076834     0.021771430
      9309.07       1.2116637     0.021728670
      9318.38       1.2156282     0.021423386
      9327.69       1.2190351     0.021057931
      9337.02       1.2118767     0.020768244
      9346.36       1.2070309     0.020638569
      9355.71       1.1993810     0.020394154
      9365.07       1.1969205     0.020246364
      9374.43       1.1854492     0.020119762
      9383.80       1.1730682     0.020183223
      9393.19       1.1565135     0.020090369
      9402.58       1.1452163     0.019938373
      9411.98       1.1299132     0.019700334
      9421.40       1.1285834     0.019485897
      9430.82       1.1272576     0.019391167
      9440.25       1.1195678     0.018991833
      9449.69       1.1114337     0.018669887
      9459.14       1.1007632     0.018297358
      9468.60       1.0991715     0.017954957
      9478.07       1.0870538     0.017815652
      9487.55       1.0925634     0.017533243
      9497.04       1.0958653     0.017272880
      9506.53       1.0969723     0.017006891
      9516.04       1.0985893     0.016726476
      9525.56       1.1046827     0.016562825
      9535.08       1.1089831     0.016214150
      9544.62       1.1113150     0.015874168
      9554.16       1.0975168     0.015537236
      9563.72       1.1020249     0.015237432
      9573.29       1.1069550     0.015352981
      9582.85       1.1060786     0.015505809
      9592.44       1.1043432     0.015699853
      9602.03       1.1105021     0.015941489
      9611.63       1.1114530     0.016273622
      9621.25       1.1126476     0.016715797
      9630.87       1.1124652     0.017276055
      9640.50       1.1173604     0.018032365
      9650.14       1.1216328     0.019065196
      9659.79       1.1293151     0.020423597
      9669.45       1.1352257     0.022178412
      9679.12       1.1406780     0.024454487
      9688.80       1.1470701     0.027476107
      9698.49       1.1546056     0.031421857
      9708.19       1.1635960     0.036269489
      9717.90       1.1727289     0.042226408
