# starting wavelength =        3202.0000
# ending wavelength =        9224.8700
# O2 telluric scale =        0
# O2 telluric shift =        0
# H2O telluric scale =        0
# H2O telluric shift =        0
      3204.23      0.27742811     0.027402928
      3207.44      0.27872744     0.024528338
      3210.64      0.27653958     0.021058520
      3213.85      0.27428516     0.018383759
      3217.07      0.27714772     0.015722895
      3220.28      0.27575983     0.014210771
      3223.51      0.27660585     0.013356801
      3226.73      0.27929095     0.012374835
      3229.96      0.27421625     0.011600598
      3233.19      0.27420694     0.010840677
      3236.42      0.27575202     0.010391058
      3239.66      0.27694873     0.010136865
      3242.90      0.27906730    0.0098132915
      3246.14      0.27905063    0.0095390725
      3249.39      0.28040094    0.0093220527
      3252.64      0.27623539    0.0091274768
      3255.89      0.27566866    0.0089539172
      3259.14      0.27259415    0.0088646241
      3262.40      0.27005089    0.0087189422
      3265.67      0.27156490    0.0087191282
      3268.93      0.26943344    0.0087266604
      3272.20      0.26534561    0.0087352779
      3275.47      0.26442744    0.0088090107
      3278.75      0.26350757    0.0087432386
      3282.03      0.25678572    0.0087514533
      3285.31      0.24897535    0.0088258453
      3288.60      0.23829817    0.0088325565
      3291.88      0.22952196    0.0087670863
      3295.18      0.23327130    0.0088423939
      3298.47      0.23519438    0.0088486358
      3301.77      0.23155038    0.0089232247
      3305.07      0.22538853    0.0089316526
      3308.38      0.22419828    0.0088645983
      3311.69      0.22794230    0.0089388394
      3315.00      0.22999690    0.0089464995
      3318.31      0.23205114    0.0089553138
      3321.63      0.23302063    0.0089541971
      3324.95      0.23099322    0.0089613887
      3328.28      0.23126412    0.0089694354
      3331.61      0.23585168    0.0090468735
      3334.94      0.23727401    0.0090534260
      3338.27      0.23636924    0.0089834622
      3341.61      0.23623904    0.0090625708
      3344.95      0.23687812    0.0090682042
      3348.30      0.23461057    0.0090749287
      3351.65      0.23887073    0.0090782906
      3355.00      0.24771623    0.0090833185
      3358.35      0.25200641    0.0090890351
      3361.71      0.24992767    0.0091673416
      3365.07      0.25049384    0.0091750299
      3368.44      0.24066112    0.0091835088
      3371.81      0.23821868    0.0091809774
      3375.18      0.24417188    0.0091877591
      3378.56      0.24533628    0.0091952955
      3381.94      0.24602315    0.0092768271
      3385.32      0.24005760    0.0092825435
      3388.70      0.23752762    0.0092074215
      3392.09      0.23811758    0.0092915408
      3395.48      0.23794450    0.0092963577
      3398.88      0.23022606    0.0093019213
      3402.28      0.23144228    0.0093083586
      3405.68      0.23349652    0.0093915068
      3409.09      0.23713460    0.0093154390
      3412.49      0.23658110    0.0093207165
      3415.91      0.23693252    0.0094027683
      3419.32      0.23847464    0.0094097246
      3422.74      0.24898478    0.0094173063
      3426.17      0.25308687    0.0095016027
      3429.59      0.25466867    0.0094207876
      3433.02      0.25943545    0.0094273102
      3436.45      0.25681278    0.0095151862
      3439.89      0.25476891    0.0095197144
      3443.33      0.25170791    0.0095248848
      3446.78      0.25435587    0.0095308091
      3450.22      0.25739137    0.0095334920
      3453.67      0.25336414    0.0095375135
      3457.13      0.25334926    0.0095421408
      3460.58      0.25657757    0.0096281204
      3464.04      0.26165639    0.0096340595
      3467.51      0.26095410    0.0096407507
      3470.98      0.25867763    0.0096479842
      3474.45      0.25813959    0.0097362004
      3477.92      0.25755266    0.0096496532
      3481.40      0.26508082    0.0096555974
      3484.88      0.26798802    0.0096620354
      3488.37      0.26430054    0.0097526355
      3491.86      0.25977357    0.0097571113
      3495.35      0.25764471    0.0097619484
      3498.84      0.25936563    0.0098534068
      3502.34      0.25997722    0.0098596358
      3505.84      0.25782916    0.0097730635
      3509.35      0.25832748    0.0097771105
      3512.86      0.25307502    0.0098676805
      3516.37      0.24909004    0.0098729573
      3519.89      0.24955583    0.0098786784
      3523.41      0.25438706    0.0098850367
      3526.93      0.25724640    0.0099796811
      3530.46      0.24975999    0.0099839612
      3533.99      0.24355873    0.0099888384
      3537.53      0.24121130    0.0099940969
      3541.06      0.23604123    0.0099959449
      3544.60      0.23014652    0.0099989786
      3548.15      0.22303647     0.010002387
      3551.70      0.22877446     0.010006339
      3555.25      0.22819514     0.010102085
      3558.80      0.23020119     0.010107319
      3562.36      0.23209705     0.010112730
      3565.92      0.23718748     0.010118657
      3569.49      0.23464434     0.010218821
      3573.06      0.23987955     0.010222341
      3576.64      0.23850909     0.010226634
      3580.21      0.24581914     0.010231060
      3583.79      0.25033984     0.010333216
      3587.38      0.25569728     0.010236690
      3590.96      0.25947425     0.010239621
      3594.55      0.26647935     0.010242831
      3598.15      0.27609813     0.010246281
      3601.75      0.28233096     0.010347251
      3605.35      0.28456966     0.010351552
      3608.96      0.28941611     0.010356309
      3612.56      0.29175035     0.010361369
      3616.18      0.29414190     0.010470033
      3619.79      0.29020352     0.010472892
      3623.41      0.28547526     0.010476144
      3627.04      0.27635163     0.010479354
      3630.66      0.27261124     0.010483175
      3634.29      0.26702315     0.010590707
      3637.93      0.26132134     0.010595176
      3641.57      0.25559014     0.010600035
      3645.21      0.25816967     0.010604984
      3648.86      0.25507569     0.010610276
      3652.50      0.24730169     0.010720811
      3656.16      0.24472577     0.010723949
      3659.81      0.24444422     0.010727259
      3663.47      0.24369982     0.010730700
      3667.14      0.25178071     0.010734590
      3670.80      0.25987832     0.010849422
      3674.48      0.26373086     0.010853620
      3678.15      0.26892435     0.010858081
      3681.83      0.28461259     0.010862846
      3685.51      0.29765773     0.010867688
      3689.20      0.30772978     0.010984706
      3692.88      0.31709747     0.010987222
      3696.58      0.32383866     0.010990110
      3700.27      0.33210215     0.010993303
      3703.98      0.33688698     0.010996444
      3707.68      0.34157203     0.011000132
      3711.39      0.34363492     0.011121902
      3715.10      0.35055727     0.011125800
      3718.81      0.35063223     0.011129707
      3722.53      0.36056509     0.011133555
      3726.26      0.36558803     0.011137645
      3729.98      0.37545406     0.011264590
      3733.71      0.38386141     0.011266652
      3737.45      0.38724830     0.011268968
      3741.18      0.38742497     0.011271245
      3744.93      0.38824337     0.011273464
      3748.67      0.39260869     0.011275912
      3752.42      0.39646697     0.011278288
      3756.17      0.39203031     0.011408050
      3759.93      0.39166525     0.011410612
      3763.69      0.38419132     0.011413420
      3767.45      0.37319552     0.011416488
      3771.22      0.36336535     0.011419059
      3774.99      0.34947047     0.011421861
      3778.77      0.33825023     0.011564971
      3782.54      0.33139658     0.011566246
      3786.33      0.31595212     0.011567628
      3790.11      0.30128811     0.011568868
      3793.90      0.29428369     0.011719575
      3797.70      0.28387172     0.011722313
      3801.50      0.28387248     0.011725152
      3805.30      0.27835297     0.011867970
      3809.10      0.27252273     0.011869567
      3812.91      0.26209372     0.011871095
      3816.73      0.25594540     0.011872752
      3820.54      0.26263654     0.011874556
      3824.36      0.26073614     0.011875702
      3828.19      0.26844384     0.011876979
      3832.02      0.26949065     0.011878341
      3835.85      0.26603763     0.011879591
      3839.68      0.27330004     0.011881385
      3843.52      0.28729565     0.011725016
      3847.37      0.30193250     0.011726290
      3851.22      0.31963512     0.011727423
      3855.07      0.33733270     0.011728215
      3858.92      0.35279087     0.011729056
      3862.78      0.36212070     0.011730285
      3866.64      0.37737337     0.011731473
      3870.51      0.38799484     0.011732402
      3874.38      0.39369035     0.011733260
      3878.26      0.40418898     0.011734124
      3882.13      0.42069475     0.011734864
      3886.02      0.44089732     0.011735283
      3889.90      0.46447674     0.011735765
      3893.79      0.49960842     0.011599874
      3897.69      0.52188848     0.011600587
      3901.59      0.54187262     0.011601027
      3905.49      0.56075453     0.011601655
      3909.39      0.58809492     0.011602038
      3913.30      0.62003041     0.011602152
      3917.22      0.65418920     0.011602818
      3921.13      0.68408306     0.011603221
      3925.06      0.71907918     0.011603807
      3928.98      0.74270846     0.011604174
      3932.91      0.75769031     0.011604357
      3936.84      0.76554059     0.011604730
      3940.78      0.77231024     0.011604879
      3944.72      0.77261743     0.011605679
      3948.67      0.77978895     0.011606275
      3952.61      0.79032545     0.011606705
      3956.57      0.80521707     0.011607483
      3960.52      0.82217284     0.011608127
      3964.48      0.83474881     0.011608736
      3968.45      0.84782258     0.011464018
      3972.42      0.85533507     0.011462916
      3976.39      0.85215663     0.011607979
      3980.37      0.86499324     0.011607141
      3984.35      0.87623280     0.011606274
      3988.33      0.89056388     0.011605242
      3992.32      0.90494840     0.011604565
      3996.31      0.92183703     0.011603757
      4000.31      0.93724338     0.011603634
      4004.31      0.94799755     0.011603434
      4008.31      0.94745746     0.011603186
      4012.32      0.94406615     0.011603292
      4016.33      0.94995411     0.011465867
      4020.35      0.95673089     0.011463053
      4024.37      0.96926492     0.011460911
      4028.40      0.97914713     0.011458830
      4032.42      0.99076290     0.011457004
      4036.46       1.0027564     0.011455561
      4040.50       1.0075467     0.011453728
      4044.54       1.0104164     0.011452344
      4048.58       1.0155692     0.011596864
      4052.63       1.0134361     0.011466447
      4056.68       1.0048705     0.011462536
      4060.74      0.98981394     0.011459069
      4064.80      0.96896084     0.011455372
      4068.86      0.93911850     0.011452174
      4072.93      0.91240900     0.011449448
      4077.01      0.87553136     0.011446535
      4081.08      0.83896501     0.011444879
      4085.17      0.79634781     0.011315189
      4089.25      0.76388998     0.011313843
      4093.34      0.73477299     0.011313059
      4097.43      0.70476881     0.011450130
      4101.53      0.67650304     0.011445654
      4105.63      0.65393074     0.011442062
      4109.74      0.63630539     0.011438601
      4113.85      0.62052037     0.011435788
      4117.96      0.60572017     0.011305642
      4122.08      0.59184552     0.011303833
      4126.20      0.58538522     0.011302403
      4130.33      0.57926792     0.011301630
      4134.46      0.57314495     0.011301703
      4138.59      0.56496230     0.011429597
      4142.73      0.55251132     0.011298275
      4146.88      0.54932601     0.011295521
      4151.02      0.54914743     0.011293239
      4155.18      0.54179719     0.011292039
      4159.33      0.53951501     0.011290923
      4163.49      0.53538261     0.011290994
      4167.65      0.53427210     0.011154613
      4171.82      0.53222718     0.011285837
      4175.99      0.53639426     0.011282797
      4180.17      0.53470740     0.011280701
      4184.35      0.53271272     0.011279292
      4188.54      0.53227532     0.011148643
      4192.72      0.52571460     0.011143862
      4196.92      0.52004319     0.011140059
      4201.11      0.52066256     0.011271308
      4205.31      0.52780960     0.011269162
      4209.52      0.53348414     0.011267826
      4213.73      0.54241208     0.011135956
      4217.94      0.54449127     0.011131062
      4222.16      0.55123071     0.011127227
      4226.38      0.56122446     0.011258317
      4230.61      0.56697740     0.011256345
      4234.84      0.57296842     0.011126265
      4239.08      0.58130427     0.011120766
      4243.32      0.58666732     0.011116178
      4247.56      0.59731671     0.011112821
      4251.81      0.61510554     0.011122676
      4256.06      0.62919845     0.011115267
      4260.32      0.63454874     0.011109149
      4264.58      0.63424039     0.011104034
      4268.84      0.63928002     0.011100290
      4273.11      0.63939460     0.010978743
      4277.38      0.63596283     0.011101799
      4281.66      0.64151490     0.011095560
      4285.94      0.64665370     0.011090549
      4290.23      0.64339287     0.010968262
      4294.52      0.64386444     0.010966251
      4298.81      0.63831618     0.011086733
      4303.11      0.63666823     0.011080941
      4307.42      0.62973425     0.010957662
      4311.72      0.62738769     0.010954688
      4316.04      0.62453173     0.010953601
      4320.35      0.62102984     0.011070565
      4324.67      0.62028045     0.010946441
      4329.00      0.62660502     0.010943031
      4333.33      0.63931739     0.010941400
      4337.66      0.64103080     0.011059164
      4342.00      0.64937908     0.010934409
      4346.34      0.65333304     0.010930991
      4350.69      0.66815914     0.010928900
      4355.04      0.67756055     0.010803858
      4359.39      0.68677328     0.010922401
      4363.75      0.70345982     0.010918696
      4368.12      0.71661860     0.010916460
      4372.48      0.72195814     0.010790979
      4376.86      0.73359623     0.010909521
      4381.23      0.73959945     0.010905635
      4385.61      0.73876268     0.010903908
      4390.00      0.73610724     0.010777216
      4394.39      0.73008702     0.010895679
      4398.79      0.72514421     0.010892305
      4403.18      0.71634089     0.010769423
      4407.59      0.70840945     0.010762751
      4412.00      0.70824056     0.010881636
      4416.41      0.70235463     0.010761844
      4420.82      0.69309803     0.010753858
      4425.25      0.69117547     0.010748026
      4429.67      0.68228203     0.010867652
      4434.10      0.67904031     0.010745065
      4438.54      0.67744991     0.010738152
      4442.97      0.67748090     0.010733432
      4447.42      0.67804875     0.010735984
      4451.86      0.67787861     0.010728184
      4456.32      0.67726439     0.010722400
      4460.77      0.68182874     0.010726624
      4465.24      0.69031061     0.010717751
      4469.70      0.69863067     0.010711395
      4474.17      0.71464093     0.010597016
      4478.65      0.72739185     0.010706953
      4483.12      0.75077387     0.010699951
      4487.61      0.77124811     0.010585315
      4492.09      0.79711646     0.010695844
      4496.59      0.83175261     0.010688424
      4501.08      0.86603759     0.010573386
      4505.58      0.90567789     0.010684249
      4510.09      0.94810387     0.010566202
      4514.60      0.98629652     0.010561455
      4519.12       1.0294300     0.010559727
      4523.63       1.0788679     0.010554120
      4528.16       1.1204142     0.010549407
      4532.69       1.1642552     0.010547774
      4537.22       1.2087766     0.010541581
      4541.76       1.2476920     0.010537101
      4546.30       1.2839886     0.010535562
      4550.85       1.3238048     0.010528628
      4555.40       1.3510259     0.010524593
      4559.95       1.3771548     0.010408407
      4564.51       1.3888127     0.010515573
      4569.08       1.4019222     0.010512195
      4573.65       1.4138776     0.010394765
      4578.22       1.4271840     0.010502559
      4582.80       1.4344356     0.010389290
      4587.38       1.4452709     0.010381088
      4591.97       1.4520356     0.010489514
      4596.56       1.4596640     0.010374349
      4601.16       1.4665309     0.010367065
      4605.76       1.4669813     0.010369345
      4610.37       1.4732474     0.010359795
      4614.98       1.4839893     0.010467004
      4619.59       1.4959492     0.010353148
      4624.21       1.5095676     0.010345065
      4628.84       1.5154703     0.010347931
      4633.47       1.5264513     0.010337345
      4638.10       1.5388590     0.010330922
      4642.74       1.5457588     0.010330833
      4647.38       1.5474073     0.010322068
      4652.03       1.5494516     0.010324813
      4656.68       1.5482046     0.010314191
      4661.34       1.5421565     0.010205366
      4666.00       1.5331106     0.010307063
      4670.67       1.5146406     0.010298383
      4675.33       1.4906293     0.010191833
      4680.01       1.4731161     0.010290013
      4684.69       1.4433132     0.010181671
      4689.38       1.4108149     0.010281789
      4694.07       1.3711395     0.010172001
      4698.76       1.3441358     0.010168732
      4703.46       1.3144875     0.010162775
      4708.16       1.2864708     0.010158073
      4712.87       1.2612811     0.010255834
      4717.58       1.2367481     0.010148086
      4722.30       1.2207748     0.010247271
      4727.03       1.2079096     0.010137940
      4731.75       1.1906022     0.010135297
      4736.48       1.1798154     0.010128289
      4741.22       1.1718335     0.010124478
      4745.96       1.1533228     0.010118747
      4750.71       1.1390400     0.010113926
      4755.46       1.1266695     0.010109137
      4760.22       1.1120644     0.010103440
      4764.97       1.0970278    0.0099948557
      4769.74       1.0838872     0.010093161
      4774.51       1.0660121    0.0099854660
      4779.29       1.0481473     0.010082766
      4784.07       1.0308658    0.0099757925
      4788.85       1.0211325     0.010072441
      4793.64       1.0097616    0.0099661847
      4798.43      0.99842587     0.010062436
      4803.23      0.98793746    0.0099565569
      4808.03      0.97842899    0.0099478256
      4812.84      0.97055124    0.0099465356
      4817.66      0.96478923    0.0099375636
      4822.48      0.95655704    0.0099365242
      4827.30      0.95590739    0.0099273594
      4832.12      0.95646885    0.0099261320
      4836.96      0.96005108    0.0099168184
      4841.79      0.97201087    0.0099155710
      4846.63      0.98620856    0.0099063493
      4851.48       1.0059663    0.0099049027
      4856.33       1.0256009    0.0098958553
      4861.19       1.0547183    0.0098940346
      4866.05       1.0809868    0.0098851831
      4870.92       1.1088533    0.0098831578
      4875.79       1.1356930    0.0097801428
      4880.66       1.1656239    0.0098722042
      4885.55       1.1916613    0.0097694521
      4890.43       1.2104460    0.0098607218
      4895.32       1.2268721    0.0097588375
      4900.22       1.2382267    0.0098494051
      4905.12       1.2396561    0.0097483017
      4910.02       1.2413731    0.0098381577
      4914.94       1.2384717    0.0097379073
      4919.85       1.2351641    0.0097326463
      4924.77       1.2326984    0.0097275619
      4929.70       1.2253394    0.0097216241
      4934.62       1.2246664    0.0097177825
      4939.56       1.2231614    0.0097107959
      4944.50       1.2271471    0.0097079408
      4949.44       1.2326742    0.0096997503
      4954.39       1.2470585    0.0095992354
      4959.35       1.2597653    0.0096893499
      4964.31       1.2780280    0.0095879351
      4969.27       1.3036404    0.0096790704
      4974.24       1.3364326    0.0096726686
      4979.22       1.3663841    0.0095738353
      4984.20       1.3952385    0.0096619394
      4989.18       1.4239189    0.0095618387
      4994.17       1.4503878    0.0096513055
      4999.16       1.4669756    0.0095497900
      5004.16       1.4806824    0.0095475508
      5009.17       1.4810515    0.0095386980
      5014.18       1.4734689    0.0095351088
      5019.19       1.4519365    0.0095345701
      5024.21       1.4236106    0.0095227388
      5029.23       1.3845478    0.0095207188
      5034.26       1.3419943    0.0095113732
      5039.30       1.2872449    0.0095079361
      5044.34       1.2274370    0.0094131874
      5049.39       1.1677145    0.0094956165
      5054.43       1.1094901    0.0094931110
      5059.49       1.0618288    0.0093965732
      5064.55       1.0167539    0.0094801582
      5069.61      0.97802469    0.0093863493
      5074.68      0.95207053    0.0093804249
      5079.76      0.93266075    0.0094646114
      5084.84      0.92538048    0.0093695127
      5089.92      0.93107566    0.0094519810
      5095.01      0.94163939    0.0093599770
      5100.11      0.96391043    0.0093531663
      5105.21      0.99312165    0.0094357827
      5110.31       1.0277738    0.0093429545
      5115.42       1.0687337    0.0093368955
      5120.54       1.1089188    0.0093345768
      5125.66       1.1549031    0.0093265644
      5130.79       1.2033675    0.0093206826
      5135.92       1.2489353    0.0093176445
      5141.05       1.2897838    0.0093100886
      5146.20       1.3342499    0.0093045441
      5151.34       1.3744164    0.0092120207
      5156.49       1.4121629    0.0092938031
      5161.65       1.4441063    0.0092881322
      5166.81       1.4745358    0.0091958783
      5171.98       1.5027362    0.0092776276
      5177.15       1.5225477    0.0091834669
      5182.33       1.5390168    0.0091796657
      5187.51       1.5615991    0.0092615038
      5192.70       1.5790386    0.0091673945
      5197.89       1.5927080    0.0091633984
      5203.09       1.6032475    0.0091609671
      5208.29       1.6145003    0.0091513431
      5213.50       1.6248406    0.0091467719
      5218.72       1.6321591    0.0091440109
      5223.93       1.6416499    0.0091355488
      5229.16       1.6517833    0.0091306052
      5234.39       1.6614802    0.0091270598
      5239.62       1.6688903    0.0090384465
      5244.86       1.6773509    0.0091142116
      5250.11       1.6870582    0.0091102533
      5255.36       1.6970619    0.0091075745
      5260.61       1.7037623    0.0090176053
      5265.87       1.7164920    0.0090937505
      5271.14       1.7286379    0.0090900906
      5276.41       1.7433104    0.0090023640
      5281.69       1.7557223    0.0089968555
      5286.97       1.7735384    0.0090734099
      5292.26       1.7901749    0.0089880009
      5297.55       1.8056843    0.0089815122
      5302.85       1.8198210    0.0089763514
      5308.15       1.8338486    0.0090528612
      5313.46       1.8456985    0.0089672374
      5318.77       1.8561703    0.0089610021
      5324.09       1.8674061    0.0089558804
      5329.42       1.8760470    0.0088694753
      5334.75       1.8835611    0.0089470505
      5340.08       1.8914948    0.0089410109
      5345.42       1.8872185    0.0089358295
      5350.77       1.8810848    0.0088493412
      5356.12       1.8659785    0.0088460072
      5361.48       1.8523324    0.0089213868
      5366.83       1.8325390    0.0089160377
      5372.20       1.8051432    0.0088294158
      5377.58       1.7762343    0.0088255387
      5382.95       1.7415330    0.0088225999
      5388.34       1.7077174    0.0088963766
      5393.72       1.6700986    0.0088097127
      5399.12       1.6317483    0.0088054410
      5404.52       1.5854061    0.0088017751
      5409.92       1.5438660    0.0087990308
      5415.33       1.5060447    0.0087904846
      5420.75       1.4710206    0.0087858382
      5426.17       1.4387589    0.0087817512
      5431.60       1.4107206    0.0087782826
      5437.03       1.3896349    0.0087753595
      5442.47       1.3774777    0.0086917675
      5447.91       1.3704036    0.0086870645
      5453.36       1.3752628    0.0087582064
      5458.81       1.3857201    0.0087544077
      5464.27       1.4109141    0.0087512815
      5469.73       1.4429976    0.0086692748
      5475.20       1.4864489    0.0086644348
      5480.68       1.5545017    0.0086599910
      5486.16       1.6178788    0.0087311067
      5491.65       1.6936342    0.0087276347
      5497.14       1.7683143    0.0086479370
      5502.64       1.8483308    0.0086428822
      5508.14       1.9157428    0.0086381621
      5513.65       1.9825527    0.0086338132
      5519.16       2.0388237    0.0086298313
      5524.68       2.0814673    0.0085494935
      5530.20       2.1071380    0.0085460722
      5535.73       2.1154706    0.0086175250
      5541.27       2.1050839    0.0086129223
      5546.81       2.0755496    0.0086085581
      5552.36       2.0291718    0.0086044254
      5557.91       1.9717029    0.0085241610
      5563.47       1.9006845    0.0085205035
      5569.04       1.8252980    0.0085170477
      5574.60       1.7483179    0.0085138992
      5580.18       1.6755265    0.0085108913
      5585.76       1.6163615    0.0085080248
      5591.35       1.5493009    0.0085764766
      5596.94       1.4977952    0.0084964099
      5602.53       1.4448910    0.0084926525
      5608.14       1.4012454    0.0084890357
      5613.75       1.3661858    0.0084855440
      5619.36       1.3380568    0.0084821819
      5624.98       1.3141616    0.0084791324
      5630.60       1.2892127    0.0084761797
      5636.23       1.2545499    0.0084733304
      5641.87       1.2161159    0.0083969429
      5647.51       1.1714163    0.0083932492
      5653.16       1.1211113    0.0083897067
      5658.82       1.0662086    0.0083862348
      5664.47       1.0067341    0.0083828360
      5670.14      0.94268579    0.0083795000
      5675.81      0.87771777    0.0083762995
      5681.48      0.81326021    0.0083732640
      5687.17      0.75168995    0.0083702453
      5692.85      0.69380883    0.0084372111
      5698.55      0.63731125    0.0084342278
      5704.25      0.59121007    0.0083617314
      5709.95      0.54762958    0.0083583754
      5715.66      0.51674798    0.0083550856
      5721.38      0.49644576    0.0083518501
      5727.10      0.48263482    0.0083487578
      5732.83      0.47553405    0.0083456379
      5738.56      0.47412898    0.0083426473
      5744.30      0.47645917    0.0083396919
      5750.04      0.48326223    0.0083367653
      5755.79      0.49436115    0.0083339335
      5761.55      0.50893558    0.0083312716
      5767.31      0.52461865    0.0083288798
      5773.08      0.54730556    0.0083270529
      5778.85      0.57578277    0.0083256878
      5784.63      0.61060480    0.0083241102
      5790.41      0.65063533    0.0083223698
      5796.21      0.69742924    0.0083211651
      5802.00      0.74429712    0.0081843356
      5807.81      0.79265199    0.0081875753
      5813.61      0.84387706    0.0081922679
      5819.43      0.89551491    0.0081970936
      5825.25      0.94993358    0.0082026508
      5831.07       1.0102696    0.0082096375
      5836.90       1.0772205    0.0082160011
      5842.74       1.1371112    0.0082195178
      5848.58       1.1960126    0.0082209364
      5854.43       1.2501464    0.0082212631
      5860.29       1.3039484    0.0082205413
      5866.15       1.3494001    0.0082183123
      5872.01       1.3940568    0.0082150302
      5877.89       1.4371384    0.0082115777
      5883.76       1.4817624    0.0082087367
      5889.65       1.5187869    0.0082062883
      5895.54       1.5477455    0.0082031148
      5901.43       1.5738476    0.0081989662
      5907.34       1.5858254    0.0081246341
      5913.24       1.5817058    0.0081185407
      5919.16       1.5722127    0.0081128172
      5925.08       1.5535165    0.0081741731
      5931.00       1.5309273    0.0081667521
      5936.93       1.5111888    0.0081602255
      5942.87       1.4952375    0.0081555585
      5948.81       1.4855391    0.0081514251
      5954.76       1.4706073    0.0081463090
      5960.72       1.4567808    0.0081416451
      5966.68       1.4490599    0.0080735619
      5972.64       1.4420225    0.0080704995
      5978.62       1.4298154    0.0080680059
      5984.60       1.4221809    0.0080658794
      5990.58       1.4112876    0.0080642768
      5996.57       1.3964857    0.0080631929
      6002.57       1.3768030    0.0080621424
      6008.57       1.3527204    0.0080613327
      6014.58       1.3193421    0.0079985733
      6020.60       1.2848998    0.0079983603
      6026.62       1.2443210    0.0080639788
      6032.65       1.2117497    0.0080629457
      6038.68       1.1822398    0.0080621010
      6044.72       1.1591424    0.0080615327
      6050.76       1.1438472    0.0080611297
      6056.81       1.1375146    0.0079988278
      6062.87       1.1412084    0.0079989644
      6068.93       1.1481566    0.0079993511
      6075.00       1.1604876    0.0080000776
      6081.08       1.1767208    0.0080010327
      6087.16       1.1925626    0.0080023303
      6093.25       1.2059564    0.0080023429
      6099.34       1.2210761    0.0080027081
      6105.44       1.2337622    0.0080033171
      6111.54       1.2471669    0.0080041826
      6117.66       1.2631514    0.0080054763
      6123.78       1.2782300    0.0079430432
      6129.90       1.2960702    0.0079433074
      6136.03       1.3131372    0.0080088565
      6142.17       1.3318982    0.0080098902
      6148.31       1.3513765    0.0080114567
      6154.46       1.3739293    0.0079520540
      6160.61       1.4081737    0.0079561513
      6166.77       1.4475627    0.0079597533
      6172.94       1.4984297    0.0079601826
      6179.11       1.5585972    0.0079690899
      6185.29       1.6414703    0.0079757533
      6191.48       1.7413406    0.0079867563
      6197.67       1.8523516    0.0080020010
      6203.87       1.9675532    0.0080206178
      6210.07       2.0991169    0.0079830402
      6216.28       2.2389102    0.0080696523
      6222.50       2.3832782    0.0080853743
      6228.72       2.5250607    0.0080976159
      6234.95       2.6738262    0.0080441136
      6241.19       2.8159005    0.0080460744
      6247.42       2.9459105    0.0081037636
      6253.67       3.0516570    0.0080932864
      6259.93       3.1355970    0.0080193505
      6266.19       3.1835529    0.0080073777
      6272.46       3.2105545    0.0079984530
      6278.73       3.2106670    0.0079927074
      6285.01       3.1895471    0.0079886557
      6291.29       3.1545279    0.0079827149
      6297.58       3.1104767    0.0079791967
      6303.88       3.0587926    0.0079767675
      6310.19       2.9992822    0.0079748157
      6316.50       2.9279871    0.0079741923
      6322.81       2.8446109    0.0079134891
      6329.14       2.7597862    0.0079129521
      6335.47       2.6740066    0.0079764187
      6341.80       2.5958135    0.0079194838
      6348.14       2.5120564    0.0079207441
      6354.49       2.4374097    0.0079233693
      6360.85       2.3686235    0.0079904602
      6367.21       2.2963364    0.0079346717
      6373.57       2.2316935    0.0079384603
      6379.95       2.1624920    0.0079442697
      6386.33       2.0884378    0.0079579918
      6392.72       2.0327420    0.0079671643
      6399.11       1.9848535    0.0079779639
      6405.51       1.9414811    0.0079946468
      6411.92       1.9110847    0.0080019594
      6418.32       1.8923249    0.0079530407
      6424.74       1.8796772    0.0079615501
      6431.17       1.8708423    0.0080296158
      6437.60       1.8710386    0.0079758117
      6444.04       1.8658094    0.0079793790
      6450.48       1.8631525    0.0080420409
      6456.94       1.8678964    0.0079853130
      6463.39       1.8736151    0.0079881136
      6469.85       1.8778595    0.0080525133
      6476.33       1.8818470    0.0079984218
      6482.80       1.8841387    0.0080034436
      6489.28       1.8882864    0.0079483211
      6495.77       1.8905707    0.0080119312
      6502.27       1.8803100    0.0080149088
      6508.77       1.8758175    0.0079575725
      6515.28       1.8651638    0.0080226898
      6521.80       1.8437295    0.0079682272
      6528.32       1.8155798    0.0079693596
      6534.85       1.7854248    0.0080332052
      6541.38       1.7470623    0.0079781661
      6547.92       1.7057162    0.0079822544
      6554.47       1.6565648    0.0079929261
      6561.03       1.6041911    0.0079972996
      6567.59       1.5449325    0.0080099081
      6574.16       1.4909458    0.0080141575
      6580.73       1.4383889    0.0080200143
      6587.31       1.3841931    0.0080320608
      6593.90       1.3373541    0.0080372526
      6600.50       1.2879490    0.0079886613
      6607.10       1.2381311    0.0080558215
      6613.70       1.1959152    0.0080069096
      6620.32       1.1523515    0.0080752914
      6626.94       1.1119281    0.0080257681
      6633.57       1.0816057    0.0080337346
      6640.20       1.0485069    0.0081011291
      6646.84       1.0163184    0.0080529033
      6653.49      0.98928799    0.0081213053
      6660.14      0.96406141    0.0080727756
      6666.80      0.94016935    0.0080820133
      6673.47      0.91593645    0.0080932577
      6680.14      0.88962989    0.0081023270
      6686.82      0.86813595    0.0081144567
      6693.51      0.84689020    0.0081234836
      6700.20      0.82191326    0.0080746412
      6706.90      0.79766342    0.0081449561
      6713.61      0.77304909    0.0080966835
      6720.32      0.75049474    0.0081672712
      6727.05      0.72472402    0.0081197025
      6733.77      0.69743902    0.0081947859
      6740.51      0.67993137    0.0081708921
      6747.25      0.65642012    0.0082702506
      6754.00      0.64303835    0.0082159326
      6760.75      0.63115130    0.0082212244
      6767.51      0.62012757    0.0082704231
      6774.28      0.61148288    0.0082884908
      6781.05      0.60794580    0.0084488699
      6787.84      0.60263236    0.0085127988
      6794.62      0.60105788    0.0087211735
      6801.42      0.59873782    0.0087994679
      6808.22      0.59633368    0.0090091246
      6815.03      0.59674544    0.0090478361
      6821.85      0.59611743    0.0091954179
      6828.67      0.59556106    0.0091500146
      6835.50      0.59426900    0.0091984869
      6842.33      0.58639503    0.0090730154
      6849.17      0.57784119    0.0089751071
      6856.02      0.57244047    0.0088943458
      6862.88      0.56437778    0.0088013234
      6869.74      0.56232290    0.0087601432
      6876.61      0.55517998    0.0087261406
      6883.49      0.55308711    0.0086195966
      6890.37      0.54897253    0.0086335845
      6897.27      0.54846788    0.0085565222
      6904.16      0.54872947    0.0086022176
      6911.07      0.55212139    0.0085333790
      6917.98      0.55513220    0.0085304395
      6924.89      0.56283858    0.0085911350
      6931.82      0.57369720    0.0085413517
      6938.75      0.58597211    0.0086141472
      6945.69      0.60366468    0.0085681962
      6952.64      0.62425917    0.0085850860
      6959.59      0.64287762    0.0085915649
      6966.55      0.66116375    0.0086013881
      6973.52      0.68077833    0.0085478678
      6980.49      0.70338766    0.0086113286
      6987.47      0.72839035    0.0086231348
      6994.46      0.74973946    0.0085729166
      7001.46      0.77012284    0.0086408657
      7008.46      0.78199613    0.0085918564
      7015.46      0.79137148    0.0086049996
      7022.48      0.80021213    0.0086769948
      7029.51      0.80951069    0.0086332614
      7036.53      0.81626120    0.0086583657
      7043.57      0.82093022    0.0086798570
      7050.62      0.81966180    0.0087096693
      7057.66      0.81596357    0.0087433673
      7064.72      0.81580801    0.0087710385
      7071.79      0.81204690    0.0088215283
      7078.86      0.81545271    0.0088238715
      7085.94      0.82177741    0.0089618312
      7093.03      0.83311507    0.0090814744
      7100.12      0.84916920    0.0091426598
      7107.22      0.86915927    0.0093186688
      7114.33      0.89161905    0.0094314804
      7121.44      0.91463036    0.0094371605
      7128.56      0.94203573    0.0094997533
      7135.69      0.96850474    0.0096040459
      7142.83      0.99762205    0.0095532751
      7149.97       1.0244426    0.0095591813
      7157.12       1.0582746    0.0094973433
      7164.28       1.0935272    0.0095586437
      7171.44       1.1321239    0.0095792476
      7178.62       1.1661488    0.0095434064
      7185.80       1.2056119    0.0095791542
      7192.98       1.2450124    0.0096775851
      7200.17       1.2826984    0.0097016425
      7207.38       1.3088567    0.0096393971
      7214.58       1.3382303    0.0096282461
      7221.80       1.3751563    0.0096723354
      7229.02       1.4173877    0.0095946335
      7236.25       1.4574037    0.0095804920
      7243.49       1.4904896    0.0095609884
      7250.73       1.5282090    0.0095397820
      7257.98       1.5704200    0.0095083033
      7265.24       1.6239485    0.0094805205
      7272.51       1.6906340    0.0094608900
      7279.78       1.7488840    0.0093875191
      7287.06       1.7969764    0.0094414453
      7294.35       1.8504145    0.0094397024
      7301.64       1.8836972    0.0093824445
      7308.94       1.9226197    0.0093932350
      7316.25       1.9457044    0.0094062509
      7323.57       1.9598815    0.0094767158
      7330.89       1.9517943    0.0094220583
      7338.22       1.9292357    0.0094352391
      7345.56       1.8877039    0.0094513964
      7352.91       1.8421325    0.0094711155
      7360.26       1.7868424    0.0094937727
      7367.62       1.7307543    0.0094499369
      7374.99       1.6665421    0.0095311909
      7382.37       1.5991660    0.0095563298
      7389.75       1.5407954    0.0095840405
      7397.14       1.5001816    0.0095456608
      7404.53       1.4728122    0.0095736815
      7411.94       1.4573123    0.0096026343
      7419.35       1.4430336    0.0096330276
      7426.77       1.4247741    0.0097220806
      7434.20       1.4198291    0.0096868925
      7441.63       1.4180258    0.0097196405
      7449.07       1.4201678    0.0097724595
      7456.52       1.4169054    0.0098846780
      7463.98       1.4179188     0.010036523
      7471.45       1.4165200     0.010029121
      7478.92       1.4226007     0.010026623
      7486.40       1.4131169     0.010131094
      7493.88       1.3948940     0.010399161
      7501.38       1.3650802     0.010781133
      7508.88       1.3336788     0.011326236
      7516.39       1.2964695     0.011891136
      7523.91       1.2493679     0.012684803
      7531.43       1.1840606     0.013550832
      7538.96       1.1180864     0.014408241
      7546.50       1.0406604     0.015128185
      7554.05      0.95793503     0.015560218
      7561.60      0.87765590     0.015595577
      7569.16      0.77940958     0.015235944
      7576.73      0.70639057     0.014589318
      7584.31      0.64278529     0.013852011
      7591.89      0.58832557     0.013092252
      7599.49      0.54667083     0.012422916
      7607.09      0.51461015     0.011925123
      7614.70      0.49574078     0.011523441
      7622.31      0.49670256     0.011193641
      7629.93      0.51547435     0.010994614
      7637.56      0.54722638     0.010897821
      7645.20      0.58512365     0.010778194
      7652.85      0.63703269     0.010711380
      7660.50      0.70430248     0.010665749
      7668.16      0.78098355     0.010643917
      7675.83      0.85916965     0.010642521
      7683.50      0.93711698     0.010656407
      7691.19       1.0308190     0.010681015
      7698.88       1.1470582     0.010711992
      7706.58       1.2635689     0.010746373
      7714.29       1.3727646     0.010783576
      7722.00       1.4757334     0.010823177
      7729.73       1.5794762     0.010863635
      7737.45       1.6872239     0.010904373
      7745.19       1.7874117     0.010946045
      7752.94       1.8703062     0.010988303
      7760.69       1.9461155     0.011030578
      7768.45       2.0142139     0.011074317
      7776.22       2.0698491     0.011120572
      7784.00       2.0967290     0.011168999
      7791.78       2.0932955     0.011218917
      7799.57       2.0728752     0.011271125
      7807.37       2.0409737     0.011248896
      7815.18       1.9855067     0.011380416
      7822.99       1.9011912     0.011431942
      7830.82       1.8038722     0.011414885
      7838.65       1.7271360     0.011460299
      7846.49       1.6461660     0.011505047
      7854.34       1.5511142     0.011549657
      7862.19       1.4505614     0.011593727
      7870.05       1.3584350     0.011637507
      7877.93       1.2843011     0.011682207
      7885.80       1.2266508     0.011728815
      7893.69       1.1671260     0.011777889
      7901.58       1.1073331     0.011828244
      7909.49       1.0688452     0.011813119
      7917.40       1.0444248     0.011862663
      7925.31       1.0192839     0.011911966
      7933.24      0.98699680     0.011959399
      7941.17      0.95816725     0.012004631
      7949.11      0.93841685     0.012049844
      7957.06      0.92555727     0.012096996
      7965.02      0.91042174     0.012079750
      7972.98      0.88931680     0.012126534
      7980.96      0.87025533     0.012175006
      7988.94      0.85258388     0.012228976
      7996.93      0.83072205     0.012366156
      8004.93      0.81461434     0.012433669
      8012.93      0.79397276     0.012452823
      8020.95      0.77606304     0.012541090
      8028.97      0.75648242     0.012645178
      8036.99      0.73772164     0.012771315
      8045.03      0.71718075     0.012919289
      8053.08      0.69857006     0.013028302
      8061.13      0.68654914     0.013201708
      8069.20      0.67377691     0.013492257
      8077.26      0.65160764     0.013684995
      8085.34      0.62568885     0.013777907
      8093.43      0.62074124     0.013872813
      8101.52      0.61758510     0.013943720
      8109.62      0.61760114     0.013926188
      8117.73      0.61469628     0.013967426
      8125.85      0.59861181     0.014081295
      8133.98      0.59216511     0.014097165
      8142.11      0.58007513     0.014028851
      8150.25      0.57664086     0.014039533
      8158.41      0.56486129     0.014063656
      8166.56      0.55097970     0.014102323
      8174.73      0.52537383     0.014144599
      8182.91      0.50496573     0.014173657
      8191.09      0.49078647     0.014201597
      8199.28      0.46054735     0.014226409
      8207.48      0.41768247     0.014166425
      8215.69      0.37257896     0.014277755
      8223.91      0.33126028     0.014328448
      8232.13      0.29118022     0.014302373
      8240.36      0.25655353     0.014305529
      8248.60      0.23836326     0.014366459
      8256.85      0.22147482     0.014360434
      8265.11      0.21178383     0.014276554
      8273.37      0.20193059     0.014282487
      8281.65      0.18787133     0.014389736
      8289.93      0.17772364     0.014326731
      8298.22      0.17269354     0.014341858
      8306.52      0.17336803     0.014363014
      8314.83      0.18234130     0.014404922
      8323.14      0.19084722     0.014443264
      8331.46      0.19454463     0.014484202
      8339.80      0.20569437     0.014540842
      8348.13      0.21055991     0.014584263
      8356.48      0.21190988     0.014556472
      8364.84      0.21978996     0.014609555
      8373.21      0.23066188     0.014756117
      8381.58      0.24640119     0.014736591
      8389.96      0.25906613     0.014795655
      8398.35      0.27659245     0.014857174
      8406.75      0.29920570     0.014935441
      8415.16      0.33814937     0.015000554
      8423.57      0.37582904     0.014987720
      8432.00      0.41319814     0.015147912
      8440.43      0.44465612     0.015214031
      8448.87      0.47829041     0.015198438
      8457.32      0.52663538     0.015358009
      8465.78      0.56845516     0.015340821
      8474.25      0.62855293     0.015400869
      8482.72      0.68942268     0.015561223
      8491.20      0.75682297     0.015542509
      8499.69      0.83965026     0.015605368
      8508.19      0.93771811     0.015688870
      8516.70       1.0622079     0.015750125
      8525.22       1.1728054     0.015735401
      8533.75       1.2856704     0.015899304
      8542.28       1.4068586     0.015888078
      8550.82       1.5249850     0.016058675
      8559.37       1.6492837     0.016046829
      8567.93       1.7858733     0.016117692
      8576.50       1.9288853     0.016289037
      8585.08       2.0669982     0.016278420
      8593.66       2.1922940     0.016450779
      8602.26       2.3156334     0.016437934
      8610.86       2.4299161     0.016508975
      8619.47       2.5378746     0.016595832
      8628.09       2.6062097     0.016665945
      8636.72       2.6714667     0.016753638
      8645.36       2.7144677     0.016824722
      8654.00       2.7372383     0.016810074
      8662.66       2.7467828     0.016989590
      8671.32       2.7484678     0.016977312
      8679.99       2.7378245     0.017074235
      8688.67       2.6859382     0.017147062
      8697.36       2.6383096     0.017059139
      8706.06       2.5552010     0.017051407
      8714.76       2.4795937     0.016945810
      8723.48       2.3956415     0.016941250
      8732.21       2.3109370     0.016940393
      8740.93       2.2292588     0.016864060
      8749.68       2.1487933     0.016868047
      8758.43       2.0613870     0.016778627
      8767.19       1.9711112     0.016789682
      8775.96       1.8868197     0.016803230
      8784.73       1.8156474     0.016760695
      8793.52       1.7561617     0.016785961
      8802.31       1.6883945     0.016816490
      8811.11       1.6043183     0.016777665
      8819.92       1.5350606     0.016776601
      8828.75       1.4567752     0.016859943
      8837.57       1.3750416     0.016971818
      8846.41       1.2984649     0.017060985
      8855.26       1.2329575     0.017220723
      8864.12       1.1850558     0.017420380
      8872.98       1.1228282     0.017475211
      8881.85       1.0594908     0.017676301
      8890.73       1.0038050     0.017842950
      8899.63      0.93595551     0.017979385
      8908.52      0.87502045     0.018023774
      8917.43      0.84748840     0.018099115
      8926.35      0.82435641     0.018105715
      8935.28      0.79699294     0.018149673
      8944.22      0.78010046     0.018089030
      8953.16      0.76384998     0.018048941
      8962.11      0.74294379     0.018062621
      8971.08      0.73246870     0.018072998
      8980.05      0.71693222     0.018028840
      8989.03      0.70188410     0.018052115
      8998.02      0.71728232     0.018047427
      9007.02      0.73998074     0.018115116
      9016.02      0.75423532     0.018105833
      9025.04      0.76865225     0.018127401
      9034.07      0.78597337     0.018184055
      9043.10      0.79212327     0.018180162
      9052.14      0.79760124     0.018226037
      9061.20      0.82009665     0.018201233
      9070.26      0.82527387     0.018217371
      9079.33      0.82163966     0.018278095
      9088.41      0.83232458     0.018554316
      9097.50      0.84535834     0.018870345
      9106.60      0.85436156     0.019251437
      9115.70      0.86461104     0.019732925
      9124.82      0.86684230     0.020251026
      9133.94      0.87511700     0.021037040
      9143.08      0.87419198     0.022065470
      9152.22      0.88110436     0.023408496
      9161.37      0.89639015     0.025164802
      9170.54      0.91545272     0.027484954
      9179.71      0.94149011     0.030565546
      9188.89      0.96743531     0.034620746
      9198.08      0.99133642     0.039933213
      9207.28       1.0116115     0.046903488
      9216.48       1.0264476     0.055960472
