# starting wavelength =        3542.2600
# ending wavelength =        9146.5900
# O2 telluric scale =        0
# O2 telluric shift =        0
# H2O telluric scale =        0
# H2O telluric shift =        0
      3544.60      0.23825052     0.019306377
      3548.15      0.23668226     0.016668485
      3551.70      0.23528241     0.013101658
      3555.25      0.23319068     0.012470939
      3558.80      0.23280033     0.010293075
      3562.36      0.23321371    0.0099480334
      3565.92      0.23278351    0.0090406401
      3569.49      0.22906128    0.0080191388
      3573.06      0.22405408    0.0078510457
      3576.64      0.22326016    0.0072320493
      3580.21      0.22709242    0.0071062696
      3583.79      0.23122037    0.0067184325
      3587.38      0.23117091    0.0065751995
      3590.96      0.23183425    0.0064704522
      3594.55      0.23125152    0.0062779644
      3598.15      0.23165875    0.0061824979
      3601.75      0.23077868    0.0060478574
      3605.35      0.23089950    0.0060312598
      3608.96      0.22975525    0.0059394469
      3612.56      0.23137481    0.0059581834
      3616.18      0.23615484    0.0059775287
      3619.79      0.23926495    0.0059975805
      3623.41      0.23956055    0.0060994005
      3627.04      0.23770359    0.0061160762
      3630.66      0.23692193    0.0061332996
      3634.29      0.23729482    0.0060396257
      3637.93      0.23861545    0.0060578630
      3641.57      0.24142930    0.0061681680
      3645.21      0.23910157    0.0061831034
      3648.86      0.23344984    0.0061986345
      3652.50      0.23020901    0.0062147265
      3656.16      0.23028097    0.0062313897
      3659.81      0.22820146    0.0062486111
      3663.47      0.22276121    0.0063559204
      3667.14      0.22064689    0.0063749251
      3670.80      0.21932179    0.0062794825
      3674.48      0.22182696    0.0062941779
      3678.15      0.22158045    0.0063095331
      3681.83      0.21583194    0.0063254088
      3685.51      0.21394274    0.0064325012
      3689.20      0.21060496    0.0064498659
      3692.88      0.20584729    0.0064678109
      3696.58      0.20317397    0.0064863106
      3700.27      0.20525439    0.0065053675
      3703.98      0.20790788    0.0066189215
      3707.68      0.21046554    0.0066342402
      3711.39      0.20950180    0.0065230329
      3715.10      0.20684244    0.0065392789
      3718.81      0.20186351    0.0065560348
      3722.53      0.19928742    0.0065733108
      3726.26      0.19932751    0.0066964885
      3729.98      0.19921601    0.0067100158
      3733.71      0.20275138    0.0067240212
      3737.45      0.20905857    0.0067385260
      3741.18      0.21214450    0.0067535068
      3744.93      0.21191368    0.0067690916
      3748.67      0.21289449    0.0068903862
      3752.42      0.21300205    0.0069077036
      3756.17      0.21018619    0.0069255435
      3759.93      0.21019601    0.0068109252
      3763.69      0.20944521    0.0068240493
      3767.45      0.20789541    0.0068376328
      3771.22      0.20548690    0.0068516364
      3774.99      0.20644097    0.0069726593
      3778.77      0.20651856    0.0069879324
      3782.54      0.20560807    0.0070036704
      3786.33      0.20524877    0.0070199756
      3790.11      0.20643142    0.0070369166
      3793.90      0.20823459    0.0070543243
      3797.70      0.20758204    0.0071857007
      3801.50      0.20459403    0.0071988894
      3805.30      0.20200856    0.0072125161
      3809.10      0.20272869    0.0072265757
      3812.91      0.20417204    0.0072410559
      3816.73      0.20389113    0.0072559361
      3820.54      0.20712420    0.0071238424
      3824.36      0.20736997    0.0072685185
      3828.19      0.21053088    0.0072795849
      3832.02      0.21470702    0.0072912914
      3835.85      0.21809606    0.0073033543
      3839.68      0.22415355    0.0073157771
      3843.52      0.23400562    0.0073285348
      3847.37      0.24323228    0.0074651546
      3851.22      0.25297182    0.0074789935
      3855.07      0.26105354    0.0074931905
      3858.92      0.26927063    0.0075077023
      3862.78      0.27961860    0.0075228775
      3866.64      0.29341421    0.0075384917
      3870.51      0.30945835    0.0075546796
      3874.38      0.32348579    0.0077061444
      3878.26      0.33568100    0.0077176977
      3882.13      0.34649557    0.0077295606
      3886.02      0.36007393    0.0077417040
      3889.90      0.37696033    0.0077541248
      3893.79      0.39363619    0.0077667990
      3897.69      0.40954602    0.0077800972
      3901.59      0.42430064    0.0077937569
      3905.49      0.43174472    0.0079513008
      3909.39      0.44211089    0.0079663976
      3913.30      0.45134128    0.0079820830
      3917.22      0.45577510    0.0078239173
      3921.13      0.46214312    0.0078340192
      3925.06      0.46636366    0.0078443693
      3928.98      0.46860602    0.0078549092
      3932.91      0.46905371    0.0078656474
      3936.84      0.46888859    0.0080207087
      3940.78      0.46420312    0.0080325154
      3944.72      0.46260162    0.0080446392
      3948.67      0.45958974    0.0080570736
      3952.61      0.45271078    0.0080698166
      3956.57      0.44596685    0.0080830307
      3960.52      0.44106898    0.0080963874
      3964.48      0.43798435    0.0081098117
      3968.45      0.43529156    0.0082931316
      3972.42      0.43223922    0.0083016755
      3976.39      0.43057355    0.0083107832
      3980.37      0.43226271    0.0083201513
      3984.35      0.43721115    0.0083297674
      3988.33      0.44325592    0.0083396248
      3992.32      0.44912803    0.0083496985
      3996.31      0.45583394    0.0083602360
      4000.31      0.46134149    0.0085377104
      4004.31      0.46357032    0.0085488235
      4008.31      0.46247998    0.0085597595
      4012.32      0.46024597    0.0085712226
      4016.33      0.45738570    0.0085828865
      4020.35      0.45380218    0.0085947173
      4024.37      0.44886296    0.0086067263
      4028.40      0.44495653    0.0086189294
      4032.42      0.44359276    0.0086312473
      4036.46      0.43946616    0.0088432744
      4040.50      0.43239074    0.0088511938
      4044.54      0.42386249    0.0088590549
      4048.58      0.41817495    0.0088667052
      4052.63      0.41272742    0.0088748524
      4056.68      0.40662195    0.0088831259
      4060.74      0.40000564    0.0088915354
      4064.80      0.39183232    0.0089000777
      4068.86      0.38407672    0.0089087244
      4072.93      0.37908890    0.0091124796
      4077.01      0.37202167    0.0091215304
      4081.08      0.36490281    0.0091307337
      4085.17      0.35713564    0.0091399785
      4089.25      0.34912845    0.0091495982
      4093.34      0.34155474    0.0091591912
      4097.43      0.33483309    0.0091687485
      4101.53      0.32950321    0.0091782911
      4105.63      0.32515390    0.0091878081
      4109.74      0.32232486    0.0091972813
      4113.85      0.32294122    0.0092067059
      4117.96      0.32471588    0.0092162806
      4122.08      0.32588395    0.0092254567
      4126.20      0.33081737    0.0092349520
      4130.33      0.34048832    0.0092443318
      4134.46      0.34821726    0.0092536500
      4138.59      0.35181644    0.0092629831
      4142.73      0.35240665    0.0092722137
      4146.88      0.35187810    0.0092813809
      4151.02      0.35498249    0.0092904426
      4155.18      0.36034426    0.0092993084
      4159.33      0.36300740    0.0093083557
      4163.49      0.36179070    0.0093167977
      4167.65      0.36159234    0.0095486967
      4171.82      0.35898270    0.0095548521
      4175.99      0.35565423    0.0095608982
      4180.17      0.35066190    0.0095667989
      4184.35      0.34628494    0.0095726381
      4188.54      0.34450644    0.0095782958
      4192.72      0.34232156    0.0095837443
      4196.92      0.33881288    0.0095889259
      4201.11      0.33816577    0.0095950706
      4205.31      0.33974778    0.0096009210
      4209.52      0.33869391    0.0096065807
      4213.73      0.33452047    0.0096120978
      4217.94      0.33142353    0.0096174967
      4222.16      0.33071948    0.0096227905
      4226.38      0.33227388    0.0096279615
      4230.61      0.33512697    0.0096329734
      4234.84      0.33746024    0.0096377668
      4239.08      0.34059364    0.0096422621
      4243.32      0.34528188    0.0096476808
      4247.56      0.34932480    0.0093801077
      4251.81      0.35028040    0.0091820191
      4256.06      0.34872541    0.0091864076
      4260.32      0.34838063    0.0091906890
      4264.58      0.34845312    0.0091948626
      4268.84      0.34640867    0.0091989160
      4273.11      0.34136674    0.0092028249
      4277.38      0.33557515    0.0092069160
      4281.66      0.33031536    0.0092105619
      4285.94      0.32487744    0.0092144067
      4290.23      0.32023179    0.0092181318
      4294.52      0.31673914    0.0092217721
      4298.81      0.31559212    0.0092253463
      4303.11      0.31760194    0.0092288720
      4307.42      0.32007502    0.0092323414
      4311.72      0.32140994    0.0092357433
      4316.04      0.32569418    0.0092394140
      4320.35      0.33402647    0.0092427514
      4324.67      0.34013001    0.0092457157
      4329.00      0.34205665    0.0092489716
      4333.33      0.34222189    0.0092521806
      4337.66      0.34292938    0.0092553773
      4342.00      0.34623031    0.0095046986
      4346.34      0.34718712    0.0095050212
      4350.69      0.34960421    0.0095051625
      4355.04      0.35523971    0.0095054667
      4359.39      0.36005913    0.0095052123
      4363.75      0.36304869    0.0095052440
      4368.12      0.36837395    0.0095051976
      4372.48      0.37692148    0.0095050445
      4376.86      0.38301200    0.0095048191
      4381.23      0.38489459    0.0095045926
      4385.61      0.38512999    0.0095042751
      4390.00      0.38307627    0.0095038826
      4394.39      0.37968502    0.0095034412
      4398.79      0.37909662    0.0095031126
      4403.18      0.38054030    0.0095031393
      4407.59      0.37724129    0.0092952129
      4412.00      0.37276306    0.0092952618
      4416.41      0.37284567    0.0092953624
      4420.82      0.37696644    0.0092954827
      4425.25      0.38169380    0.0092956506
      4429.67      0.38694210    0.0092958463
      4434.10      0.39554072    0.0092964215
      4438.54      0.40386174    0.0092967332
      4442.97      0.40987441    0.0092974801
      4447.42      0.41969697    0.0092983341
      4451.86      0.43611750    0.0092993377
      4456.32      0.45482584    0.0093005342
      4460.77      0.47109409    0.0093019495
      4465.24      0.48531043    0.0093035884
      4469.70      0.50207172    0.0093054395
      4474.17      0.52282417    0.0093075145
      4478.65      0.54495505    0.0093102587
      4483.12      0.56691848    0.0093128390
      4487.61      0.58871252    0.0090815137
      4492.09      0.60666365    0.0090787457
      4496.59      0.62208478    0.0093113370
      4501.08      0.63605301    0.0093087964
      4505.58      0.64786970    0.0093064831
      4510.09      0.65718084    0.0093044156
      4514.60      0.66576903    0.0093029437
      4519.12      0.67176593    0.0093014206
      4523.63      0.67166556    0.0093005872
      4528.16      0.67105405    0.0093000886
      4532.69      0.67703157    0.0092999878
      4537.22      0.68687593    0.0093003177
      4541.76      0.69505582    0.0093011300
      4546.30      0.70133059    0.0090879425
      4550.85      0.70443376    0.0090824871
      4555.40      0.70648826    0.0090772428
      4559.95      0.70872816    0.0090722210
      4564.51      0.70983317    0.0090673753
      4569.08      0.71267134    0.0090633637
      4573.65      0.71823342    0.0090598689
      4578.22      0.72212006    0.0092904796
      4582.80      0.72117722    0.0092878612
      4587.38      0.72035008    0.0092858386
      4591.97      0.71981312    0.0092847674
      4596.56      0.72056744    0.0092840830
      4601.16      0.72335448    0.0090786223
      4605.76      0.71940322    0.0090704001
      4610.37      0.71133745    0.0090628646
      4614.98      0.70312953    0.0090559551
      4619.59      0.69584922    0.0090497348
      4624.21      0.68773940    0.0090442294
      4628.84      0.67797577    0.0090393935
      4633.47      0.66741623    0.0090356617
      4638.10      0.65546127    0.0090323096
      4642.74      0.63725880    0.0092617724
      4647.38      0.62327387    0.0090681811
      4652.03      0.61225211    0.0090572589
      4656.68      0.60557823    0.0090472011
      4661.34      0.60343005    0.0090380432
      4666.00      0.60072882    0.0090297086
      4670.67      0.59520018    0.0090225150
      4675.33      0.58906425    0.0090160940
      4680.01      0.58607411    0.0090102560
      4684.69      0.58613904    0.0090057235
      4689.38      0.58457738    0.0088198595
      4694.07      0.58322132    0.0090406590
      4698.76      0.58040188    0.0090281547
      4703.46      0.57685761    0.0090167052
      4708.16      0.57431774    0.0090066526
      4712.87      0.57279927    0.0089975743
      4717.58      0.56983824    0.0089893902
      4722.30      0.56562726    0.0089821104
      4727.03      0.56202372    0.0089763920
      4731.75      0.56175646    0.0087899212
      4736.48      0.55983126    0.0087867310
      4741.22      0.55672028    0.0089967134
      4745.96      0.55683242    0.0089842266
      4750.71      0.56089627    0.0089729428
      4755.46      0.56205080    0.0089627744
      4760.22      0.55861307    0.0089537590
      4764.97      0.55697590    0.0089465186
      4769.74      0.55954753    0.0087590696
      4774.51      0.55974746    0.0087548568
      4779.29      0.55918065    0.0087519563
      4784.07      0.56260639    0.0089528208
      4788.85      0.56439515    0.0089403182
      4793.64      0.56324713    0.0089291348
      4798.43      0.56152774    0.0089192964
      4803.23      0.56103662    0.0087299757
      4808.03      0.56605987    0.0087240436
      4812.84      0.57543515    0.0087195724
      4817.66      0.58604079    0.0087165964
      4822.48      0.59692972    0.0087151544
      4827.30      0.60628446    0.0088996060
      4832.12      0.61764635    0.0088882768
      4836.96      0.63339393    0.0086973932
      4841.79      0.64497442    0.0086902780
      4846.63      0.65451797    0.0086847936
      4851.48      0.66310470    0.0086810013
      4856.33      0.67066802    0.0086789347
      4861.19      0.67636983    0.0086786693
      4866.05      0.67781350    0.0086707636
      4870.92      0.67844264    0.0086613966
      4875.79      0.67746031    0.0086537370
      4880.66      0.67420685    0.0086477064
      4885.55      0.66932055    0.0086438067
      4890.43      0.66422874    0.0086418267
      4895.32      0.65995977    0.0086419497
      4900.22      0.65998040    0.0086301230
      4905.12      0.65839372    0.0086210297
      4910.02      0.65374988    0.0086137448
      4914.94      0.64959415    0.0086083157
      4919.85      0.64645712    0.0086047872
      4924.77      0.64390806    0.0086036917
      4929.70      0.64220222    0.0084014370
      4934.62      0.63698274    0.0085856388
      4939.56      0.63111433    0.0085772399
      4944.50      0.62336769    0.0085713668
      4949.44      0.61347853    0.0085675797
      4954.39      0.60118784    0.0083788843
      4959.35      0.58918485    0.0083657558
      4964.31      0.57663176    0.0085479625
      4969.27      0.56637799    0.0085390095
      4974.24      0.55772855    0.0085324895
      4979.22      0.54916317    0.0085284381
      4984.20      0.54041257    0.0083398379
      4989.18      0.53572009    0.0083267241
      4994.17      0.53413579    0.0083158359
      4999.16      0.53121076    0.0084987264
      5004.16      0.52745426    0.0084924980
      5009.17      0.52639173    0.0083121549
      5014.18      0.53090609    0.0082968200
      5019.19      0.53761555    0.0082840459
      5024.21      0.54326792    0.0082740721
      5029.23      0.54862967    0.0084572676
      5034.26      0.55081838    0.0084520586
      5039.30      0.54903359    0.0082659517
      5044.34      0.54855124    0.0082514640
      5049.39      0.54820756    0.0082397503
      5054.43      0.54578173    0.0082308033
      5059.49      0.54271261    0.0084142666
      5064.55      0.54326914    0.0082332092
      5069.61      0.54708614    0.0082174789
      5074.68      0.55172552    0.0082045224
      5079.76      0.55707165    0.0081943360
      5084.84      0.56635322    0.0082167605
      5089.92      0.57358055    0.0081970310
      5095.01      0.57885743    0.0081804991
      5100.11      0.58510052    0.0081673529
      5105.21      0.59354668    0.0081571791
      5110.31      0.60782552    0.0081793985
      5115.42      0.62064159    0.0081589844
      5120.54      0.63279132    0.0081418123
      5125.66      0.64679878    0.0081282602
      5130.79      0.66117369    0.0081179807
      5135.92      0.67449708    0.0079570748
      5141.05      0.68574397    0.0081182683
      5146.20      0.69566924    0.0081016717
      5151.34      0.70449055    0.0080884693
      5156.49      0.71487819    0.0079248606
      5161.65      0.72612343    0.0079184048
      5166.81      0.73972719    0.0080746493
      5171.98      0.75145320    0.0080587864
      5177.15      0.76302169    0.0080465792
      5182.33      0.77193267    0.0078854763
      5187.51      0.77830591    0.0080487024
      5192.70      0.78444680    0.0080301934
      5197.89      0.79150629    0.0080153851
      5203.09      0.80053700    0.0078522482
      5208.29      0.81126306    0.0078454438
      5213.50      0.82482653    0.0080006581
      5218.72      0.84009309    0.0079843154
      5223.93      0.85732525    0.0078199898
      5229.16      0.87140110    0.0078116170
      5234.39      0.88430511    0.0078066887
      5239.62      0.89656678    0.0079521179
      5244.86      0.90677964    0.0077865053
      5250.11      0.91702958    0.0077770138
      5255.36      0.92861795    0.0077714181
      5260.61      0.93997960    0.0079200164
      5265.87      0.94871403    0.0077536635
      5271.14      0.95817601    0.0077431365
      5276.41      0.96547976    0.0077363186
      5281.69      0.96918539    0.0077332388
      5286.97      0.96926010    0.0077191765
      5292.26      0.97475474    0.0077081080
      5297.55      0.98057350    0.0077012284
      5302.85      0.98601846    0.0076982156
      5308.15      0.99151412    0.0076849253
      5313.46      0.99636769    0.0076733782
      5318.77       1.0007327    0.0076658128
      5324.09       1.0038909    0.0076625825
      5329.42       1.0019036    0.0076490710
      5334.75       1.0036588    0.0076379051
      5340.08       1.0073606    0.0076308537
      5345.42       1.0130159    0.0076279807
      5350.77       1.0226427    0.0076130517
      5356.12       1.0344717    0.0076017459
      5361.48       1.0451393    0.0075950558
      5366.83       1.0574386    0.0074345081
      5372.20       1.0725198    0.0075762759
      5377.58       1.0867895    0.0075661075
      5382.95       1.1032298    0.0075603733
      5388.34       1.1268496    0.0073978232
      5393.72       1.1503279    0.0075391562
      5399.12       1.1694444    0.0075297025
      5404.52       1.1868757    0.0073762399
      5409.92       1.2049003    0.0073598265
      5415.33       1.2246851    0.0075020630
      5420.75       1.2408530    0.0074945055
      5426.17       1.2499573    0.0073376169
      5431.60       1.2575180    0.0073226186
      5437.03       1.2644752    0.0074650302
      5442.47       1.2657528    0.0073157344
      5447.91       1.2655252    0.0072979324
      5453.36       1.2637421    0.0072851097
      5458.81       1.2565297    0.0074293132
      5464.27       1.2456957    0.0072750824
      5469.73       1.2356149    0.0072593955
      5475.20       1.2214141    0.0073999908
      5480.68       1.2008170    0.0072521219
      5486.16       1.1864037    0.0072340314
      5491.65       1.1754407    0.0072212015
      5497.14       1.1658562    0.0072306637
      5502.64       1.1645209    0.0072102318
      5508.14       1.1666391    0.0071950071
      5513.65       1.1710283    0.0071848550
      5519.16       1.1814624    0.0071858613
      5524.68       1.1868730    0.0071686592
      5530.20       1.1936779    0.0071567687
      5535.73       1.2104521    0.0071626324
      5541.27       1.2245504    0.0071436523
      5546.81       1.2369902    0.0071300622
      5552.36       1.2495836    0.0071388053
      5557.91       1.2620615    0.0071178745
      5563.47       1.2737487    0.0071027624
      5569.04       1.2845783    0.0069670320
      5574.60       1.2920128    0.0070928926
      5580.18       1.2965276    0.0070764822
      5585.76       1.3003175    0.0069398338
      5591.35       1.3006339    0.0070672072
      5596.94       1.3003440    0.0070494199
      5602.53       1.2949223    0.0069123094
      5608.14       1.2900070    0.0070415476
      5613.75       1.2807638    0.0070231895
      5619.36       1.2701296    0.0068858626
      5624.98       1.2583639    0.0068793179
      5630.60       1.2437443    0.0069965244
      5636.23       1.2348227    0.0068588313
      5641.87       1.2224892    0.0068517172
      5647.51       1.2082477    0.0069695538
      5653.16       1.1912696    0.0068323453
      5658.82       1.1728250    0.0068252534
      5664.47       1.1605441    0.0069428171
      5670.14       1.1494892    0.0068056578
      5675.81       1.1394752    0.0067984357
      5681.48       1.1327216    0.0069152942
      5687.17       1.1204814    0.0067790856
      5692.85       1.1079552    0.0067723176
      5698.55       1.0929762    0.0068885315
      5704.25       1.0796915    0.0067529337
      5709.95       1.0720335    0.0067464042
      5715.66       1.0689238    0.0068608214
      5721.38       1.0755132    0.0067265204
      5727.10       1.0784914    0.0067211926
      5732.83       1.0824956    0.0067136589
      5738.56       1.0847795    0.0067032821
      5744.30       1.0857847    0.0066986768
      5750.04       1.0821321    0.0066889619
      5755.79       1.0807778    0.0066798538
      5761.55       1.0790357    0.0066781326
      5767.31       1.0735916    0.0066737025
      5773.08       1.0770476    0.0066694205
      5778.85       1.0815880    0.0066712622
      5784.63       1.0880855    0.0066663823
      5790.41       1.0963472    0.0066644594
      5796.21       1.1098160    0.0065383570
      5802.00       1.1178179    0.0066566116
      5807.81       1.1285233    0.0066525203
      5813.61       1.1422119    0.0065188446
      5819.43       1.1588609    0.0066349854
      5825.25       1.1724684    0.0065066674
      5831.07       1.1816178    0.0064910990
      5836.90       1.1885525    0.0066067699
      5842.74       1.1825850    0.0064762008
      5848.58       1.1784004    0.0065878128
      5854.43       1.1681894    0.0065801730
      5860.29       1.1505249    0.0064447166
      5866.15       1.1331411    0.0065549124
      5872.01       1.1169014    0.0064257259
      5877.89       1.1019159    0.0064090509
      5883.76       1.0862342    0.0065207208
      5889.65       1.0796462    0.0063872055
      5895.54       1.0716522    0.0063730225
      5901.43       1.0671750    0.0063710978
      5907.34       1.0597685    0.0063538816
      5913.24       1.0496686    0.0064636330
      5919.16       1.0414491    0.0063355691
      5925.08       1.0367709    0.0063224076
      5931.00       1.0347674    0.0063239247
      5936.93       1.0315203    0.0063075139
      5942.87       1.0272406    0.0064194899
      5948.81       1.0199206    0.0062955206
      5954.76       1.0119421    0.0062829877
      5960.72       1.0058700    0.0062858911
      5966.68       1.0007669    0.0062700888
      5972.64      0.99576814    0.0061576199
      5978.62      0.99501111    0.0062593238
      5984.60      0.99542340    0.0062474737
      5990.58      0.99657996    0.0062500633
      5996.57      0.99522712    0.0062348359
      6002.57      0.99395596    0.0061241925
      6008.57      0.99164536    0.0062244667
      6014.58      0.98795754    0.0061108208
      6020.60      0.98409762    0.0062153328
      6026.62      0.98336323    0.0062015867
      6032.65      0.98944796    0.0060927641
      6038.68      0.99574557    0.0061904529
      6044.72       1.0035132    0.0060794877
      6050.76       1.0085589    0.0061813234
      6056.81       1.0132981    0.0060675482
      6062.87       1.0196357    0.0060637346
      6068.93       1.0259759    0.0061586264
      6075.00       1.0333914    0.0060504839
      6081.08       1.0428410    0.0061487132
      6087.16       1.0498690    0.0060384081
      6093.25       1.0575808    0.0061399828
      6099.34       1.0588160    0.0060274101
      6105.44       1.0564602    0.0060244246
      6111.54       1.0478772    0.0060203423
      6117.66       1.0378788    0.0060177714
      6123.78       1.0233818    0.0061149752
      6129.90       1.0078030    0.0060070762
      6136.03      0.99260156    0.0061092401
      6142.17      0.97585169    0.0060066328
      6148.31      0.96260669    0.0060117885
      6154.46      0.94534198    0.0060208240
      6160.61      0.93304279    0.0060276271
      6166.77      0.91850871    0.0060419878
      6172.94      0.91037176    0.0060464002
      6179.11      0.90909050    0.0060568518
      6185.29      0.90784047    0.0060547895
      6191.48      0.91269542    0.0059454342
      6197.67      0.91824083    0.0060443341
      6203.87      0.92085230    0.0059276473
      6210.07      0.92474722    0.0060170380
      6216.28      0.92799755    0.0060078299
      6222.50      0.93471778    0.0059856762
      6228.72      0.93584196    0.0059784015
      6234.95      0.93109501    0.0059663159
      6241.19      0.92692372    0.0059585930
      6247.42      0.92051722    0.0058430972
      6253.67      0.91491664    0.0059391685
      6259.93      0.91175903    0.0058280231
      6266.19      0.91394985    0.0059243553
      6272.46      0.92398599    0.0058154430
      6278.73      0.92949919    0.0059123215
      6285.01      0.94149516    0.0058054969
      6291.29      0.95573581    0.0059028252
      6297.58      0.96987129    0.0057981643
      6303.88      0.98352199    0.0058959958
      6310.19      0.99705994    0.0057932567
      6316.50       1.0123495    0.0058912991
      6322.81       1.0272102    0.0057896989
      6329.14       1.0445320    0.0058885925
      6335.47       1.0597057    0.0057901779
      6341.80       1.0719228    0.0057853173
      6348.14       1.0793154    0.0057967405
      6354.49       1.0867629    0.0057924899
      6360.85       1.0922269    0.0058025109
      6367.21       1.0993697    0.0057972472
      6373.57       1.1022234    0.0058066243
      6379.95       1.1099339    0.0058005639
      6386.33       1.1248748    0.0058069249
      6392.72       1.1330507    0.0057990285
      6399.11       1.1391974    0.0058021881
      6405.51       1.1449279    0.0057934596
      6411.92       1.1494909    0.0057961406
      6418.32       1.1501541    0.0057882667
      6424.74       1.1454361    0.0057926245
      6431.17       1.1527098    0.0056974915
      6437.60       1.1574112    0.0057903473
      6444.04       1.1581407    0.0056948804
      6450.48       1.1632716    0.0057855700
      6456.94       1.1716077    0.0056902764
      6463.39       1.1774755    0.0057808032
      6469.85       1.1871013    0.0056874454
      6476.33       1.1950148    0.0057771330
      6482.80       1.1980548    0.0056838464
      6489.28       1.2007341    0.0057725245
      6495.77       1.2022229    0.0056819179
      6502.27       1.2047914    0.0057719198
      6508.77       1.2036589    0.0056834025
      6515.28       1.2025560    0.0056857581
      6521.80       1.2017440    0.0056864670
      6528.32       1.2025131    0.0056887096
      6534.85       1.2024746    0.0056907930
      6541.38       1.1964050    0.0056921942
      6547.92       1.1936893    0.0056958659
      6554.47       1.1944200    0.0056967131
      6561.03       1.1884209    0.0057920352
      6567.59       1.1861911    0.0057020277
      6574.16       1.1885972    0.0057089110
      6580.73       1.1880937    0.0057082154
      6587.31       1.1860534    0.0057141618
      6593.90       1.1850878    0.0057153639
      6600.50       1.1828157    0.0057201956
      6607.10       1.1819884    0.0057234244
      6613.70       1.1832951    0.0057271766
      6620.32       1.1841989    0.0056397648
      6626.94       1.1823231    0.0057351393
      6633.57       1.1842941    0.0056463504
      6640.20       1.1869302    0.0057440680
      6646.84       1.1913654    0.0057517974
      6653.49       1.1938249    0.0057541927
      6660.14       1.1946497    0.0057604391
      6666.80       1.1920137    0.0056744164
      6673.47       1.1953581    0.0057702921
      6680.14       1.1977524    0.0056838349
      6686.82       1.1968777    0.0057880437
      6693.51       1.1975058    0.0057189281
      6700.20       1.1965431    0.0057419129
      6706.90       1.1915760    0.0058379505
      6713.61       1.1895880    0.0057603440
      6720.32       1.1864898    0.0058853567
      6727.05       1.1791720    0.0058566326
      6733.77       1.1717623    0.0060159586
      6740.51       1.1618920    0.0060171593
      6747.25       1.1502294    0.0061505769
      6754.00       1.1406364    0.0062057782
      6760.75       1.1275812    0.0063198818
      6767.51       1.1139983    0.0064023077
      6774.28       1.1008931    0.0064097626
      6781.05       1.0819365    0.0064141441
      6787.84       1.0698492    0.0063864948
      6794.62       1.0569785    0.0063230403
      6801.42       1.0519578    0.0062482709
      6808.22       1.0493773    0.0061961120
      6815.03       1.0484109    0.0061492865
      6821.85       1.0492017    0.0061294154
      6828.67       1.0542555    0.0061034655
      6835.50       1.0572224    0.0059796592
      6842.33       1.0636778    0.0060438519
      6849.17       1.0723661    0.0060382662
      6856.02       1.0798098    0.0059362636
      6862.88       1.0866809    0.0060201611
      6869.74       1.0925314    0.0059312052
      6876.61       1.0981740    0.0060208440
      6883.49       1.1064394    0.0060371651
      6890.37       1.1100208    0.0059529305
      6897.27       1.1146461    0.0060535496
      6904.16       1.1143389    0.0059727399
      6911.07       1.1101433    0.0059817183
      6917.98       1.1038815    0.0060767010
      6924.89       1.0949190    0.0059907780
      6931.82       1.0878119    0.0059991836
      6938.75       1.0801844    0.0060994726
      6945.69       1.0683426    0.0060135185
      6952.64       1.0568709    0.0060252935
      6959.59       1.0488138    0.0060300050
      6966.55       1.0380310    0.0060414259
      6973.52       1.0296004    0.0061426097
      6980.49       1.0186075    0.0060660299
      6987.47       1.0100824    0.0060889961
      6994.46       1.0030719    0.0061962859
      7001.46      0.99724459    0.0061280568
      7008.46      0.99435953    0.0061582224
      7015.46      0.99299965    0.0061782807
      7022.48      0.99333730    0.0062219047
      7029.51      0.99424335    0.0062882965
      7036.53      0.99676979    0.0063320191
      7043.57      0.99950069    0.0064318187
      7050.62       1.0035002    0.0065440877
      7057.66       1.0110561    0.0065961739
      7064.72       1.0235229    0.0066795578
      7071.79       1.0332538    0.0067428068
      7078.86       1.0423517    0.0066657511
      7085.94       1.0551839    0.0067955201
      7093.03       1.0673752    0.0066967991
      7100.12       1.0767887    0.0067083249
      7107.22       1.0844951    0.0068142407
      7114.33       1.0923444    0.0067163207
      7121.44       1.1024470    0.0067476550
      7128.56       1.1092335    0.0068761057
      7135.69       1.1120948    0.0067954914
      7142.83       1.1123007    0.0068304129
      7149.97       1.1117491    0.0069462045
      7157.12       1.1081116    0.0068428015
      7164.28       1.0986961    0.0068368350
      7171.44       1.0870990    0.0068337454
      7178.62       1.0782302    0.0068203126
      7185.80       1.0643354    0.0068194776
      7192.98       1.0546003    0.0068131342
      7200.17       1.0506192    0.0067943303
      7207.38       1.0462907    0.0067798895
      7214.58       1.0487490    0.0067734774
      7221.80       1.0501698    0.0067624637
      7229.02       1.0530601    0.0067622809
      7236.25       1.0569104    0.0067689077
      7243.49       1.0685621    0.0067874447
      7250.73       1.0776687    0.0067819164
      7257.98       1.0889347    0.0068022340
      7265.24       1.1008107    0.0068246131
      7272.51       1.1086117    0.0067342730
      7279.78       1.1164389    0.0068406783
      7287.06       1.1253840    0.0068651232
      7294.35       1.1297255    0.0067822417
      7301.64       1.1322756    0.0068940382
      7308.94       1.1317649    0.0069235181
      7316.25       1.1334325    0.0069569126
      7323.57       1.1351436    0.0068736735
      7330.89       1.1390272    0.0069922134
      7338.22       1.1439527    0.0070280088
      7345.56       1.1393104    0.0069504190
      7352.91       1.1320365    0.0069825174
      7360.26       1.1197323    0.0071065171
      7367.62       1.1062535    0.0070340375
      7374.99       1.0936124    0.0070673374
      7382.37       1.0802396    0.0071036355
      7389.75       1.0613152    0.0072334595
      7397.14       1.0360567    0.0071874806
      7404.53       1.0135514    0.0073055912
      7411.94      0.98945734    0.0074235344
      7419.35      0.96342520    0.0075262739
      7426.77      0.93926943    0.0074544492
      7434.20      0.91490652    0.0075831741
      7441.63      0.89362228    0.0078578944
      7449.07      0.87299297    0.0081045979
      7456.52      0.85542475    0.0085359355
      7463.98      0.83963799    0.0091553820
      7471.45      0.82697951    0.0098747577
      7478.92      0.80761996     0.010278831
      7486.40      0.78489441     0.010979388
      7493.88      0.76834039     0.011545421
      7501.38      0.75508378     0.011797894
      7508.88      0.74523944     0.011438325
      7516.39      0.74698931     0.011078708
      7523.91      0.74546539     0.010907472
      7531.43      0.74756792     0.010258945
      7538.96      0.75272765    0.0096094153
      7546.50      0.76199346    0.0091552833
      7554.05      0.77323869    0.0090287911
      7561.60      0.78738695    0.0087065698
      7569.16      0.80920833    0.0084311764
      7576.73      0.83642559    0.0083206640
      7584.31      0.86349049    0.0082740495
      7591.89      0.89377689    0.0083156381
      7599.49      0.92771248    0.0081924088
      7607.09      0.95710312    0.0081721161
      7614.70      0.98521264    0.0081763264
      7622.31       1.0169668    0.0082000168
      7629.93       1.0456323    0.0082378067
      7637.56       1.0714086    0.0082410780
      7645.20       1.0953642    0.0082849204
      7652.85       1.1220967    0.0083334835
      7660.50       1.1468138    0.0083861644
      7668.16       1.1619200    0.0083047954
      7675.83       1.1752234    0.0084509581
      7683.50       1.1859759    0.0085035531
      7691.19       1.1961647    0.0085585737
      7698.88       1.2024943    0.0086154739
      7706.58       1.2099052    0.0085345504
      7714.29       1.2219225    0.0085887162
      7722.00       1.2314070    0.0087453000
      7729.73       1.2401457    0.0088074152
      7737.45       1.2511994    0.0088725890
      7745.19       1.2582187    0.0087971412
      7752.94       1.2646449    0.0088608291
      7760.69       1.2737009    0.0089243842
      7768.45       1.2859392    0.0090893604
      7776.22       1.2950580    0.0091507014
      7784.00       1.3083997    0.0090713430
      7791.78       1.3236421    0.0091269376
      7799.57       1.3380210    0.0091834400
      7807.37       1.3500487    0.0092407710
      7815.18       1.3564285    0.0092994072
      7822.99       1.3686778    0.0094678706
      7830.82       1.3801321    0.0093877022
      7838.65       1.3858616    0.0094486740
      7846.49       1.3891741    0.0095112988
      7854.34       1.3980842    0.0095749226
      7862.19       1.4038720    0.0096399955
      7870.05       1.3992839    0.0097047556
      7877.93       1.3942602    0.0097350101
      7885.80       1.3866940    0.0097935328
      7893.69       1.3764315    0.0098538246
      7901.58       1.3664073    0.0099166960
      7909.49       1.3504392    0.0099795588
      7917.40       1.3310158     0.010042456
      7925.31       1.3110801    0.0099533517
      7933.24       1.2921697     0.010025611
      7941.17       1.2732406     0.010221090
      7949.11       1.2537818     0.010305480
      7957.06       1.2355946     0.010401634
      7965.02       1.2157762     0.010509439
      7972.98       1.2038089     0.010638077
      7980.96       1.1906718     0.010608817
      7988.94       1.1742726     0.010775876
      7996.93       1.1658588     0.010955349
      8004.93       1.1554560     0.011148409
      8012.93       1.1327830     0.011349425
      8020.95       1.1099340     0.011639074
      8028.97       1.0878475     0.011781488
      8036.99       1.0596711     0.011675133
      8045.03       1.0308766     0.011767687
      8053.08      0.99378139     0.011847100
      8061.13      0.94937216     0.011913548
      8069.20      0.90059044     0.011970201
      8077.26      0.85463877     0.012017797
      8085.34      0.80733587     0.012061946
      8093.43      0.75459283     0.012113593
      8101.52      0.70477272     0.011987263
      8109.62      0.65540599     0.012045955
      8117.73      0.61208228     0.012235622
      8125.85      0.57313298     0.012280381
      8133.98      0.53699901     0.012319975
      8142.11      0.49983051     0.012355332
      8150.25      0.46598229     0.012391155
      8158.41      0.43769437     0.012452777
      8166.56      0.41406894     0.012544342
      8174.73      0.40075659     0.012607831
      8182.91      0.39478861     0.012454677
      8191.09      0.39320627     0.012463616
      8199.28      0.39416322     0.012485486
      8207.48      0.39782134     0.012513826
      8215.69      0.40660660     0.012550408
      8223.91      0.41847716     0.012595377
      8232.13      0.43026071     0.012636647
      8240.36      0.44093670     0.012680813
      8248.60      0.45130055     0.012733153
      8256.85      0.46713952     0.012795243
      8265.11      0.48672442     0.013005742
      8273.37      0.50952082     0.013072541
      8281.65      0.53078681     0.012962299
      8289.93      0.54972270     0.013032421
      8298.22      0.56180125     0.013107040
      8306.52      0.56964990     0.013185462
      8314.83      0.58347758     0.013265772
      8323.14      0.60674177     0.013349457
      8331.46      0.63685472     0.013434787
      8339.80      0.66477454     0.013522322
      8348.13      0.68934655     0.013612883
      8356.48      0.71500611     0.013704882
      8364.84      0.74699088     0.013797145
      8373.21      0.78358563     0.013890372
      8381.58      0.81892620     0.013983278
      8389.96      0.85952148     0.014074786
      8398.35      0.90271720     0.014166063
      8406.75      0.95233702     0.014256950
      8415.16       1.0084807     0.014347614
      8423.57       1.0691747     0.014438965
      8432.00       1.1199731     0.014316252
      8440.43       1.1710794     0.014409073
      8448.87       1.2140357     0.014501750
      8457.32       1.2474685     0.014594519
      8465.78       1.2884715     0.014689102
      8474.25       1.3431372     0.014786140
      8482.72       1.3983716     0.014886333
      8491.20       1.4463424     0.014986985
      8499.69       1.4827425     0.015087659
      8508.19       1.5162781     0.015189573
      8516.70       1.5515204     0.015291923
      8525.22       1.5857231     0.015394271
      8533.75       1.6161723     0.015496392
      8542.28       1.6339162     0.015598227
      8550.82       1.6469776     0.015700093
      8559.37       1.6626633     0.015802021
      8567.93       1.6906622     0.015904004
      8576.50       1.7140563     0.015845567
      8585.08       1.7249087     0.015948969
      8593.66       1.7221811     0.016053970
      8602.26       1.7176223     0.016161282
      8610.86       1.7015414     0.015884424
      8619.47       1.6833041     0.015990812
      8628.09       1.6699476     0.016098569
      8636.72       1.6631230     0.015841326
      8645.36       1.6573508     0.015947980
      8654.00       1.6457017     0.016055187
      8662.66       1.6350167     0.015814318
      8671.32       1.6177870     0.015921652
      8679.99       1.5936368     0.015895073
      8688.67       1.5545634     0.016004461
      8697.36       1.5128857     0.015921853
      8706.06       1.4706637     0.015907136
      8714.76       1.4303942     0.016026633
      8723.48       1.3936773     0.015966983
      8732.21       1.3566170     0.015962859
      8740.93       1.3299092     0.016101206
      8749.68       1.3051070     0.015947599
      8758.43       1.2811396     0.016111854
      8767.19       1.2448728     0.016204482
      8775.96       1.2031636     0.016413557
      8784.73       1.1674982     0.016452549
      8793.52       1.1265013     0.016626795
      8802.31       1.0985161     0.016904803
      8811.11       1.0808949     0.016883074
      8819.92       1.0564335     0.017136450
      8828.75       1.0439984     0.017374748
      8837.57       1.0395209     0.017485250
      8846.41       1.0351395     0.017469948
      8855.26       1.0327514     0.017546409
      8864.12       1.0251026     0.017707537
      8872.98       1.0263919     0.017742643
      8881.85       1.0226759     0.017682682
      8890.73       1.0241001     0.017700475
      8899.63       1.0183359     0.017809820
      8908.52       1.0062883     0.017741418
      8917.43      0.98850401     0.017750542
      8926.35      0.96587346     0.017873301
      8935.28      0.95583617     0.017912555
      8944.22      0.95850481     0.017886971
      8953.16      0.97141095     0.017942521
      8962.11      0.97993296     0.018089321
      8971.08      0.98663486     0.018126298
      8980.05      0.98851309     0.018099885
      8989.03      0.99299719     0.018156220
      8998.02      0.99638289     0.018377018
      9007.02      0.99669262     0.018698578
      9016.02      0.99835139     0.018969134
      9025.04      0.99531505     0.019404347
      9034.07      0.99367450     0.019900719
      9043.10      0.99109859     0.020483149
      9052.14      0.99724291     0.020983872
      9061.20       1.0058474     0.021878151
      9070.26       1.0212113     0.023048073
      9079.33       1.0391402     0.024946669
      9088.41       1.0630352     0.027116402
      9097.50       1.0780822     0.029922530
      9106.60       1.0897091     0.033507147
      9115.70       1.0982606     0.038112238
      9124.82       1.1054253     0.042580914
      9133.94       1.1138577     0.049707203
      9143.08       1.1212894     0.058820205
