# starting wavelength =        3486.1100
# ending wavelength =        9966.5600
# O2 telluric scale =        0
# O2 telluric shift =        0
# H2O telluric scale =        0
# H2O telluric shift =        0
      3488.37       1.9358210     0.024243841
      3491.86       1.9259524     0.020455775
      3495.35       1.9084839     0.017545460
      3498.84       1.8905385     0.014726433
      3502.34       1.8710155     0.013072067
      3505.84       1.8525665     0.012137965
      3509.35       1.8360101     0.011064366
      3512.86       1.8184596     0.010224575
      3516.37       1.8039514    0.0094017750
      3519.89       1.7898722    0.0089229731
      3523.41       1.7784740    0.0086490110
      3526.93       1.7724405    0.0083129684
      3530.46       1.7669198    0.0080318929
      3533.99       1.7603979    0.0077985789
      3537.53       1.7562058    0.0076038844
      3541.06       1.7477311    0.0074318264
      3544.60       1.7375233    0.0073409460
      3548.15       1.7259724    0.0071979167
      3551.70       1.7169982    0.0071244032
      3555.25       1.7092897    0.0070558704
      3558.80       1.7006318    0.0070422227
      3562.36       1.6911791    0.0070864921
      3565.92       1.6877926    0.0070716195
      3569.49       1.6845378    0.0070645172
      3573.06       1.6774820    0.0070486313
      3576.64       1.6692083    0.0070337536
      3580.21       1.6669355    0.0070782608
      3583.79       1.6687372    0.0070111165
      3587.38       1.6715291    0.0069960594
      3590.96       1.6705047    0.0070400445
      3594.55       1.6725907    0.0070267126
      3598.15       1.6752779    0.0069585625
      3601.75       1.6781852    0.0070019693
      3605.35       1.6754552    0.0069884215
      3608.96       1.6703339    0.0070340723
      3612.56       1.6673489    0.0069641925
      3616.18       1.6635932    0.0069502805
      3619.79       1.6586825    0.0069965348
      3623.41       1.6545227    0.0069813806
      3627.04       1.6495687    0.0069670181
      3630.66       1.6429980    0.0069593275
      3634.29       1.6378639    0.0069438753
      3637.93       1.6330121    0.0069292165
      3641.57       1.6263868    0.0069747002
      3645.21       1.6194918    0.0069067366
      3648.86       1.6132219    0.0068917269
      3652.50       1.6080097    0.0069364308
      3656.16       1.5989910    0.0069228782
      3659.81       1.5873091    0.0069100712
      3663.47       1.5756403    0.0068986290
      3667.14       1.5583610    0.0068845674
      3670.80       1.5437719    0.0068716465
      3674.48       1.5310553    0.0069174777
      3678.15       1.5190207    0.0069028554
      3681.83       1.5058586    0.0068329505
      3685.51       1.4932567    0.0068805406
      3689.20       1.4844247    0.0068653101
      3692.88       1.4752249    0.0068508752
      3696.58       1.4638727    0.0068976399
      3700.27       1.4563490    0.0068845603
      3703.98       1.4480464    0.0068134709
      3707.68       1.4386548    0.0068593196
      3711.39       1.4268584    0.0068455197
      3715.10       1.4128551    0.0068324305
      3718.81       1.4032547    0.0068798356
      3722.53       1.3940062    0.0068073835
      3726.26       1.3836536    0.0067935726
      3729.98       1.3728201    0.0068429272
      3733.71       1.3621169    0.0068277500
      3737.45       1.3490465    0.0068130951
      3741.18       1.3340391    0.0068612123
      3744.93       1.3187617    0.0067912787
      3748.67       1.3038886    0.0067760364
      3752.42       1.2869566    0.0067612810
      3756.17       1.2729622    0.0068087787
      3759.93       1.2553456    0.0067952106
      3763.69       1.2385517    0.0067822999
      3767.45       1.2261815    0.0068309505
      3771.22       1.2158490    0.0067566729
      3774.99       1.2081619    0.0067428621
      3778.77       1.2043445    0.0067945312
      3782.54       1.2040121    0.0067790798
      3786.33       1.2081498    0.0067642703
      3790.11       1.2161000    0.0067500769
      3793.90       1.2240733    0.0068000319
      3797.70       1.2397888    0.0067867295
      3801.50       1.2628045    0.0067127208
      3805.30       1.2871716    0.0067614398
      3809.10       1.3172939    0.0067472260
      3812.91       1.3505871    0.0067334885
      3816.73       1.3836439    0.0067203237
      3820.54       1.4165003    0.0067715068
      3824.36       1.4552107    0.0067567677
      3828.19       1.4991642    0.0067424593
      3832.02       1.5397542    0.0066672763
      3835.85       1.5841515    0.0067203495
      3839.68       1.6304892    0.0067051236
      3843.52       1.6766975    0.0066903121
      3847.37       1.7206490    0.0067412779
      3851.22       1.7652185    0.0067272958
      3855.07       1.8066746    0.0067138085
      3858.92       1.8453211    0.0067006843
      3862.78       1.8825264    0.0067534493
      3866.64       1.9185833    0.0067387293
      3870.51       1.9544859    0.0066605531
      3874.38       1.9889869    0.0066467650
      3878.26       2.0210339    0.0067025080
      3882.13       2.0498615    0.0066871518
      3886.02       2.0775436    0.0066722544
      3889.90       2.1013198    0.0066576876
      3893.79       2.1241623    0.0067107943
      3897.69       2.1468519    0.0066968822
      3901.59       2.1682482    0.0066834255
      3905.49       2.1916231    0.0066702764
      3909.39       2.2131539    0.0067253061
      3913.30       2.2344925    0.0067105152
      3917.22       2.2494675    0.0066961611
      3921.13       2.2628398    0.0066156938
      3925.06       2.2742955    0.0066020115
      3928.98       2.2850797    0.0066595756
      3932.91       2.2940781    0.0066443055
      3936.84       2.3024517    0.0066293595
      3940.78       2.3119581    0.0066147939
      3944.72       2.3181718    0.0066699388
      3948.67       2.3217797    0.0066559784
      3952.61       2.3228485    0.0066420903
      3956.57       2.3184772    0.0066285460
      3960.52       2.3131696    0.0066879804
      3964.48       2.3061042    0.0066727011
      3968.45       2.2968821    0.0066578028
      3972.42       2.2833646    0.0066432751
      3976.39       2.2663673    0.0066290907
      3980.37       2.2474851    0.0066871822
      3984.35       2.2282482    0.0066732562
      3988.33       2.2043348    0.0066596536
      3992.32       2.1795306    0.0066462082
      3996.31       2.1537967    0.0066329120
      4000.31       2.1327069    0.0066921508
      4004.31       2.1125343    0.0066774991
      4008.31       2.0889995    0.0066629034
      4012.32       2.0622313    0.0066485045
      4016.33       2.0398210    0.0066344185
      4020.35       2.0196064    0.0066957247
      4024.37       2.0021810    0.0066819020
      4028.40       1.9872005    0.0066682386
      4032.42       1.9742095    0.0066546523
      4036.46       1.9612784    0.0066412758
      4040.50       1.9484770    0.0067032894
      4044.54       1.9362261    0.0066883970
      4048.58       1.9253267    0.0066736672
      4052.63       1.9174221    0.0066591805
      4056.68       1.9097183    0.0066448095
      4060.74       1.9028183    0.0067092017
      4064.80       1.8962131    0.0066949828
      4068.86       1.8904380    0.0066809930
      4072.93       1.8833094    0.0066668806
      4077.01       1.8761947    0.0066529852
      4081.08       1.8697540    0.0066393162
      4085.17       1.8627878    0.0067066195
      4089.25       1.8591103    0.0066913419
      4093.34       1.8546760    0.0066763121
      4097.43       1.8475894    0.0066615205
      4101.53       1.8381212    0.0066467711
      4105.63       1.8267307    0.0066320243
      4109.74       1.8156260    0.0066993988
      4113.85       1.7991180    0.0066849270
      4117.96       1.7823443    0.0066703915
      4122.08       1.7671866    0.0066558605
      4126.20       1.7537304    0.0066415503
      4130.33       1.7438427    0.0066271851
      4134.46       1.7375105    0.0067041166
      4138.59       1.7335283    0.0066886043
      4142.73       1.7337235    0.0066733701
      4146.88       1.7398984    0.0066580697
      4151.02       1.7500620    0.0066427528
      4155.18       1.7648871    0.0066276848
      4159.33       1.7845509    0.0066126265
      4163.49       1.8054843    0.0065976864
      4167.65       1.8258409    0.0065827320
      4171.82       1.8442036    0.0065680012
      4175.99       1.8568397    0.0065532005
      4180.17       1.8625490    0.0065383246
      4184.35       1.8635598    0.0065236619
      4188.54       1.8620308    0.0065089848
      4192.72       1.8579364    0.0064943922
      4196.92       1.8508120    0.0064797641
      4201.11       1.8426881    0.0064653338
      4205.31       1.8322300    0.0064508287
      4209.52       1.8206319    0.0064362154
      4213.73       1.8107383    0.0063403177
      4217.94       1.7996734    0.0063262182
      4222.16       1.7900597    0.0063120091
      4226.38       1.7816554    0.0062977533
      4230.61       1.7742792    0.0062836553
      4234.84       1.7701783    0.0062694401
      4239.08       1.7686635    0.0062551910
      4243.32       1.7669146    0.0062410997
      4247.56       1.7661482    0.0062271653
      4251.81       1.7689957    0.0061370029
      4256.06       1.7705733    0.0061231116
      4260.32       1.7704430    0.0061093753
      4264.58       1.7709719    0.0060955857
      4268.84       1.7726146    0.0060817355
      4273.11       1.7728940    0.0060680260
      4277.38       1.7702435    0.0060544580
      4281.66       1.7673594    0.0060406538
      4285.94       1.7613965    0.0060270014
      4290.23       1.7522911    0.0060134959
      4294.52       1.7415550    0.0059999532
      4298.81       1.7272589    0.0059863774
      4303.11       1.7111983    0.0059729622
      4307.42       1.6915713    0.0059597070
      4311.72       1.6712120    0.0059462430
      4316.04       1.6515030    0.0059329523
      4320.35       1.6303887    0.0059198284
      4324.67       1.6102354    0.0059066740
      4329.00       1.5920338    0.0058935418
      4333.33       1.5751072    0.0058805863
      4337.66       1.5600450    0.0058678277
      4342.00       1.5453085    0.0058475594
      4346.34       1.5364052    0.0058339082
      4350.69       1.5304577    0.0058204293
      4355.04       1.5272063    0.0058067685
      4359.39       1.5271032    0.0057932899
      4363.75       1.5304562    0.0057799992
      4368.12       1.5346106    0.0057667433
      4372.48       1.5386964    0.0057534875
      4376.86       1.5429663    0.0057404395
      4381.23       1.5463451    0.0057276072
      4385.61       1.5493117    0.0057146360
      4390.00       1.5529043    0.0057018997
      4394.39       1.5566919    0.0056181447
      4398.79       1.5598788    0.0056043926
      4403.18       1.5632828    0.0055908539
      4407.59       1.5684258    0.0055775107
      4412.00       1.5743865    0.0055642628
      4416.41       1.5830851    0.0055511306
      4420.82       1.5959556    0.0055382010
      4425.25       1.6107195    0.0055254936
      4429.67       1.6269203    0.0055797141
      4434.10       1.6468748    0.0055012396
      4438.54       1.6647915    0.0054872679
      4442.97       1.6822364    0.0054734342
      4447.42       1.7000365    0.0054598316
      4451.86       1.7173077    0.0054464770
      4456.32       1.7346401    0.0054333725
      4460.77       1.7516928    0.0054202654
      4465.24       1.7680946    0.0054074289
      4469.70       1.7854641    0.0053316569
      4474.17       1.8034258    0.0053193351
      4478.65       1.8195168    0.0053073232
      4483.12       1.8323917    0.0053565322
      4487.61       1.8477924    0.0053429491
      4492.09       1.8646379    0.0053296884
      4496.59       1.8808696    0.0053167696
      4501.08       1.8972580    0.0052417250
      4505.58       1.9164510    0.0052293434
      4510.09       1.9360607    0.0052172982
      4514.60       1.9571671    0.0052055205
      4519.12       1.9794558    0.0051940347
      4523.63       1.9996598    0.0052403221
      4528.16       2.0196351    0.0052270569
      4532.69       2.0400967    0.0051530546
      4537.22       2.0588056    0.0051407724
      4541.76       2.0758586    0.0051287399
      4546.30       2.0893864    0.0051171619
      4550.85       2.0997395    0.0051058749
      4555.40       2.1073021    0.0050950010
      4559.95       2.1117453    0.0050778642
      4564.51       2.1123064    0.0050654507
      4569.08       2.1087046    0.0050534735
      4573.65       2.1044595    0.0050417261
      4578.22       2.0989961    0.0050304368
      4582.80       2.0907761    0.0049586928
      4587.38       2.0829085    0.0049460811
      4591.97       2.0764907    0.0049339618
      4596.56       2.0707230    0.0049789287
      4601.16       2.0672865    0.0049674225
      4605.76       2.0645337    0.0049563369
      4610.37       2.0621574    0.0048854367
      4614.98       2.0583315    0.0048729589
      4619.59       2.0530010    0.0048609352
      4624.21       2.0472036    0.0049053933
      4628.84       2.0371995    0.0048943185
      4633.47       2.0245964    0.0048250573
      4638.10       2.0085815    0.0048124985
      4642.74       1.9899126    0.0048004989
      4647.38       1.9697198    0.0047890073
      4652.03       1.9452897    0.0047781398
      4656.68       1.9194628    0.0047650827
      4661.34       1.8930920    0.0047525712
      4666.00       1.8655229    0.0047405632
      4670.67       1.8371041    0.0047291767
      4675.33       1.8075448    0.0046652252
      4680.01       1.7774508    0.0047053057
      4684.69       1.7496046    0.0046929372
      4689.38       1.7224622    0.0046811107
      4694.07       1.6948714    0.0046174254
      4698.76       1.6672255    0.0046070331
      4703.46       1.6399886    0.0046457907
      4708.16       1.6131977    0.0046336787
      4712.87       1.5856104    0.0045703351
      4717.58       1.5585927    0.0045596951
      4722.30       1.5323769    0.0045498090
      4727.03       1.5058246    0.0045867293
      4731.75       1.4810106    0.0045236941
      4736.48       1.4599126    0.0045130541
      4741.22       1.4421742    0.0045030638
      4745.96       1.4265997    0.0045401495
      4750.71       1.4160648    0.0044775726
      4755.46       1.4085329    0.0044668758
      4760.22       1.4052382    0.0044569593
      4764.97       1.4046870    0.0044477414
      4769.74       1.4087674    0.0044317682
      4774.51       1.4118761    0.0044212036
      4779.29       1.4146561    0.0044113834
      4784.07       1.4165874    0.0043497440
      4788.85       1.4183771    0.0043863626
      4793.64       1.4171399    0.0043759733
      4798.43       1.4148391    0.0043663878
      4803.23       1.4101901    0.0043049692
      4808.03       1.4033226    0.0043413342
      4812.84       1.3964672    0.0043312444
      4817.66       1.3883855    0.0042717783
      4822.48       1.3836353    0.0042604963
      4827.30       1.3803951    0.0042967768
      4832.12       1.3826723    0.0042390411
      4836.96       1.3874436    0.0042273319
      4841.79       1.3967092    0.0042165995
      4846.63       1.4096595    0.0042528597
      4851.48       1.4265313    0.0041945495
      4856.33       1.4423629    0.0041834669
      4861.19       1.4579817    0.0041732682
      4866.05       1.4759077    0.0041620567
      4870.92       1.4901678    0.0041506698
      4875.79       1.5024556    0.0041402125
      4880.66       1.5141314    0.0041297787
      4885.55       1.5229174    0.0041181470
      4890.43       1.5298773    0.0041074851
      4895.32       1.5346928    0.0040535140
      4900.22       1.5357637    0.0040858369
      4905.12       1.5351285    0.0040750307
      4910.02       1.5319944    0.0040213084
      4914.94       1.5273941    0.0040536886
      4919.85       1.5214040    0.0040428111
      4924.77       1.5120329    0.0039893967
      4929.70       1.5022200    0.0040216913
      4934.62       1.4916940    0.0040108010
      4939.56       1.4796829    0.0039577601
      4944.50       1.4666717    0.0039492587
      4949.44       1.4487001    0.0039359435
      4954.39       1.4313987    0.0039263893
      4959.35       1.4139434    0.0039180184
      4964.31       1.3942812    0.0039046853
      4969.27       1.3805813    0.0038952963
      4974.24       1.3712017    0.0038871274
      4979.22       1.3652982    0.0038736447
      4984.20       1.3636296    0.0038644871
      4989.18       1.3676361    0.0038128931
      4994.17       1.3744963    0.0038427930
      4999.16       1.3845727    0.0038339860
      5004.16       1.3999749    0.0037823802
      5009.17       1.4173649    0.0038123140
      5014.18       1.4341031    0.0038039035
      5019.19       1.4509368    0.0037521482
      5024.21       1.4684804    0.0037821763
      5029.23       1.4837840    0.0037320737
      5034.26       1.4983581    0.0037222088
      5039.30       1.5108107    0.0037524101
      5044.34       1.5181635    0.0037019410
      5049.39       1.5227466    0.0037312748
      5054.43       1.5246401    0.0036822909
      5059.49       1.5268675    0.0036721688
      5064.55       1.5279557    0.0037017957
      5069.61       1.5294929    0.0036522577
      5074.68       1.5313219    0.0036428201
      5079.76       1.5314901    0.0036328825
      5084.84       1.5337986    0.0036227959
      5089.92       1.5371599    0.0035765897
      5095.01       1.5409545    0.0036032786
      5100.11       1.5457026    0.0035939688
      5105.21       1.5501108    0.0035840297
      5110.31       1.5543867    0.0035741169
      5115.42       1.5586983    0.0035286140
      5120.54       1.5660403    0.0035546727
      5125.66       1.5759725    0.0035088215
      5130.79       1.5868305    0.0035354345
      5135.92       1.6000972    0.0034893707
      5141.05       1.6152125    0.0034815051
      5146.20       1.6303816    0.0035065839
      5151.34       1.6463062    0.0034618868
      5156.49       1.6619983    0.0034874876
      5161.65       1.6776712    0.0034425559
      5166.81       1.6932569    0.0034354757
      5171.98       1.7092965    0.0034234216
      5177.15       1.7244733    0.0034159632
      5182.33       1.7405500    0.0034045265
      5187.51       1.7549858    0.0033967065
      5192.70       1.7681040    0.0033858227
      5197.89       1.7794064    0.0033777392
      5203.09       1.7885948    0.0033338386
      5208.29       1.7958488    0.0033589969
      5213.50       1.8020746    0.0033156136
      5218.72       1.8088848    0.0033403312
      5223.93       1.8140347    0.0032975347
      5229.16       1.8190578    0.0033218526
      5234.39       1.8244859    0.0032794778
      5239.62       1.8289892    0.0033035503
      5244.86       1.8300933    0.0032615529
      5250.11       1.8300761    0.0032527236
      5255.36       1.8281915    0.0032437493
      5260.61       1.8255440    0.0032347995
      5265.87       1.8218938    0.0032260001
      5271.14       1.8171368    0.0032170144
      5276.41       1.8115978    0.0032082884
      5281.69       1.8055772    0.0031993119
      5286.97       1.7977019    0.0031906770
      5292.26       1.7888765    0.0031816819
      5297.55       1.7786563    0.0031731569
      5302.85       1.7687904    0.0031641961
      5308.15       1.7567830    0.0031556400
      5313.46       1.7464114    0.0031468355
      5318.77       1.7376754    0.0031382136
      5324.09       1.7305868    0.0031295042
      5329.42       1.7246770    0.0031208962
      5334.75       1.7192597    0.0031123066
      5340.08       1.7155104    0.0031036317
      5345.42       1.7128287    0.0030642629
      5350.77       1.7118401    0.0030864324
      5356.12       1.7119001    0.0030474787
      5361.48       1.7123243    0.0030693617
      5366.83       1.7139716    0.0030308183
      5372.20       1.7142928    0.0030524333
      5377.58       1.7138574    0.0030143207
      5382.95       1.7137093    0.0030355564
      5388.34       1.7126925    0.0029980055
      5393.72       1.7111756    0.0029886226
      5399.12       1.7078846    0.0029818594
      5404.52       1.7025275    0.0029722632
      5409.92       1.6957320    0.0029658724
      5415.33       1.6869131    0.0029560573
      5420.75       1.6782219    0.0029193949
      5426.17       1.6685502    0.0029400300
      5431.60       1.6575507    0.0029032646
      5437.03       1.6458016    0.0029242378
      5442.47       1.6338132    0.0028873638
      5447.91       1.6199899    0.0029086987
      5453.36       1.6046107    0.0028992334
      5458.81       1.5898664    0.0028633302
      5464.27       1.5752739    0.0028836260
      5469.73       1.5606235    0.0028475323
      5475.20       1.5454726    0.0028398855
      5480.68       1.5326357    0.0028319995
      5486.16       1.5210335    0.0028239508
      5491.65       1.5118717    0.0028166881
      5497.14       1.5044173    0.0028083544
      5502.64       1.4980298    0.0028009492
      5508.14       1.4919082    0.0027930467
      5513.65       1.4876718    0.0027852000
      5519.16       1.4833547    0.0027512068
      5524.68       1.4815930    0.0027697858
      5530.20       1.4822302    0.0027623628
      5535.73       1.4810555    0.0027546770
      5541.27       1.4794634    0.0027468860
      5546.81       1.4766132    0.0027136080
      5552.36       1.4725298    0.0027317944
      5557.91       1.4675459    0.0026994904
      5563.47       1.4630681    0.0026908786
      5569.04       1.4578777    0.0027091812
      5574.60       1.4517440    0.0026768166
      5580.18       1.4443487    0.0026684901
      5585.76       1.4369504    0.0026868569
      5591.35       1.4294401    0.0026544380
      5596.94       1.4212460    0.0026463760
      5602.53       1.4125508    0.0026409022
      5608.14       1.4025836    0.0026323784
      5613.75       1.3901355    0.0026245724
      5619.36       1.3781952    0.0026189717
      5624.98       1.3666921    0.0026106667
      5630.60       1.3530690    0.0025791923
      5636.23       1.3394168    0.0025973923
      5641.87       1.3233766    0.0025892069
      5647.51       1.3061217    0.0025579563
      5653.16       1.2895126    0.0025760375
      5658.82       1.2709826    0.0025679899
      5664.47       1.2541785    0.0025369927
      5670.14       1.2389599    0.0025300201
      5675.81       1.2265531    0.0025469930
      5681.48       1.2158399    0.0025162200
      5687.17       1.2087560    0.0025093284
      5692.85       1.2063493    0.0025263144
      5698.55       1.2079753    0.0024957867
      5704.25       1.2145268    0.0024888151
      5709.95       1.2269253    0.0024822761
      5715.66       1.2393365    0.0024755443
      5721.38       1.2566007    0.0024685003
      5727.10       1.2753700    0.0024619456
      5732.83       1.2931501    0.0024327453
      5738.56       1.3096822    0.0024484973
      5744.30       1.3259249    0.0024418296
      5750.04       1.3390842    0.0024132988
      5755.79       1.3505163    0.0024287655
      5761.55       1.3587520    0.0024220010
      5767.31       1.3645203    0.0023942220
      5773.08       1.3698051    0.0023870261
      5778.85       1.3742356    0.0024025114
      5784.63       1.3764643    0.0023959095
      5790.41       1.3778065    0.0023682552
      5796.21       1.3791067    0.0023612270
      5802.00       1.3811784    0.0023545909
      5807.81       1.3821263    0.0023499976
      5813.61       1.3850646    0.0023431178
      5819.43       1.3912253    0.0023367090
      5825.25       1.3955009    0.0023303819
      5831.07       1.3941919    0.0023259116
      5836.90       1.3865212    0.0023192768
      5842.74       1.3752081    0.0023134008
      5848.58       1.3613413    0.0022882028
      5854.43       1.3468517    0.0022841941
      5860.29       1.3335421    0.0023011163
      5866.15       1.3180359    0.0022968054
      5872.01       1.3058130    0.0022725079
      5877.89       1.2949293    0.0022688501
      5883.76       1.2843340    0.0022643899
      5889.65       1.2732686    0.0022800173
      5895.54       1.2637774    0.0022538901
      5901.43       1.2553091    0.0022479435
      5907.34       1.2498710    0.0022418048
      5913.24       1.2455644    0.0022354715
      5919.16       1.2427318    0.0022495130
      5925.08       1.2417022    0.0022230967
      5931.00       1.2441940    0.0022167352
      5936.93       1.2430883    0.0022103368
      5942.87       1.2388397    0.0022037132
      5948.81       1.2347935    0.0021776838
      5954.76       1.2321901    0.0021902381
      5960.72       1.2323470    0.0021831111
      5966.68       1.2350194    0.0021760301
      5972.64       1.2376839    0.0021686888
      5978.62       1.2391059    0.0021431260
      5984.60       1.2421397    0.0021361720
      5990.58       1.2454750    0.0021295556
      5996.57       1.2468219    0.0021421493
      6002.57       1.2482105    0.0021355254
      6008.57       1.2489470    0.0021114868
      6014.58       1.2497045    0.0021051971
      6020.60       1.2496292    0.0020991484
      6026.62       1.2478618    0.0020933302
      6032.65       1.2477144    0.0020877055
      6038.68       1.2472222    0.0020645790
      6044.72       1.2463750    0.0020782541
      6050.76       1.2465518    0.0020725222
      6056.81       1.2476872    0.0020669448
      6062.87       1.2487624    0.0020614540
      6068.93       1.2501495    0.0020560794
      6075.00       1.2481939    0.0020332994
      6081.08       1.2439886    0.0020281302
      6087.16       1.2352736    0.0020230514
      6093.25       1.2224772    0.0020180624
      6099.34       1.2088897    0.0020310586
      6105.44       1.1919290    0.0020257756
      6111.54       1.1725364    0.0020205671
      6117.66       1.1518335    0.0019981985
      6123.78       1.1291567    0.0019931722
      6129.90       1.1070844    0.0019881756
      6136.03       1.0854126    0.0019832534
      6142.17       1.0660499    0.0019784120
      6148.31       1.0496453    0.0019736008
      6154.46       1.0347830    0.0019688184
      6160.61       1.0243257    0.0019475396
      6166.77       1.0175210    0.0019426559
      6172.94       1.0137019    0.0019378235
      6179.11       1.0130578    0.0019330285
      6185.29       1.0147857    0.0019282830
      6191.48       1.0171032    0.0019403655
      6197.67       1.0207012    0.0019359406
      6203.87       1.0269479    0.0019322125
      6210.07       1.0346941    0.0019284655
      6216.28       1.0419062    0.0019237263
      6222.50       1.0478291    0.0019040772
      6228.72       1.0545713    0.0019008851
      6234.95       1.0609027    0.0018988271
      6241.19       1.0671995    0.0018978572
      6247.42       1.0742214    0.0018976917
      6253.67       1.0811612    0.0018978365
      6259.93       1.0884730    0.0018977869
      6266.19       1.0949612    0.0018971006
      6272.46       1.0998476    0.0018952897
      6278.73       1.1038174    0.0018920284
      6285.01       1.1060250    0.0018872175
      6291.29       1.1064087    0.0018809586
      6297.58       1.1055212    0.0018735725
      6303.88       1.1028848    0.0018655242
      6310.19       1.0985766    0.0018426035
      6316.50       1.0931073    0.0018353958
      6322.81       1.0872237    0.0018294267
      6329.14       1.0794277    0.0018238812
      6335.47       1.0692896    0.0018176112
      6341.80       1.0603873    0.0018117507
      6348.14       1.0545993    0.0018064569
      6354.49       1.0508984    0.0018012835
      6360.85       1.0509386    0.0017962724
      6367.21       1.0552108    0.0017914625
      6373.57       1.0639608    0.0017868173
      6379.95       1.0759578    0.0017823215
      6386.33       1.0910998    0.0017780571
      6392.72       1.1094449    0.0017592677
      6399.11       1.1281489    0.0017554572
      6405.51       1.1461444    0.0017516797
      6411.92       1.1624433    0.0017479847
      6418.32       1.1769498    0.0017445007
      6424.74       1.1877565    0.0017413179
      6431.17       1.1953486    0.0017386367
      6437.60       1.2011975    0.0017365240
      6444.04       1.2050968    0.0017345877
      6450.48       1.2049107    0.0017322652
      6456.94       1.2017789    0.0017297990
      6463.39       1.1990744    0.0017272958
      6469.85       1.1969115    0.0017246465
      6476.33       1.1946471    0.0017217364
      6482.80       1.1928626    0.0017035220
      6489.28       1.1908027    0.0016996483
      6495.77       1.1878310    0.0016955455
      6502.27       1.1863871    0.0016914427
      6508.77       1.1894773    0.0016874638
      6515.28       1.1952304    0.0016837215
      6521.80       1.1988755    0.0016802224
      6528.32       1.2008792    0.0016903039
      6534.85       1.2005087    0.0016866370
      6541.38       1.1972923    0.0016827986
      6547.92       1.1900066    0.0016649062
      6554.47       1.1826714    0.0016608603
      6561.03       1.1747074    0.0016571181
      6567.59       1.1647007    0.0016533582
      6574.16       1.1522856    0.0016493167
      6580.73       1.1404563    0.0016453486
      6587.31       1.1297066    0.0016417363
      6593.90       1.1183954    0.0016252362
      6600.50       1.1073795    0.0016220993
      6607.10       1.0955736    0.0016191081
      6613.70       1.0840836    0.0016288279
      6620.32       1.0748845    0.0016257396
      6626.94       1.0693961    0.0016226774
      6633.57       1.0665758    0.0016067132
      6640.20       1.0637048    0.0016038239
      6646.84       1.0585051    0.0016010173
      6653.49       1.0545706    0.0015982940
      6660.14       1.0504322    0.0015956369
      6666.80       1.0442900    0.0015930883
      6673.47       1.0385128    0.0015772310
      6680.14       1.0342865    0.0015868934
      6686.82       1.0296172    0.0015842087
      6693.51       1.0242911    0.0015816016
      6700.20       1.0185702    0.0015790658
      6706.90       1.0125327    0.0015638377
      6713.61       1.0065792    0.0015611263
      6720.32       1.0001623    0.0015585123
      6727.05      0.99321505    0.0015682714
      6733.77      0.98588857    0.0015657995
      6740.51      0.97876571    0.0015510078
      6747.25      0.97113928    0.0015483716
      6754.00      0.96275669    0.0015458279
      6760.75      0.95456367    0.0015433641
      6767.51      0.94701165    0.0015410188
      6774.28      0.93961560    0.0015387921
      6781.05      0.93229324    0.0015373309
      6787.84      0.92500973    0.0015389401
      6794.62      0.91809530    0.0015416310
      6801.42      0.91259524    0.0015277166
      6808.22      0.90745314    0.0015365703
      6815.03      0.90088311    0.0015400376
      6821.85      0.89394019    0.0015487797
      6828.67      0.88756554    0.0015529854
      6835.50      0.88154664    0.0015703864
      6842.33      0.87636470    0.0015904411
      6849.17      0.87089269    0.0016285394
      6856.02      0.86569617    0.0016360990
      6862.88      0.86118481    0.0016499647
      6869.74      0.85656834    0.0016575361
      6876.61      0.85305678    0.0016563023
      6883.49      0.85045969    0.0016466673
      6890.37      0.84871672    0.0016311522
      6897.27      0.84805849    0.0016121509
      6904.16      0.84915206    0.0015755790
      6911.07      0.85067160    0.0015681522
      6917.98      0.85221423    0.0015561547
      6924.89      0.85252241    0.0015335816
      6931.82      0.85127424    0.0015213420
      6938.75      0.84849368    0.0015197882
      6945.69      0.84391814    0.0015008778
      6952.64      0.83873216    0.0014943380
      6959.59      0.83346138    0.0014883904
      6966.55      0.82745257    0.0014940804
      6973.52      0.82157638    0.0014790488
      6980.49      0.81658078    0.0014761277
      6987.47      0.81250456    0.0014739406
      6994.46      0.80909751    0.0014720611
      7001.46      0.80834579    0.0014696337
      7008.46      0.81015170    0.0014669942
      7015.46      0.81526789    0.0014636430
      7022.48      0.82171874    0.0014599139
      7029.51      0.83084550    0.0014455753
      7036.53      0.84095474    0.0014427872
      7043.57      0.85323398    0.0014506017
      7050.62      0.86457514    0.0014368322
      7057.66      0.87488560    0.0014342795
      7064.72      0.88548876    0.0014423166
      7071.79      0.89467455    0.0014293016
      7078.86      0.90233868    0.0014276889
      7085.94      0.90853107    0.0014270952
      7093.03      0.91300445    0.0014268830
      7100.12      0.91564492    0.0014269928
      7107.22      0.91570098    0.0014166175
      7114.33      0.91466342    0.0014287178
      7121.44      0.91219752    0.0014315126
      7128.56      0.90816950    0.0014270391
      7135.69      0.90303663    0.0014468477
      7142.83      0.89741207    0.0014511859
      7149.97      0.89193550    0.0014644323
      7157.12      0.88502191    0.0014904007
      7164.28      0.87759038    0.0014906929
      7171.44      0.87040131    0.0014970388
      7178.62      0.86371112    0.0015019511
      7185.80      0.85751021    0.0015023310
      7192.98      0.85182511    0.0015007914
      7200.17      0.84710084    0.0014964186
      7207.38      0.84305876    0.0014917481
      7214.58      0.83921918    0.0014873639
      7221.80      0.83573225    0.0014854148
      7229.02      0.83252171    0.0014746460
      7236.25      0.82915491    0.0014863066
      7243.49      0.82523921    0.0014747823
      7250.73      0.82212677    0.0014846191
      7257.98      0.81871298    0.0014693419
      7265.24      0.81577782    0.0014637977
      7272.51      0.81369927    0.0014549870
      7279.78      0.81245229    0.0014486356
      7287.06      0.81121920    0.0014523090
      7294.35      0.80993573    0.0014340129
      7301.64      0.80814502    0.0014265944
      7308.94      0.80710769    0.0014161520
      7316.25      0.80536112    0.0014089150
      7323.57      0.80334894    0.0014003130
      7330.89      0.80092297    0.0013948667
      7338.22      0.79850702    0.0013882883
      7345.56      0.79456794    0.0013842761
      7352.91      0.78894561    0.0013706385
      7360.26      0.78233631    0.0013774848
      7367.62      0.77441029    0.0013647082
      7374.99      0.76459864    0.0013715232
      7382.37      0.75287246    0.0013585880
      7389.75      0.73959918    0.0013658015
      7397.14      0.72444379    0.0013535581
      7404.53      0.70695743    0.0013518913
      7411.94      0.68837283    0.0013500140
      7419.35      0.66846635    0.0013392457
      7426.77      0.64794974    0.0013473528
      7434.20      0.62735213    0.0013368453
      7441.63      0.60744402    0.0013453116
      7449.07      0.58872083    0.0013352339
      7456.52      0.57074202    0.0013438626
      7463.98      0.55472118    0.0013339584
      7471.45      0.54146139    0.0013427588
      7478.92      0.53107916    0.0013330918
      7486.40      0.52356043    0.0013327017
      7493.88      0.51903352    0.0013326998
      7501.38      0.51861651    0.0013360619
      7508.88      0.52072293    0.0013454736
      7516.39      0.52549420    0.0013639821
      7523.91      0.53277521    0.0013585390
      7531.43      0.54299786    0.0013656258
      7538.96      0.55396154    0.0013613386
      7546.50      0.56482426    0.0013968332
      7554.05      0.57740782    0.0014498788
      7561.60      0.58988110    0.0015125580
      7569.16      0.60335807    0.0016021614
      7576.73      0.61605405    0.0016932963
      7584.31      0.62885662    0.0018084235
      7591.89      0.64035389    0.0018960563
      7599.49      0.64922384    0.0019863792
      7607.09      0.65818865    0.0020228728
      7614.70      0.66815619    0.0020184920
      7622.31      0.67844643    0.0019487623
      7629.93      0.68718230    0.0018820531
      7637.56      0.69619273    0.0017687341
      7645.20      0.70647226    0.0016832082
      7652.85      0.71666846    0.0015851432
      7660.50      0.72660340    0.0015125898
      7668.16      0.73598710    0.0014677380
      7675.83      0.74513124    0.0014151652
      7683.50      0.75371432    0.0013809330
      7691.19      0.76252806    0.0013747339
      7698.88      0.77150801    0.0013511807
      7706.58      0.77924047    0.0013379633
      7714.29      0.78635889    0.0013303283
      7722.00      0.79251059    0.0013227676
      7729.73      0.79750929    0.0013182012
      7737.45      0.80131389    0.0013161719
      7745.19      0.80391841    0.0013144914
      7752.94      0.80644565    0.0013138102
      7760.69      0.80889442    0.0013046491
      7768.45      0.81076082    0.0013134604
      7776.22      0.81192616    0.0013045912
      7784.00      0.81338377    0.0013051183
      7791.78      0.81498481    0.0013143670
      7799.57      0.81593879    0.0013056393
      7807.37      0.81605941    0.0013063135
      7815.18      0.81514778    0.0013071158
      7822.99      0.81351215    0.0013071711
      7830.82      0.81145077    0.0013082520
      7838.65      0.80918273    0.0013097411
      7846.49      0.80584128    0.0013020356
      7854.34      0.80168858    0.0013121360
      7862.19      0.79654947    0.0013142470
      7870.05      0.79017477    0.0013070953
      7877.93      0.78276018    0.0013084743
      7885.80      0.77359417    0.0013180081
      7893.69      0.76345726    0.0013098597
      7901.58      0.75219469    0.0013104504
      7909.49      0.74015585    0.0013110652
      7917.40      0.72703919    0.0013201642
      7925.31      0.71208898    0.0013118409
      7933.24      0.69600721    0.0013123061
      7941.17      0.67848356    0.0013130811
      7949.11      0.65994256    0.0013051693
      7957.06      0.64076108    0.0013148704
      7965.02      0.62076903    0.0013158595
      7972.98      0.60108509    0.0013169809
      7980.96      0.58267038    0.0013090648
      7988.94      0.56502532    0.0013099812
      7996.93      0.54870813    0.0013189885
      8004.93      0.53401603    0.0013104082
      8012.93      0.52027626    0.0013110608
      8020.95      0.50764336    0.0013118800
      8028.97      0.49610015    0.0013125466
      8036.99      0.48508905    0.0013126638
      8045.03      0.47503147    0.0013139979
      8053.08      0.46534997    0.0013160155
      8061.13      0.45580641    0.0013192032
      8069.20      0.44627561    0.0013237749
      8077.26      0.43674059    0.0013199505
      8085.34      0.42732027    0.0013270296
      8093.43      0.41822308    0.0013439395
      8101.52      0.40940985    0.0013561698
      8109.62      0.40121613    0.0013588892
      8117.73      0.39338902    0.0013733202
      8125.85      0.38619076    0.0013895321
      8133.98      0.37974816    0.0014055757
      8142.11      0.37416821    0.0014155975
      8150.25      0.36986987    0.0014088319
      8158.41      0.36696703    0.0014210489
      8166.56      0.36539989    0.0014225101
      8174.73      0.36500985    0.0014224450
      8182.91      0.36546245    0.0014214064
      8191.09      0.36652732    0.0014189905
      8199.28      0.36823543    0.0014061602
      8207.48      0.37085966    0.0014026559
      8215.69      0.37439654    0.0014003054
      8223.91      0.37861213    0.0013990420
      8232.13      0.38323106    0.0013969570
      8240.36      0.38816303    0.0013940416
      8248.60      0.39358824    0.0013996765
      8256.85      0.39931345    0.0013872826
      8265.11      0.40543056    0.0013832398
      8273.37      0.41170503    0.0013799322
      8281.65      0.41813373    0.0013796076
      8289.93      0.42483564    0.0013804638
      8298.22      0.43203049    0.0013767219
      8306.52      0.43979364    0.0013698695
      8314.83      0.44814231    0.0013641751
      8323.14      0.45696206    0.0013513803
      8331.46      0.46619535    0.0013468976
      8339.80      0.47567370    0.0013435561
      8348.13      0.48573125    0.0013403367
      8356.48      0.49688923    0.0013369766
      8364.84      0.50948380    0.0013342162
      8373.21      0.52340784    0.0013323511
      8381.58      0.53831412    0.0013313299
      8389.96      0.55390777    0.0013304499
      8398.35      0.57000612    0.0013296712
      8406.75      0.58645782    0.0013291976
      8415.16      0.60263628    0.0013205534
      8423.57      0.61891993    0.0013207590
      8432.00      0.63482348    0.0013211086
      8440.43      0.65006531    0.0013216792
      8448.87      0.66418176    0.0013224023
      8457.32      0.67664508    0.0013232099
      8465.78      0.68718754    0.0013242498
      8474.25      0.69593678    0.0013254423
      8482.72      0.70315445    0.0013266136
      8491.20      0.70895108    0.0013277593
      8499.69      0.71337889    0.0013289118
      8508.19      0.71663922    0.0013299081
      8516.70      0.71906718    0.0013307435
      8525.22      0.72096254    0.0013235612
      8533.75      0.72276455    0.0013242478
      8542.28      0.72427702    0.0013249202
      8550.82      0.72519105    0.0013256565
      8559.37      0.72514276    0.0013264861
      8567.93      0.72395661    0.0013272937
      8576.50      0.72170420    0.0013280137
      8585.08      0.71867466    0.0013288202
      8593.66      0.71505338    0.0013297886
      8602.26      0.71075062    0.0013309611
      8610.86      0.70541646    0.0013322202
      8619.47      0.69856351    0.0013254974
      8628.09      0.69051467    0.0013266685
      8636.72      0.68154782    0.0013278456
      8645.36      0.67209405    0.0013289900
      8654.00      0.66237590    0.0013300655
      8662.66      0.65236324    0.0013310766
      8671.32      0.64209871    0.0013320472
      8679.99      0.63175127    0.0013329627
      8688.67      0.62155289    0.0013261208
      8697.36      0.61169840    0.0013354167
      8706.06      0.60197088    0.0013362817
      8714.76      0.59204210    0.0013372466
      8723.48      0.58191888    0.0013383280
      8732.21      0.57214496    0.0013394409
      8740.93      0.56341511    0.0013327811
      8749.68      0.55655420    0.0013340061
      8758.43      0.55117021    0.0013353383
      8767.19      0.54676745    0.0013366313
      8775.96      0.54312119    0.0013379526
      8784.73      0.54043290    0.0013392895
      8793.52      0.53938936    0.0013325534
      8802.31      0.53988879    0.0013421887
      8811.11      0.54188040    0.0013434988
      8819.92      0.54456649    0.0013449615
      8828.75      0.54713333    0.0013465968
      8837.57      0.54921002    0.0013404137
      8846.41      0.55040293    0.0013424253
      8855.26      0.55076568    0.0013450535
      8864.12      0.55003781    0.0013568760
      8872.98      0.54696296    0.0013527709
      8881.85      0.54207720    0.0013579261
      8890.73      0.53590060    0.0013649193
      8899.63      0.52918476    0.0013731693
      8908.52      0.52234963    0.0013780392
      8917.43      0.51624006    0.0013925703
      8926.35      0.50982803    0.0014205595
      8935.28      0.50389123    0.0014395035
      8944.22      0.49840779    0.0014529081
      8953.16      0.49364076    0.0014725028
      8962.11      0.49017109    0.0014897965
      8971.08      0.48852039    0.0015132103
      8980.05      0.48873317    0.0015092870
      8989.03      0.48955377    0.0015078122
      8998.02      0.49070770    0.0015027062
      9007.02      0.49243566    0.0014852203
      9016.02      0.49488703    0.0014882082
      9025.04      0.49726704    0.0014860237
      9034.07      0.49915379    0.0014860719
      9043.10      0.50034380    0.0014796817
      9052.14      0.50113299    0.0014954514
      9061.20      0.50241444    0.0015036825
      9070.26      0.50438674    0.0015044656
      9079.33      0.50669499    0.0015116840
      9088.41      0.50906078    0.0015170432
      9097.50      0.51117435    0.0015207150
      9106.60      0.51271608    0.0015212912
      9115.70      0.51379325    0.0015213202
      9124.82      0.51463678    0.0015204421
      9133.94      0.51634317    0.0015184904
      9143.08      0.51913787    0.0015143441
      9152.22      0.52319241    0.0014968695
      9161.37      0.52677962    0.0014944896
      9170.54      0.52918050    0.0014766994
      9179.71      0.52938125    0.0014689755
      9188.89      0.52805435    0.0014691329
      9198.08      0.52437364    0.0014596278
      9207.28      0.51948868    0.0014610810
      9216.48      0.51358823    0.0014582263
      9225.70      0.50722337    0.0014789994
      9234.92      0.49975104    0.0014959598
      9244.16      0.49079412    0.0015155436
      9253.40      0.48109345    0.0015632185
      9262.66      0.47137322    0.0016139989
      9271.92      0.46179935    0.0016785770
      9281.20      0.45181138    0.0017733824
      9290.48      0.44441314    0.0018668531
      9299.77      0.43979526    0.0019608978
      9309.07      0.43854018    0.0020753389
      9318.38      0.43940835    0.0021518465
      9327.69      0.44148613    0.0021941651
      9337.02      0.44515366    0.0021966856
      9346.36      0.44967669    0.0021553455
      9355.71      0.45444480    0.0020957816
      9365.07      0.45738575    0.0020489956
      9374.43      0.45960688    0.0019968943
      9383.80      0.46133122    0.0019566635
      9393.19      0.46304897    0.0019258370
      9402.58      0.46603622    0.0019103081
      9411.98      0.46996437    0.0018921065
      9421.40      0.47458570    0.0018879140
      9430.82      0.47913392    0.0018794665
      9440.25      0.48206114    0.0018728218
      9449.69      0.48417550    0.0018500653
      9459.14      0.48624570    0.0018378865
      9468.60      0.48761157    0.0018194143
      9478.07      0.48775660    0.0017901471
      9487.55      0.48726851    0.0017508775
      9497.04      0.48715576    0.0017187673
      9506.53      0.48687617    0.0016949981
      9516.04      0.48431916    0.0016726828
      9525.56      0.47977966    0.0016503334
      9535.08      0.47526122    0.0016109650
      9544.62      0.47232188    0.0015856398
      9554.16      0.47054788    0.0015598955
      9563.72      0.46935163    0.0015341976
      9573.29      0.46918239    0.0014998513
      9582.85      0.46915967    0.0014692991
      9592.44      0.46877601    0.0014422434
      9602.03      0.46810813    0.0014133533
      9611.63      0.46728324    0.0013757802
      9621.25      0.46578526    0.0013463985
      9630.87      0.46374934    0.0013168347
      9640.50      0.46107035    0.0012863852
      9650.14      0.45812783    0.0012639033
      9659.79      0.45559444    0.0012437262
      9669.45      0.45360610    0.0012213447
      9679.12      0.45068589    0.0012039369
      9688.80      0.44641601    0.0011906368
      9698.49      0.44009679    0.0011735579
      9708.19      0.43319985    0.0011624469
      9717.90      0.42634495    0.0011534564
      9727.62      0.42069621    0.0011404151
      9737.34      0.41712466    0.0011278522
      9747.08      0.41374344    0.0011184979
      9756.83      0.41048545    0.0011059008
      9766.59      0.40757513    0.0010977151
      9776.35      0.40521373    0.0010890437
      9786.13      0.40312326    0.0010764460
      9795.92      0.40026560    0.0010649094
      9805.71      0.39619776    0.0010719745
      9815.52      0.39232475    0.0010848244
      9825.34      0.38901622    0.0010997756
      9835.17      0.38617345    0.0011181821
      9845.00      0.38370832    0.0011416117
      9854.84      0.38161645    0.0011715867
      9864.70      0.37966468    0.0012145210
      9874.56      0.37834488    0.0012672898
      9884.44      0.37693331    0.0013370557
      9894.32      0.37502029    0.0014291441
      9904.22      0.37243969    0.0015495725
      9914.13      0.36903884    0.0017054071
      9924.04      0.36468069    0.0019056955
      9933.96      0.35917145    0.0021615486
      9943.90      0.35237227    0.0024478588
      9953.84      0.34388701    0.0028531785
      9963.79      0.33348112    0.0033676012
