# starting wavelength =        3675.8700
# ending wavelength =        9587.0900
# O2 telluric scale =        0
# O2 telluric shift =        0
# H2O telluric scale =        0
# H2O telluric shift =        0
      3678.15      0.41265015     0.019976537
      3681.83      0.40914356     0.018948001
      3685.51      0.39532046     0.014780443
      3689.20      0.37798363     0.013020351
      3692.88      0.36300530     0.012691429
      3696.58      0.34890961     0.010619950
      3700.27      0.33473391    0.0097501852
      3703.98      0.32209524    0.0096180712
      3707.68      0.30716458    0.0086345411
      3711.39      0.29447600    0.0082469500
      3715.10      0.28072276    0.0081429626
      3718.81      0.26930648    0.0076739817
      3722.53      0.25833978    0.0075148197
      3726.26      0.24984831    0.0074028059
      3729.98      0.24017968    0.0071621825
      3733.71      0.23086696    0.0071074716
      3737.45      0.21972352    0.0069901643
      3741.18      0.21090412    0.0068541383
      3744.93      0.20373345    0.0068538177
      3748.67      0.19806883    0.0068843617
      3752.42      0.18417517    0.0069185776
      3756.17      0.18005472    0.0068048053
      3759.93      0.17473755    0.0069523535
      3763.69      0.17342574    0.0069837461
      3767.45      0.16353092    0.0070189031
      3771.22      0.16296154    0.0071671184
      3774.99      0.16031886    0.0070500905
      3778.77      0.16897670    0.0070821610
      3782.54      0.17349303    0.0072280221
      3786.33      0.17102186    0.0072691257
      3790.11      0.17107740    0.0071465675
      3793.90      0.17396249    0.0071792031
      3797.70      0.17480159    0.0073278806
      3801.50      0.17302649    0.0073695443
      3805.30      0.17488889    0.0072420273
      3809.10      0.16926050    0.0073880586
      3812.91      0.17220081    0.0074260197
      3816.73      0.17261717    0.0074682355
      3820.54      0.17909869    0.0076264919
      3824.36      0.18140751    0.0074843073
      3828.19      0.19081563    0.0075226784
      3832.02      0.19770109    0.0075650716
      3835.85      0.20473649    0.0077226785
      3839.68      0.21484717    0.0075790304
      3843.52      0.22445213    0.0076173769
      3847.37      0.23572983    0.0077867308
      3851.22      0.25211859    0.0078176498
      3855.07      0.26838349    0.0078527365
      3858.92      0.28552140    0.0077104192
      3862.78      0.29809773    0.0078802206
      3866.64      0.31721865    0.0079107888
      3870.51      0.34189301    0.0079455626
      3874.38      0.35646728    0.0079461216
      3878.26      0.37831737    0.0079722935
      3882.13      0.39625299    0.0080026292
      3886.02      0.41660204    0.0081752871
      3889.90      0.43473374    0.0082155673
      3893.79      0.44969245    0.0080630108
      3897.69      0.46683616    0.0080925871
      3901.59      0.48457366    0.0082662824
      3905.49      0.50294869    0.0083060207
      3909.39      0.51754070    0.0083507984
      3913.30      0.52964395    0.0081812785
      3917.22      0.54275132    0.0083561569
      3921.13      0.55517918    0.0083946665
      3925.06      0.56947408    0.0084380850
      3928.98      0.58249840    0.0086230293
      3932.91      0.59356846    0.0084435339
      3936.84      0.60221246    0.0084810204
      3940.78      0.60622681    0.0085233470
      3944.72      0.60996708    0.0087126468
      3948.67      0.61710611    0.0087448895
      3952.61      0.62538195    0.0085657598
      3956.57      0.63341415    0.0087744870
      3960.52      0.64055719    0.0088001932
      3964.48      0.64499622    0.0088307146
      3968.45      0.64682404    0.0088660861
      3972.42      0.65227303    0.0088631955
      3976.39      0.65230566    0.0088874046
      3980.37      0.65409554    0.0089159718
      3984.35      0.65773573    0.0089489591
      3988.33      0.66130022    0.0091594378
      3992.32      0.66808054    0.0089729605
      3996.31      0.66999326    0.0089993544
      4000.31      0.67173627    0.0092022814
      4004.31      0.67944014    0.0092400714
      4008.31      0.68812083    0.0092830266
      4012.32      0.69880382    0.0090827118
      4016.33      0.70466191    0.0092845320
      4020.35      0.71701497    0.0093187897
      4024.37      0.72884952    0.0093585295
      4028.40      0.74189133    0.0094039691
      4032.42      0.75411080    0.0096222834
      4036.46      0.76066008    0.0093974128
      4040.50      0.76854239    0.0094337049
      4044.54      0.76779007    0.0094753492
      4048.58      0.77164559    0.0097055273
      4052.63      0.76626049    0.0097337089
      4056.68      0.76431089    0.0097675188
      4060.74      0.75995662    0.0095455814
      4064.80      0.75745812    0.0097894497
      4068.86      0.74561643    0.0098138354
      4072.93      0.72723390    0.0098435178
      4077.01      0.71039741     0.010087494
      4081.08      0.69821822    0.0098745497
      4085.17      0.68018604    0.0098944632
      4089.25      0.66327201    0.0099197586
      4093.34      0.64900968     0.010160445
      4097.43      0.63576606     0.010198356
      4101.53      0.62213427     0.010242622
      4105.63      0.60779496    0.0099980316
      4109.74      0.59403552     0.010234685
      4113.85      0.58047669     0.010267028
      4117.96      0.56815157     0.010305159
      4122.08      0.55559225     0.010349812
      4126.20      0.54445483     0.010622390
      4130.33      0.52926037     0.010649228
      4134.46      0.51713133     0.010370267
      4138.59      0.50546944     0.010408161
      4142.73      0.49015206     0.010705918
      4146.88      0.47609318     0.010726387
      4151.02      0.47016453     0.010752714
      4155.18      0.47104443     0.010784814
      4159.33      0.46507414     0.010795378
      4163.49      0.46306259     0.010808377
      4167.65      0.46058417     0.010827442
      4171.82      0.45897119     0.010852573
      4175.99      0.45545913     0.010883675
      4180.17      0.45280298     0.011179660
      4184.35      0.44887053     0.011226657
      4188.54      0.44511170     0.010926752
      4192.72      0.44158457     0.010949759
      4196.92      0.43862984     0.011236105
      4201.11      0.43201067     0.011273612
      4205.31      0.42700993     0.011318433
      4209.52      0.42134637     0.011370843
      4213.73      0.41678666     0.011684242
      4217.94      0.41704037     0.011331025
      4222.16      0.41621831     0.011364768
      4226.38      0.41972675     0.011405354
      4230.61      0.42178200     0.011764640
      4234.84      0.42662465     0.011782288
      4239.08      0.43218549     0.011807285
      4243.32      0.43967659     0.011838544
      4247.56      0.44763388     0.011876166
      4251.81      0.45057546     0.011867809
      4256.06      0.45608645     0.011880302
      4260.32      0.45885912     0.011899845
      4264.58      0.46063610     0.011926415
      4268.84      0.46290702     0.012275384
      4273.11      0.46420517     0.012319979
      4277.38      0.45949054     0.012373179
      4281.66      0.45773164     0.011994100
      4285.94      0.45486193     0.012014379
      4290.23      0.45248989     0.012041405
      4294.52      0.45016758     0.012394449
      4298.81      0.44828662     0.012440265
      4303.11      0.44605583     0.012090928
      4307.42      0.44623491     0.012105302
      4311.72      0.44874950     0.012125118
      4316.04      0.45095696     0.012151296
      4320.35      0.45227184     0.012506868
      4324.67      0.45820212     0.012550908
      4329.00      0.46096865     0.012198487
      4333.33      0.46364662     0.012212612
      4337.66      0.46405905     0.012231858
      4342.00      0.46009716     0.012256143
      4346.34      0.45065363     0.012286480
      4350.69      0.45158285     0.012653313
      4355.04      0.45424428     0.012304483
      4359.39      0.45910265     0.012316271
      4363.75      0.46228526     0.012333944
      4368.12      0.46561958     0.012356249
      4372.48      0.46753634     0.012383369
      4376.86      0.46847043     0.012416183
      4381.23      0.46763975     0.012409926
      4385.61      0.46767298     0.012418258
      4390.00      0.46972857     0.012432308
      4394.39      0.47182646     0.012451839
      4398.79      0.47168544     0.012475692
      4403.18      0.47016656     0.012503929
      4407.59      0.46710159     0.012132126
      4412.00      0.46459101     0.012520311
      4416.41      0.45634894     0.012529711
      4420.82      0.44621649     0.012544456
      4425.25      0.43266458     0.012564314
      4429.67      0.42335346     0.012588132
      4434.10      0.42749797     0.012615938
      4438.54      0.42814202     0.012240245
      4442.97      0.43230301     0.012628681
      4447.42      0.43219036     0.012637724
      4451.86      0.43457179     0.012651705
      4456.32      0.43836042     0.012670471
      4460.77      0.44273164     0.012692833
      4465.24      0.44873291     0.012309235
      4469.70      0.45590010     0.012338329
      4474.17      0.46512764     0.012371563
      4478.65      0.47665677     0.012742306
      4483.12      0.48934435     0.012754244
      4487.61      0.50450268     0.012770618
      4492.09      0.52328642     0.012789660
      4496.59      0.54553711     0.012812965
      4501.08      0.56988035     0.012427243
      4505.58      0.59519586     0.012456931
      4510.09      0.62308896     0.012490473
      4514.60      0.65013840     0.012853897
      4519.12      0.68200357     0.012866718
      4523.63      0.71452103     0.012881758
      4528.16      0.74437849     0.012900766
      4532.69      0.77159732     0.012508499
      4537.22      0.80018407     0.012533589
      4541.76      0.83055338     0.012561972
      4546.30      0.86234269     0.012593796
      4550.85      0.89031050     0.012960634
      4555.40      0.92078813     0.012970864
      4559.95      0.94815219     0.012984742
      4564.51      0.97283136     0.013002224
      4569.08      0.99485679     0.012605248
      4573.65       1.0157325     0.012628173
      4578.22       1.0352337     0.012654231
      4582.80       1.0534568     0.012681972
      4587.38       1.0683259     0.012712927
      4591.97       1.0821655     0.012747074
      4596.56       1.0976315     0.013081585
      4601.16       1.1124289     0.013096021
      4605.76       1.1283325     0.012693289
      4610.37       1.1402385     0.012712708
      4614.98       1.1504649     0.012733403
      4619.59       1.1611041     0.012756827
      4624.21       1.1731708     0.012782960
      4628.84       1.1869931     0.012811778
      4633.47       1.2010515     0.012843312
      4638.10       1.2093301     0.012877693
      4642.74       1.2111913     0.012776105
      4647.38       1.2130618     0.012789548
      4652.03       1.2117913     0.012805379
      4656.68       1.2051935     0.012823368
      4661.34       1.1929273     0.012843869
      4666.00       1.1755759     0.012866632
      4670.67       1.1538405     0.012891763
      4675.33       1.1289722     0.012918299
      4680.01       1.1037259     0.012946286
      4684.69       1.0793184     0.012976834
      4689.38       1.0574580     0.012573660
      4694.07       1.0334178     0.012888275
      4698.76       1.0062580     0.012902537
      4703.46      0.98058933     0.012918899
      4708.16      0.95809140     0.012935822
      4712.87      0.93863963     0.012954764
      4717.58      0.92332531     0.012975537
      4722.30      0.90960670     0.012998142
      4727.03      0.89793938     0.013022642
      4731.75      0.88965265     0.013049061
      4736.48      0.87987201     0.012664139
      4741.22      0.87624101     0.012672205
      4745.96      0.87064029     0.012681625
      4750.71      0.86376491     0.012692407
      4755.46      0.85312871     0.013011788
      4760.22      0.84143347     0.013026118
      4764.97      0.82853164     0.013042031
      4769.74      0.81344143     0.013059078
      4774.51      0.79534026     0.013077012
      4779.29      0.77241848     0.013096363
      4784.07      0.74489559     0.013117162
      4788.85      0.71902046     0.012753781
      4793.64      0.68908846     0.012759874
      4798.43      0.65986163     0.012766607
      4803.23      0.63220132     0.012773898
      4808.03      0.60335393     0.012782136
      4812.84      0.57470328     0.012791292
      4817.66      0.55209020     0.012801238
      4822.48      0.53350906     0.012811994
      4827.30      0.51933015     0.013136033
      4832.12      0.51183021     0.013149534
      4836.96      0.50851822     0.013163481
      4841.79      0.51157254     0.013178452
      4846.63      0.51588529     0.013194403
      4851.48      0.52127461     0.012848849
      4856.33      0.53102547     0.012852494
      4861.19      0.54169380     0.012856555
      4866.05      0.55320095     0.012860948
      4870.92      0.56351458     0.012866076
      4875.79      0.57284318     0.012871857
      4880.66      0.58228017     0.012878303
      4885.55      0.59033315     0.012885402
      4890.43      0.59913307     0.012892694
      4895.32      0.60779710     0.012900157
      4900.22      0.61418555     0.012908171
      4905.12      0.62361033     0.012916795
      4910.02      0.63867786     0.012925805
      4914.94      0.65573905     0.012935303
      4919.85      0.67656479     0.012944896
      4924.77      0.70121369     0.012588021
      4929.70      0.72642504     0.012948108
      4934.62      0.75681597     0.012949381
      4939.56      0.78860244     0.012951063
      4944.50      0.82350610     0.012953374
      4949.44      0.85954493     0.012956174
      4954.39      0.89579518     0.012958991
      4959.35      0.93303512     0.012961820
      4964.31      0.96691476     0.012965056
      4969.27      0.99637566     0.012968600
      4974.24       1.0227443     0.012972537
      4979.22       1.0428731     0.012976843
      4984.20       1.0560063     0.012981039
      4989.18       1.0599296     0.012985107
      4994.17       1.0548104     0.012989470
      4999.16       1.0423841     0.012994101
      5004.16       1.0223568     0.012998903
      5009.17      0.99337667     0.013003958
      5014.18      0.95816749     0.013008827
      5019.19      0.91756764     0.013013422
      5024.21      0.87393694     0.013018196
      5029.23      0.83887416     0.012656520
      5034.26      0.79704081     0.012661278
      5039.30      0.75734965     0.012666111
      5044.34      0.72171143     0.012670655
      5049.39      0.69125347     0.012675609
      5054.43      0.66809088     0.012680140
      5059.49      0.65091108     0.012684541
      5064.55      0.64116312     0.012689004
      5069.61      0.63747277     0.012693510
      5074.68      0.63770123     0.012697624
      5079.76      0.64270850     0.012702071
      5084.84      0.65122612     0.012706040
      5089.92      0.66287894     0.012709869
      5095.01      0.67720533     0.012713619
      5100.11      0.69351987     0.012717318
      5105.21      0.71022859     0.012720613
      5110.31      0.72643149     0.012724267
      5115.42      0.74137228     0.012727255
      5120.54      0.75668590     0.012730093
      5125.66      0.77320787     0.012732998
      5130.79      0.78899660     0.012735669
      5135.92      0.80383471     0.012737884
      5141.05      0.81766060     0.012740375
      5146.20      0.83087353     0.012742243
      5151.34      0.84361782     0.012744070
      5156.49      0.85547901     0.012745669
      5161.65      0.86674270     0.012747139
      5166.81      0.87607897     0.012748212
      5171.98      0.88489486     0.012749463
      5177.15      0.89382791     0.012750097
      5182.33      0.90155312     0.012750683
      5187.51      0.90770999     0.012751033
      5192.70      0.91402679     0.012751227
      5197.89      0.92005746     0.012751003
      5203.09      0.92490046     0.012751016
      5208.29      0.92994211     0.012750502
      5213.50      0.93637165     0.012749793
      5218.72      0.94573714     0.012748942
      5223.93      0.95892312     0.012748070
      5229.16      0.97416636     0.012746695
      5234.39      0.99098291     0.012745599
      5239.62       1.0102867     0.012743939
      5244.86       1.0320573     0.012742176
      5250.11       1.0543668     0.012740383
      5255.36       1.0778457     0.012738462
      5260.61       1.1028952     0.012736165
      5265.87       1.1271314     0.012734252
      5271.14       1.1499302     0.012731761
      5276.41       1.1719436     0.012729187
      5281.69       1.1937028     0.012726693
      5286.97       1.2136002     0.012724144
      5292.26       1.2340003     0.012721267
      5297.55       1.2515877     0.012718802
      5302.85       1.2681690     0.012715898
      5308.15       1.2845419     0.012712956
      5313.46       1.2986053     0.012710124
      5318.77       1.3116695     0.012707370
      5324.09       1.3246125     0.012704408
      5329.42       1.3350634     0.012422991
      5334.75       1.3468349     0.012420402
      5340.08       1.3594484     0.012417949
      5345.42       1.3724909     0.012415516
      5350.77       1.3848971     0.012412810
      5356.12       1.3967440     0.012410527
      5361.48       1.4058856     0.012408681
      5366.83       1.4126192     0.012406603
      5372.20       1.4155726     0.012404694
      5377.58       1.4152008     0.012402975
      5382.95       1.4096866     0.012401064
      5388.34       1.3997806     0.012399692
      5393.72       1.3866846     0.012398881
      5399.12       1.3679905     0.012397962
      5404.52       1.3462661     0.012397261
      5409.92       1.3205294     0.012396904
      5415.33       1.2921118     0.012396512
      5420.75       1.2643349     0.012396800
      5426.17       1.2401681     0.012397733
      5431.60       1.2218932     0.012398709
      5437.03       1.2054661     0.012391452
      5442.47       1.2099416     0.012385054
      5447.91       1.2241480     0.012379294
      5453.36       1.2484502     0.012374221
      5458.81       1.2813792     0.012369106
      5464.27       1.3214912     0.012364437
      5469.73       1.3675624     0.012360135
      5475.20       1.4145736     0.012355879
      5480.68       1.4607700     0.012352411
      5486.16       1.5044435     0.012349745
      5491.65       1.5449518     0.012347215
      5497.14       1.5792774     0.012345208
      5502.64       1.6054931     0.012343417
      5508.14       1.6204525     0.012342525
      5513.65       1.6177947     0.012049738
      5519.16       1.6068375     0.012041176
      5524.68       1.5860679     0.012032646
      5530.20       1.5574572     0.012024685
      5535.73       1.5206077     0.012016926
      5541.27       1.4765787     0.012009987
      5546.81       1.4211948     0.012312652
      5552.36       1.3710089     0.012306743
      5557.91       1.3228312     0.012301537
      5563.47       1.2773923     0.012296708
      5569.04       1.2371199     0.012292987
      5574.60       1.2028489     0.012290380
      5580.18       1.1802575     0.012016308
      5585.76       1.1615282     0.012004182
      5591.35       1.1491537     0.011992514
      5596.94       1.1419013     0.011981887
      5602.53       1.1375815     0.011972345
      5608.14       1.1327667     0.011963873
      5613.75       1.1240612     0.011955756
      5619.36       1.1108033     0.011948633
      5624.98       1.1002555     0.012248879
      5630.60       1.0760880     0.012243085
      5636.23       1.0445037     0.012238740
      5641.87      0.99911383     0.011974137
      5647.51      0.95625412     0.011959298
      5653.16      0.90982366     0.011945622
      5658.82      0.86120591     0.011932810
      5664.47      0.81326227     0.011921486
      5670.14      0.76802103     0.011911589
      5675.81      0.72740054     0.011902538
      5681.48      0.69206228     0.011894615
      5687.17      0.66395066     0.011888079
      5692.85      0.64525474     0.011641445
      5698.55      0.63381523     0.011928345
      5704.25      0.63099745     0.011911397
      5709.95      0.63401113     0.011895949
      5715.66      0.64169312     0.011881551
      5721.38      0.65318647     0.011868823
      5727.10      0.66795760     0.011857779
      5732.83      0.68518583     0.011848395
      5738.56      0.70438815     0.011840752
      5744.30      0.72499305     0.011593612
      5750.04      0.74767199     0.011588545
      5755.79      0.77180799     0.011864539
      5761.55      0.79465922     0.011847471
      5767.31      0.82004204     0.011832319
      5773.08      0.84784455     0.011818550
      5778.85      0.87457586     0.011806206
      5784.63      0.90885599     0.011795968
      5790.41      0.95858517     0.011549873
      5796.21       1.0116435     0.011545366
      5802.00       1.0711575     0.011542202
      5807.81       1.1364263     0.011809883
      5813.61       1.2013186     0.011794166
      5819.43       1.2635895     0.011782266
      5825.25       1.3274910     0.011775348
      5831.07       1.4036989     0.011538210
      5836.90       1.4646630     0.011538066
      5842.74       1.5218381     0.011540554
      5848.58       1.5720901     0.011546673
      5854.43       1.6174104     0.011555429
      5860.29       1.6579198     0.011820558
      5866.15       1.6827124     0.011809103
      5872.01       1.6919949     0.011556828
      5877.89       1.7005016     0.011547954
      5883.76       1.7025913     0.011539679
      5889.65       1.7020314     0.011532266
      5895.54       1.7058085     0.011526095
      5901.43       1.7091909     0.011522335
      5907.34       1.7072383     0.011760130
      5913.24       1.7051047     0.011500872
      5919.16       1.6990977     0.011486360
      5925.08       1.6907390     0.011473000
      5931.00       1.6838974     0.011460930
      5936.93       1.6834634     0.011451806
      5942.87       1.6851072     0.011445350
      5948.81       1.6815804     0.011171436
      5954.76       1.6792520     0.011407381
      5960.72       1.6752055     0.011391844
      5966.68       1.6698195     0.011379908
      5972.64       1.6602351     0.011369564
      5978.62       1.6460727     0.011361767
      5984.60       1.6295409     0.011358304
      5990.58       1.6105718     0.011085630
      5996.57       1.5904572     0.011327573
      6002.57       1.5678144     0.011316899
      6008.57       1.5428734     0.011309784
      6014.58       1.5152732     0.011306253
      6020.60       1.4782763     0.011056029
      6026.62       1.4426067     0.011040121
      6032.65       1.4022269     0.011282572
      6038.68       1.3677654     0.011272639
      6044.72       1.3382492     0.011266102
      6050.76       1.3131745     0.011262430
      6056.81       1.2948347     0.011012946
      6062.87       1.2823419     0.010997297
      6068.93       1.2766159     0.010984842
      6075.00       1.2755101     0.011229905
      6081.08       1.2793863     0.011223517
      6087.16       1.2948563     0.010986596
      6093.25       1.3049563     0.010968113
      6099.34       1.3162205     0.010953078
      6105.44       1.3272050     0.010941538
      6111.54       1.3426110     0.011186434
      6117.66       1.3488854     0.011181088
      6123.78       1.3486132     0.010938364
      6129.90       1.3496088     0.010921208
      6136.03       1.3480185     0.010907745
      6142.17       1.3405355     0.011150171
      6148.31       1.3381257     0.011143247
      6154.46       1.3384558     0.010907191
      6160.61       1.3397943     0.010888411
      6166.77       1.3422310     0.010873672
      6172.94       1.3465976     0.010863176
      6179.11       1.3525274     0.011109573
      6185.29       1.3615761     0.010884616
      6191.48       1.3700499     0.010863764
      6197.67       1.3808692     0.010848831
      6203.87       1.3921787     0.010843003
      6210.07       1.4020885     0.010905588
      6216.28       1.4080253     0.010898389
      6222.50       1.4127650     0.010898660
      6228.72       1.4155104     0.010904825
      6234.95       1.4159261     0.010914993
      6241.19       1.4149044     0.010723572
      6247.42       1.4159079     0.010972453
      6253.67       1.4167317     0.010958133
      6259.93       1.4169992     0.010942334
      6266.19       1.4170270     0.010925023
      6272.46       1.4174718     0.010694888
      6278.73       1.4160627     0.010886025
      6285.01       1.4143502     0.010848848
      6291.29       1.4114124     0.010819588
      6297.58       1.4084228     0.010592407
      6303.88       1.4055843     0.010581065
      6310.19       1.4020952     0.010776523
      6316.50       1.3980799     0.010750094
      6322.81       1.3902080     0.010525893
      6329.14       1.3823175     0.010513128
      6335.47       1.3753277     0.010723499
      6341.80       1.3704953     0.010698835
      6348.14       1.3650096     0.010680170
      6354.49       1.3603376     0.010465293
      6360.85       1.3558873     0.010458773
      6367.21       1.3540235     0.010662700
      6373.57       1.3503553     0.010644754
      6379.95       1.3446051     0.010433690
      6386.33       1.3376468     0.010427902
      6392.72       1.3296075     0.010427426
      6399.11       1.3208647     0.010623536
      6405.51       1.3080441     0.010416396
      6411.92       1.2967915     0.010416349
      6418.32       1.2874911     0.010422906
      6424.74       1.2762373     0.010631843
      6431.17       1.2576853     0.010423568
      6437.60       1.2460278     0.010420913
      6444.04       1.2369401     0.010423100
      6450.48       1.2275188     0.010627899
      6456.94       1.2253369     0.010412243
      6463.39       1.2237448     0.010402447
      6469.85       1.2241401     0.010397099
      6476.33       1.2267361     0.010173255
      6482.80       1.2345824     0.010371859
      6489.28       1.2463515     0.010361675
      6495.77       1.2525612     0.010358197
      6502.27       1.2656963     0.010139144
      6508.77       1.2889352     0.010338369
      6515.28       1.3014759     0.010328198
      6521.80       1.3162143     0.010323102
      6528.32       1.3338582     0.010097655
      6534.85       1.3532343     0.010296291
      6541.38       1.3707537     0.010287824
      6547.92       1.3878850     0.010076445
      6554.47       1.4030799     0.010055654
      6561.03       1.4237341     0.010253296
      6567.59       1.4406336     0.010247071
      6574.16       1.4545830     0.010037001
      6580.73       1.4658624     0.010022015
      6587.31       1.4746714     0.010224616
      6593.90       1.4821942     0.010222273
      6600.50       1.4888686     0.010009051
      6607.10       1.4951630     0.010208269
      6613.70       1.4986703     0.010201718
      6620.32       1.4966518    0.0099986770
      6626.94       1.4995000    0.0099826803
      6633.57       1.4984203     0.010184970
      6640.20       1.4847164    0.0099917883
      6646.84       1.4747896    0.0099720740
      6653.49       1.4655095    0.0099591069
      6660.14       1.4540159     0.010164025
      6666.80       1.4398082    0.0099631171
      6673.47       1.4281362    0.0099470101
      6680.14       1.4169537    0.0099376093
      6686.82       1.4022935    0.0099556305
      6693.51       1.3897229    0.0099362179
      6700.20       1.3780381    0.0099240609
      6706.90       1.3669736    0.0099493888
      6713.61       1.3574502    0.0099271797
      6720.32       1.3487510    0.0099124419
      6727.05       1.3412012    0.0099049841
      6733.77       1.3364643    0.0099190887
      6740.51       1.3298856    0.0099017255
      6747.25       1.3230451    0.0098919458
      6754.00       1.3173440    0.0099158499
      6760.75       1.3093641    0.0099109052
      6767.51       1.3022546    0.0099241229
      6774.28       1.2903201    0.0099645823
      6781.05       1.2795908    0.0099367537
      6787.84       1.2677615    0.0099425392
      6794.62       1.2527504    0.0098458580
      6801.42       1.2393652     0.010149673
      6808.22       1.2250010     0.010236969
      6815.03       1.2078828     0.010208945
      6821.85       1.1915301     0.010610524
      6828.67       1.1776773     0.010710890
      6835.50       1.1657465     0.010622460
      6842.33       1.1529339     0.010940513
      6849.17       1.1417526     0.010935008
      6856.02       1.1295640     0.010680491
      6862.88       1.1174701     0.010623600
      6869.74       1.1069193     0.010671987
      6876.61       1.1005259     0.010353054
      6883.49       1.0998847     0.010262010
      6890.37       1.1017537     0.010341106
      6897.27       1.1112668     0.010091767
      6904.16       1.1184888     0.010042196
      6911.07       1.1279971     0.010131463
      6917.98       1.1445986    0.0099008743
      6924.89       1.1570002    0.0098766646
      6931.82       1.1707605     0.010015696
      6938.75       1.1864830    0.0098089346
      6945.69       1.2025512    0.0097971868
      6952.64       1.2232935    0.0097848037
      6959.59       1.2364631    0.0097752250
      6966.55       1.2472753    0.0097757276
      6973.52       1.2543010    0.0097707937
      6980.49       1.2572755    0.0097605871
      6987.47       1.2595912    0.0097571723
      6994.46       1.2569774    0.0097363112
      7001.46       1.2580251    0.0097227633
      7008.46       1.2595291    0.0097195856
      7015.46       1.2606124    0.0097023767
      7022.48       1.2613592    0.0096932385
      7029.51       1.2628183    0.0095046186
      7036.53       1.2631468    0.0096745281
      7043.57       1.2643407    0.0096701551
      7050.62       1.2649547    0.0094854042
      7057.66       1.2661920    0.0096658371
      7064.72       1.2700897    0.0096741641
      7071.79       1.2796284    0.0094981995
      7078.86       1.2848272    0.0096962158
      7085.94       1.2820841    0.0095400582
      7093.03       1.2744335    0.0097477700
      7100.12       1.2613926    0.0097780835
      7107.22       1.2357683    0.0096829253
      7114.33       1.2157506    0.0099517469
      7121.44       1.2018686    0.0099167600
      7128.56       1.1950501    0.0099785734
      7135.69       1.1816408     0.010274412
      7142.83       1.1702726     0.010149583
      7149.97       1.1608832     0.010168510
      7157.12       1.1481843     0.010408069
      7164.28       1.1430957     0.010204230
      7171.44       1.1393417     0.010390310
      7178.62       1.1392648     0.010173277
      7185.80       1.1444786     0.010145063
      7192.98       1.1602130     0.010335275
      7200.17       1.1743597     0.010155318
      7207.38       1.1873754     0.010157166
      7214.58       1.1956023     0.010194743
      7221.80       1.2031443     0.010180581
      7229.02       1.2063568     0.010184529
      7236.25       1.2121769     0.010136855
      7243.49       1.2190410     0.010094716
      7250.73       1.2367172     0.010054918
      7257.98       1.2555977     0.010014852
      7265.24       1.2756618    0.0098062698
      7272.51       1.2895384    0.0099272093
      7279.78       1.2991511    0.0098796952
      7287.06       1.3103981    0.0098273662
      7294.35       1.3157671    0.0097822569
      7301.64       1.3171643    0.0095862966
      7308.94       1.3185347    0.0097169323
      7316.25       1.3153353    0.0095274307
      7323.57       1.3153757    0.0096827713
      7330.89       1.3123000    0.0096608327
      7338.22       1.3072557    0.0094910446
      7345.56       1.3016145    0.0096412279
      7352.91       1.2976934    0.0094677856
      7360.26       1.2924618    0.0096238112
      7367.62       1.2915300    0.0094517654
      7374.99       1.2909463    0.0096198078
      7382.37       1.2910213    0.0096038744
      7389.75       1.2907328    0.0094462195
      7397.14       1.2912341    0.0096089873
      7404.53       1.2910956    0.0094488083
      7411.94       1.2931214    0.0096200231
      7419.35       1.2954718    0.0094590640
      7426.77       1.2964134    0.0094645651
      7434.20       1.2966847    0.0094729015
      7441.63       1.2957412    0.0094761083
      7449.07       1.2948232    0.0096454409
      7456.52       1.2935174    0.0094921562
      7463.98       1.2903459    0.0096665958
      7471.45       1.2871815    0.0095257682
      7478.92       1.2794089    0.0095746678
      7486.40       1.2755427    0.0097395360
      7493.88       1.2591334    0.0098113801
      7501.38       1.2388131    0.0097965226
      7508.88       1.2088275    0.0098039184
      7516.39       1.1733165     0.010060459
      7523.91       1.1301233     0.010275176
      7531.43       1.0796112     0.010661741
      7538.96       1.0269490     0.011355066
      7546.50      0.97132073     0.011962646
      7554.05      0.90785918     0.012913544
      7561.60      0.84822351     0.013469550
      7569.16      0.76735546     0.014429900
      7576.73      0.70934518     0.014752339
      7584.31      0.64146528     0.014893086
      7591.89      0.60558099     0.014698420
      7599.49      0.58146200     0.013741251
      7607.09      0.56994747     0.013412099
      7614.70      0.58412741     0.012325460
      7622.31      0.60936864     0.011928490
      7629.93      0.65228756     0.011161363
      7637.56      0.69412922     0.010945703
      7645.20      0.74686065     0.010442036
      7652.85      0.80285353     0.010344936
      7660.50      0.86679450     0.010080802
      7668.16      0.92757089     0.010116329
      7675.83      0.98702166    0.0099048821
      7683.50       1.0493219    0.0099726964
      7691.19       1.1100793    0.0097897273
      7698.88       1.1654083    0.0099174316
      7706.58       1.2142084    0.0097540477
      7714.29       1.2565518    0.0097423568
      7722.00       1.2940773    0.0097623296
      7729.73       1.3212715    0.0097579284
      7737.45       1.3365615    0.0097873416
      7745.19       1.3489565    0.0097857728
      7752.94       1.3528864    0.0098203866
      7760.69       1.3619445    0.0098198670
      7768.45       1.3651097    0.0098557598
      7776.22       1.3674256    0.0098559445
      7784.00       1.3608966    0.0098931881
      7791.78       1.3560802    0.0098942619
      7799.57       1.3473168    0.0099350155
      7807.37       1.3400723    0.0099392083
      7815.18       1.3269388    0.0099845187
      7822.99       1.3168506    0.0098478399
      7830.82       1.3098661     0.010040650
      7838.65       1.3085235    0.0099063249
      7846.49       1.3037647     0.010097218
      7854.34       1.2960816    0.0099559049
      7862.19       1.2877043     0.010141435
      7870.05       1.2772789    0.0099994211
      7877.93       1.2652849     0.010181950
      7885.80       1.2545214     0.010041483
      7893.69       1.2437593     0.010222290
      7901.58       1.2325278     0.010082630
      7909.49       1.2229518     0.010264724
      7917.40       1.2064723     0.010128853
      7925.31       1.1902971     0.010165414
      7933.24       1.1737346     0.010180707
      7941.17       1.1568351     0.010215981
      7949.11       1.1394567     0.010233714
      7957.06       1.1173943     0.010265418
      7965.02       1.0985386     0.010283201
      7972.98       1.0799622     0.010309341
      7980.96       1.0660412     0.010502693
      7988.94       1.0564103     0.010356991
      7996.93       1.0428330     0.010545796
      8004.93       1.0327732     0.010404520
      8012.93       1.0269816     0.010447579
      8020.95       1.0183604     0.010466264
      8028.97       1.0128753     0.010521566
      8036.99       1.0017584     0.010554632
      8045.03      0.98948307     0.010629720
      8053.08      0.97123187     0.010677971
      8061.13      0.95119626     0.010786283
      8069.20      0.93028429     0.010728878
      8077.26      0.91091170     0.011012864
      8085.34      0.88899535     0.010970168
      8093.43      0.86893318     0.011282356
      8101.52      0.85200048     0.011480436
      8109.62      0.83839190     0.011565705
      8117.73      0.82429166     0.011660927
      8125.85      0.80717973     0.011502540
      8133.98      0.79242011     0.011738555
      8142.11      0.77782523     0.011567430
      8150.25      0.76491039     0.011784127
      8158.41      0.75444270     0.011593236
      8166.56      0.74451799     0.011606667
      8174.73      0.72851510     0.011796389
      8182.91      0.70388145     0.011607170
      8191.09      0.67578731     0.011814219
      8199.28      0.63899960     0.011633179
      8207.48      0.59305288     0.011653352
      8215.69      0.55299079     0.011637439
      8223.91      0.50330639     0.011644099
      8232.13      0.45660001     0.011821266
      8240.36      0.41365657     0.011629722
      8248.60      0.37817257     0.011673566
      8256.85      0.34796483     0.011681441
      8265.11      0.31512815     0.011710060
      8273.37      0.28701530     0.011680317
      8281.65      0.26096173     0.011652626
      8289.93      0.24838322     0.011653092
      8298.22      0.24235312     0.011628415
      8306.52      0.25062646     0.011640623
      8314.83      0.26327962     0.011467106
      8323.14      0.27836436     0.011638965
      8331.46      0.30126307     0.011660713
      8339.80      0.31735618     0.011650123
      8348.13      0.33798730     0.011685264
      8356.48      0.35345287     0.011530285
      8364.84      0.36876554     0.011722861
      8373.21      0.38275087     0.011769439
      8381.58      0.39137036     0.011613186
      8389.96      0.40310268     0.011820908
      8398.35      0.41096736     0.011677718
      8406.75      0.41672148     0.011725247
      8415.16      0.42606804     0.011943073
      8423.57      0.44168547     0.011798146
      8432.00      0.45673101     0.012014215
      8440.43      0.47910189     0.011881198
      8448.87      0.50540521     0.011935334
      8457.32      0.53775648     0.012158761
      8465.78      0.57724751     0.012020669
      8474.25      0.62046676     0.012076726
      8482.72      0.66691273     0.012302897
      8491.20      0.71478683     0.012157425
      8499.69      0.77083755     0.012212741
      8508.19      0.82844597     0.012241911
      8516.70      0.89351241     0.012291928
      8525.22      0.95997336     0.012351255
      8533.75       1.0250695     0.012379584
      8542.28       1.0955615     0.012432608
      8550.82       1.1652528     0.012493951
      8559.37       1.2256002     0.012521600
      8567.93       1.2879434     0.012581029
      8576.50       1.3511970     0.012650063
      8585.08       1.4012972     0.012678756
      8593.66       1.4504257     0.012741557
      8602.26       1.4926506     0.012595237
      8610.86       1.5283442     0.012841773
      8619.47       1.5505895     0.012905582
      8628.09       1.5634252     0.012755822
      8636.72       1.5715973     0.013004756
      8645.36       1.5692347     0.013067847
      8654.00       1.5634200     0.012915034
      8662.66       1.5530857     0.012990992
      8671.32       1.5394507     0.013230655
      8679.99       1.5231809     0.013077168
      8688.67       1.5025491     0.013156769
      8697.36       1.4813963     0.013403627
      8706.06       1.4570307     0.013249398
      8714.76       1.4276559     0.013330746
      8723.48       1.3990404     0.013584246
      8732.21       1.3718531     0.013429212
      8740.93       1.3466566     0.013512108
      8749.68       1.3177636     0.013772614
      8758.43       1.2878822     0.013613920
      8767.19       1.2631691     0.013697519
      8775.96       1.2310079     0.013788351
      8784.73       1.1968146     0.013804848
      8793.52       1.1654224     0.013890980
      8802.31       1.1309701     0.013984563
      8811.11       1.0883879     0.014008008
      8819.92       1.0414839     0.014103671
      8828.75      0.99584359     0.014214260
      8837.57      0.94198929     0.014094006
      8846.41      0.88962647     0.014368282
      8855.26      0.83328111     0.014525888
      8864.12      0.77496066     0.014715046
      8872.98      0.71947833     0.014650074
      8881.85      0.66562375     0.015045004
      8890.73      0.61409060     0.015352792
      8899.63      0.57109055     0.015346698
      8908.52      0.53454964     0.015682171
      8917.43      0.50386769     0.016191453
      8926.35      0.48733224     0.016176267
      8935.28      0.49061991     0.016442355
      8944.22      0.49365996     0.016826936
      8953.16      0.50891655     0.016921637
      8962.11      0.52975484     0.016698815
      8971.08      0.55332010     0.016692490
      8980.05      0.57736535     0.016901532
      8989.03      0.60192729     0.016712799
      8998.02      0.63397866     0.016776511
      9007.02      0.65836460     0.016870040
      9016.02      0.67318909     0.016749584
      9025.04      0.68634782     0.016953932
      9034.07      0.69122561     0.016853235
      9043.10      0.69042697     0.016758429
      9052.14      0.67775311     0.016927478
      9061.20      0.66788726     0.016814204
      9070.26      0.65820614     0.016940781
      9079.33      0.65171374     0.016777308
      9088.41      0.64700872     0.016826830
      9097.50      0.65434134     0.016654731
      9106.60      0.66272274     0.016673153
      9115.70      0.68252966     0.016294482
      9124.82      0.70425086     0.016341901
      9133.94      0.71819939     0.016162965
      9143.08      0.72698560     0.016196342
      9152.22      0.73231463     0.016082895
      9161.37      0.74265326     0.016146924
      9170.54      0.74304152     0.016021461
      9179.71      0.73884181     0.015985026
      9188.89      0.73885291     0.016159528
      9198.08      0.73226001     0.016233947
      9207.28      0.72554470     0.016670880
      9216.48      0.70995926     0.016882704
      9225.70      0.68939437     0.017540772
      9234.92      0.67141614     0.018012941
      9244.16      0.64751880     0.018797730
      9253.40      0.63210890     0.019280602
      9262.66      0.60385597     0.020083799
      9271.92      0.58191564     0.020380015
      9281.20      0.55343393     0.021112978
      9290.48      0.53926732     0.021349723
      9299.77      0.51946009     0.021942045
      9309.07      0.50944095     0.022046975
      9318.38      0.49808968     0.022403372
      9327.69      0.49643089     0.022176552
      9337.02      0.49087231     0.022316347
      9346.36      0.48386922     0.022118663
      9355.71      0.48294791     0.022143456
      9365.07      0.47993862     0.021969241
      9374.43      0.47633940     0.021925424
      9383.80      0.46932795     0.021708660
      9393.19      0.46492614     0.021717530
      9402.58      0.45511767     0.021373862
      9411.98      0.44437427     0.021473167
      9421.40      0.44031717     0.021353216
      9430.82      0.43488676     0.021663852
      9440.25      0.43173250     0.021924678
      9449.69      0.42115436     0.022441444
      9459.14      0.41787672     0.022753825
      9468.60      0.41234046     0.023287679
      9478.07      0.41051680     0.023935499
      9487.55      0.40742596     0.024698946
      9497.04      0.40898636     0.025301650
      9506.53      0.41203178     0.026267803
      9516.04      0.42080495     0.028098652
      9525.56      0.43432037     0.030165956
      9535.08      0.45298011     0.032172129
      9544.62      0.47607851     0.035779274
      9554.16      0.50248931     0.041880071
      9563.72      0.53071520     0.048484392
      9573.29      0.56177765     0.054066435
      9582.85      0.59668361     0.063504918
