# starting wavelength =        3443.8700
# ending wavelength =        9593.6200
# O2 telluric scale =        0
# O2 telluric shift =        0
# H2O telluric scale =        0
# H2O telluric shift =        0
      3446.78      0.14191548     0.010455991
      3450.22      0.14501957    0.0097870657
      3453.67      0.14523425    0.0077298304
      3457.13      0.14590919    0.0073819576
      3460.58      0.14733577    0.0061198420
      3464.04      0.14834168    0.0055476447
      3467.51      0.14735599    0.0054019012
      3470.98      0.14361261    0.0048014296
      3474.45      0.14090165    0.0047056751
      3477.92      0.14218530    0.0043368379
      3481.40      0.14248610    0.0041877388
      3484.88      0.14652156    0.0041178333
      3488.37      0.14934358    0.0039414927
      3491.86      0.14998920    0.0038793948
      3495.35      0.15016590    0.0037599841
      3498.84      0.15108108    0.0037305046
      3502.34      0.15217297    0.0036715633
      3505.84      0.15369746    0.0036055840
      3509.35      0.15520227    0.0035505640
      3512.86      0.15631232    0.0036137893
      3516.37      0.15918526    0.0036214938
      3519.89      0.16188701    0.0036297225
      3523.41      0.16461061    0.0036384973
      3526.93      0.16597494    0.0036478110
      3530.46      0.16645262    0.0036487578
      3533.99      0.16555829    0.0036557909
      3537.53      0.16484993    0.0036633504
      3541.06      0.16517095    0.0036714287
      3544.60      0.16673090    0.0036800157
      3548.15      0.16936842    0.0036891132
      3551.70      0.17172703    0.0037521307
      3555.25      0.17159470    0.0037626199
      3558.80      0.17025443    0.0037045922
      3562.36      0.17000110    0.0037124144
      3565.92      0.16943635    0.0037207205
      3569.49      0.16848623    0.0037833005
      3573.06      0.16675608    0.0037929050
      3576.64      0.16679584    0.0038030048
      3580.21      0.16781268    0.0038136025
      3583.79      0.16748817    0.0038247141
      3587.38      0.16854348    0.0038148925
      3590.96      0.16626007    0.0038233689
      3594.55      0.16333306    0.0038323111
      3598.15      0.16325468    0.0038417079
      3601.75      0.16756094    0.0038515588
      3605.35      0.17195468    0.0039211034
      3608.96      0.17589162    0.0039286292
      3612.56      0.17748002    0.0039366606
      3616.18      0.17930175    0.0039451948
      3619.79      0.18287746    0.0038791664
      3623.41      0.18715761    0.0038884841
      3627.04      0.19101541    0.0039611361
      3630.66      0.19631488    0.0039680596
      3634.29      0.20097626    0.0039754686
      3637.93      0.20541140    0.0039833464
      3641.57      0.21069220    0.0039916955
      3645.21      0.21572491    0.0040005110
      3648.86      0.21834054    0.0040724757
      3652.50      0.21974663    0.0040075460
      3656.16      0.21942648    0.0040142474
      3659.81      0.21975229    0.0040213901
      3663.47      0.22024660    0.0040289636
      3667.14      0.22151529    0.0040998552
      3670.80      0.22183265    0.0041086023
      3674.48      0.22085134    0.0041177643
      3678.15      0.22001457    0.0041273389
      3681.83      0.22082245    0.0041373366
      3685.51      0.22127319    0.0041477356
      3689.20      0.22074438    0.0042220929
      3692.88      0.22128599    0.0041441442
      3696.58      0.22075629    0.0041521226
      3700.27      0.21917269    0.0041605251
      3703.98      0.21790430    0.0041693532
      3707.68      0.21721542    0.0041786071
      3711.39      0.21599366    0.0042599198
      3715.10      0.21559043    0.0042664740
      3718.81      0.21499768    0.0042734712
      3722.53      0.21361812    0.0042809062
      3726.26      0.21159019    0.0042887550
      3729.98      0.20903875    0.0042970363
      3733.71      0.20630229    0.0043057466
      3737.45      0.20451663    0.0043049407
      3741.18      0.20186971    0.0043107824
      3744.93      0.19889320    0.0043170303
      3748.67      0.19547212    0.0043236686
      3752.42      0.19140973    0.0043306942
      3756.17      0.18717517    0.0043380844
      3759.93      0.18453163    0.0044191745
      3763.69      0.18064432    0.0044275627
      3767.45      0.17765802    0.0044364253
      3771.22      0.17502630    0.0044455982
      3774.99      0.17362358    0.0044550715
      3778.77      0.17389576    0.0044648435
      3782.54      0.17444263    0.0044751449
      3786.33      0.17527693    0.0045584767
      3790.11      0.17737500    0.0044664369
      3793.90      0.18058117    0.0044738571
      3797.70      0.18402835    0.0044816251
      3801.50      0.18727083    0.0044897423
      3805.30      0.19085712    0.0044982198
      3809.10      0.19626513    0.0045070376
      3812.91      0.20279263    0.0046004058
      3816.73      0.21086168    0.0046063125
      3820.54      0.21985569    0.0046125924
      3824.36      0.22971892    0.0046192152
      3828.19      0.23984583    0.0046261874
      3832.02      0.24935210    0.0046334959
      3835.85      0.25862764    0.0046411386
      3839.68      0.26723163    0.0047344500
      3843.52      0.27765636    0.0047430981
      3847.37      0.28737804    0.0047520812
      3851.22      0.29507622    0.0047613827
      3855.07      0.30044559    0.0047710029
      3858.92      0.30461092    0.0047810180
      3862.78      0.30814023    0.0046781237
      3866.64      0.31524269    0.0047700247
      3870.51      0.32022790    0.0047765788
      3874.38      0.32496563    0.0047835589
      3878.26      0.32990687    0.0047908036
      3882.13      0.33484950    0.0047983088
      3886.02      0.33916803    0.0048060797
      3889.90      0.34328729    0.0048141172
      3893.79      0.34784241    0.0048224266
      3897.69      0.35092698    0.0049315574
      3901.59      0.35677113    0.0049367699
      3905.49      0.36487498    0.0049422838
      3909.39      0.37406727    0.0049481001
      3913.30      0.38297056    0.0049541851
      3917.22      0.39110123    0.0049605438
      3921.13      0.39805792    0.0049671621
      3925.06      0.40369090    0.0049740258
      3928.98      0.41024052    0.0050806111
      3932.91      0.41452755    0.0050882594
      3936.84      0.41859748    0.0050961302
      3940.78      0.42211256    0.0051042147
      3944.72      0.42394309    0.0051124500
      3948.67      0.42349091    0.0051208202
      3952.61      0.42248840    0.0051293069
      3956.57      0.42306093    0.0051381979
      3960.52      0.42472280    0.0051474479
      3964.48      0.42575746    0.0052618448
      3968.45      0.42736409    0.0052676716
      3972.42      0.42993966    0.0052736183
      3976.39      0.43327461    0.0052797037
      3980.37      0.43768936    0.0052859399
      3984.35      0.44304653    0.0052923542
      3988.33      0.44877937    0.0052989355
      3992.32      0.45268637    0.0053056975
      3996.31      0.45378211    0.0053126437
      4000.31      0.45469232    0.0054365726
      4004.31      0.45517355    0.0054443658
      4008.31      0.45518093    0.0054523020
      4012.32      0.45389074    0.0054604359
      4016.33      0.45276365    0.0054687748
      4020.35      0.45253082    0.0054772482
      4024.37      0.45096803    0.0054858544
      4028.40      0.44672125    0.0054945900
      4032.42      0.44086307    0.0055033598
      4036.46      0.43444687    0.0056364779
      4040.50      0.42682276    0.0056417226
      4044.54      0.41666725    0.0056469220
      4048.58      0.40582882    0.0056525151
      4052.63      0.39721762    0.0056582431
      4056.68      0.39186138    0.0056643337
      4060.74      0.38747789    0.0056703582
      4064.80      0.38132536    0.0056763394
      4068.86      0.37214977    0.0056823214
      4072.93      0.35998220    0.0056883351
      4077.01      0.34712327    0.0056944028
      4081.08      0.33561700    0.0057005587
      4085.17      0.32631683    0.0055441012
      4089.25      0.31883936    0.0055501911
      4093.34      0.31263991    0.0055564185
      4097.43      0.30800493    0.0055626471
      4101.53      0.30490956    0.0055689336
      4105.63      0.30194576    0.0055752608
      4109.74      0.29866180    0.0055816144
      4113.85      0.29584787    0.0055879960
      4117.96      0.29470796    0.0055943188
      4122.08      0.29682440    0.0056005781
      4126.20      0.30183396    0.0056067593
      4130.33      0.30807691    0.0056127628
      4134.46      0.31467680    0.0056185608
      4138.59      0.32032922    0.0056246340
      4142.73      0.32418926    0.0056306202
      4146.88      0.32650232    0.0056365565
      4151.02      0.32722701    0.0056426434
      4155.18      0.32775214    0.0056485212
      4159.33      0.32888179    0.0057867802
      4163.49      0.33046564    0.0057911788
      4167.65      0.33184470    0.0057954938
      4171.82      0.33265994    0.0057997557
      4175.99      0.33410371    0.0058040120
      4180.17      0.33520189    0.0058082745
      4184.35      0.33428360    0.0058125606
      4188.54      0.33298881    0.0058168854
      4192.72      0.33364863    0.0058212556
      4196.92      0.33597169    0.0058256569
      4201.11      0.33867060    0.0058300861
      4205.31      0.34059457    0.0058345329
      4209.52      0.34189387    0.0058389716
      4213.73      0.34310392    0.0058433759
      4217.94      0.34308518    0.0058477079
      4222.16      0.34204638    0.0058519272
      4226.38      0.33823074    0.0057339005
      4230.61      0.33624952    0.0057376928
      4234.84      0.33566266    0.0057416493
      4239.08      0.33737504    0.0055791186
      4243.32      0.33900031    0.0055831685
      4247.56      0.34027829    0.0055870561
      4251.81      0.34089698    0.0055908195
      4256.06      0.34159993    0.0055944863
      4260.32      0.34223671    0.0055980908
      4264.58      0.34279010    0.0056016516
      4268.84      0.34319775    0.0056051935
      4273.11      0.34219033    0.0056087296
      4277.38      0.34011807    0.0056122802
      4281.66      0.33849356    0.0056158517
      4285.94      0.33651758    0.0056194640
      4290.23      0.33324779    0.0056230977
      4294.52      0.32891872    0.0056267604
      4298.81      0.32417271    0.0056304454
      4303.11      0.32011979    0.0056341524
      4307.42      0.31672774    0.0056378643
      4311.72      0.31423797    0.0056415670
      4316.04      0.31460234    0.0057971094
      4320.35      0.31590577    0.0057990578
      4324.67      0.31682263    0.0058007384
      4329.00      0.31592175    0.0058026761
      4333.33      0.31411126    0.0058045745
      4337.66      0.31404254    0.0058066463
      4342.00      0.31505717    0.0058085033
      4346.34      0.31490934    0.0058102332
      4350.69      0.31415467    0.0058118831
      4355.04      0.31331118    0.0058135118
      4359.39      0.31181842    0.0058150977
      4363.75      0.31054508    0.0058166992
      4368.12      0.31164551    0.0058183637
      4372.48      0.31617709    0.0058200691
      4376.86      0.32258783    0.0058219017
      4381.23      0.32911323    0.0058237897
      4385.61      0.33505556    0.0056993188
      4390.00      0.33954081    0.0057014334
      4394.39      0.34480572    0.0057036170
      4398.79      0.35145482    0.0057058671
      4403.18      0.35865822    0.0057081600
      4407.59      0.36458730    0.0057104846
      4412.00      0.36842170    0.0057128214
      4416.41      0.37110730    0.0057151516
      4420.82      0.37409693    0.0057174364
      4425.25      0.37797713    0.0057200653
      4429.67      0.38349769    0.0057230432
      4434.10      0.39043286    0.0057260157
      4438.54      0.39627996    0.0057290224
      4442.97      0.40124649    0.0057321198
      4447.42      0.40860606    0.0057353413
      4451.86      0.41939669    0.0057387097
      4456.32      0.43243463    0.0057422826
      4460.77      0.44598208    0.0057460815
      4465.24      0.45794382    0.0056069791
      4469.70      0.47193981    0.0056075322
      4474.17      0.48925969    0.0057545516
      4478.65      0.51071502    0.0057553921
      4483.12      0.53282454    0.0057564558
      4487.61      0.55389838    0.0057577530
      4492.09      0.57319734    0.0057592550
      4496.59      0.59123557    0.0057609687
      4501.08      0.60956461    0.0057628838
      4505.58      0.62857591    0.0057649797
      4510.09      0.64676446    0.0057672422
      4514.60      0.66187212    0.0057696507
      4519.12      0.67347505    0.0057728218
      4523.63      0.68277800    0.0057761630
      4528.16      0.68879702    0.0056437636
      4532.69      0.69532941    0.0056427749
      4537.22      0.70194870    0.0056420735
      4541.76      0.70775017    0.0056416390
      4546.30      0.71080589    0.0056415185
      4550.85      0.71106695    0.0056417428
      4555.40      0.71184444    0.0057891404
      4559.95      0.71662342    0.0057900632
      4564.51      0.72108362    0.0057914439
      4569.08      0.72315041    0.0057932744
      4573.65      0.72423472    0.0057955569
      4578.22      0.72577817    0.0056729019
      4582.80      0.72818950    0.0056704873
      4587.38      0.73022155    0.0056684780
      4591.97      0.72961516    0.0056668227
      4596.56      0.72545755    0.0056655214
      4601.16      0.71847859    0.0056645709
      4605.76      0.71116004    0.0056639481
      4610.37      0.70432797    0.0056640390
      4614.98      0.69627149    0.0056647810
      4619.59      0.68650999    0.0058131279
      4624.21      0.67532083    0.0056972099
      4628.84      0.66502306    0.0056929472
      4633.47      0.65194166    0.0056892163
      4638.10      0.63783339    0.0056860465
      4642.74      0.62513608    0.0056834566
      4647.38      0.61389236    0.0056814965
      4652.03      0.60200468    0.0056801331
      4656.68      0.59036381    0.0056794869
      4661.34      0.58156280    0.0056794491
      4666.00      0.57549530    0.0056800773
      4670.67      0.57535405    0.0057121840
      4675.33      0.57427078    0.0057072070
      4680.01      0.57175585    0.0057028949
      4684.69      0.56729391    0.0056992880
      4689.38      0.56172495    0.0056963497
      4694.07      0.55674898    0.0056940814
      4698.76      0.55335738    0.0056924699
      4703.46      0.55044880    0.0056914759
      4708.16      0.54441647    0.0055778925
      4712.87      0.54021520    0.0055787184
      4717.58      0.53802964    0.0055801956
      4722.30      0.53362243    0.0057131229
      4727.03      0.53048499    0.0057086484
      4731.75      0.52850227    0.0057050588
      4736.48      0.52804463    0.0057023825
      4741.22      0.52946410    0.0057006147
      4745.96      0.53574947    0.0055856533
      4750.71      0.54052120    0.0055858781
      4755.46      0.54547827    0.0055869755
      4760.22      0.55044751    0.0055889592
      4764.97      0.55764979    0.0057171794
      4769.74      0.55978507    0.0057131341
      4774.51      0.56022037    0.0057101243
      4779.29      0.55934824    0.0055934470
      4784.07      0.56045687    0.0055926881
      4788.85      0.56109218    0.0055927904
      4793.64      0.56038108    0.0055939936
      4798.43      0.55969027    0.0055959571
      4803.23      0.55914228    0.0057214870
      4808.03      0.56196188    0.0057171699
      4812.84      0.56252254    0.0055990401
      4817.66      0.56847606    0.0055973922
      4822.48      0.57738499    0.0055968089
      4827.30      0.58820686    0.0055973209
      4832.12      0.59945254    0.0055989652
      4836.96      0.61026303    0.0056017828
      4841.79      0.62212670    0.0057210620
      4846.63      0.63734886    0.0056024503
      4851.48      0.64911522    0.0056007023
      4856.33      0.65875752    0.0056001640
      4861.19      0.66674668    0.0056008390
      4866.05      0.67392576    0.0056027513
      4870.92      0.68131984    0.0056059246
      4875.79      0.68934299    0.0056076101
      4880.66      0.69032053    0.0056045652
      4885.55      0.68957520    0.0056027118
      4890.43      0.68757199    0.0056025728
      4895.32      0.68255722    0.0056036795
      4900.22      0.67345729    0.0056060974
      4905.12      0.65978281    0.0054817657
      4910.02      0.65035751    0.0056068087
      4914.94      0.64016101    0.0056043255
      4919.85      0.62856386    0.0056033152
      4924.77      0.61681383    0.0056037888
      4929.70      0.60590585    0.0056058044
      4934.62      0.59838607    0.0054827001
      4939.56      0.59140377    0.0054787868
      4944.50      0.58181699    0.0056046866
      4949.44      0.57262963    0.0056036598
      4954.39      0.56559957    0.0056042599
      4959.35      0.56132903    0.0054881889
      4964.31      0.55643896    0.0054826951
      4969.27      0.55078310    0.0054787525
      4974.24      0.54344271    0.0056046068
      4979.22      0.53599606    0.0056037901
      4984.20      0.52840736    0.0056045244
      4989.18      0.51805977    0.0054857476
      4994.17      0.50928399    0.0054803106
      4999.16      0.50101236    0.0054765568
      5004.16      0.49308798    0.0056027048
      5009.17      0.48962545    0.0056023589
      5014.18      0.49120335    0.0054874596
      5019.19      0.49229182    0.0054809298
      5024.21      0.49456678    0.0054763043
      5029.23      0.49894161    0.0054735180
      5034.26      0.50565979    0.0056006304
      5039.30      0.51318936    0.0054885485
      5044.34      0.52026271    0.0054812790
      5049.39      0.52759539    0.0054759895
      5054.43      0.53430737    0.0054726577
      5059.49      0.54101868    0.0055992312
      5064.55      0.54405293    0.0054882255
      5069.61      0.54802876    0.0054801950
      5074.68      0.55206096    0.0054742872
      5079.76      0.55567850    0.0054705763
      5084.84      0.55823903    0.0053669240
      5089.92      0.56220085    0.0054856620
      5095.01      0.57100859    0.0054773146
      5100.11      0.58157549    0.0054712055
      5105.21      0.59272509    0.0054673144
      5110.31      0.60375673    0.0053637383
      5115.42      0.61433152    0.0054810758
      5120.54      0.62649162    0.0054729137
      5125.66      0.64010504    0.0054671624
      5130.79      0.65367837    0.0054637600
      5135.92      0.66729106    0.0053607709
      5141.05      0.68167023    0.0054756971
      5146.20      0.69352427    0.0054681149
      5151.34      0.70448711    0.0054630167
      5156.49      0.71301566    0.0053583628
      5161.65      0.71980148    0.0053582393
      5166.81      0.72544720    0.0054691858
      5171.98      0.73305895    0.0054621660
      5177.15      0.74400916    0.0053559012
      5182.33      0.75647598    0.0053543047
      5187.51      0.76946560    0.0053549927
      5192.70      0.78338052    0.0054608906
      5197.89      0.79550708    0.0054552578
      5203.09      0.80873636    0.0053505763
      5208.29      0.82023279    0.0053503754
      5213.50      0.83285658    0.0054595347
      5218.72      0.84444679    0.0054529143
      5223.93      0.85604730    0.0053473423
      5229.16      0.86713639    0.0053464877
      5234.39      0.87760995    0.0053481782
      5239.62      0.88827886    0.0054506563
      5244.86      0.89497705    0.0053442441
      5250.11      0.90277521    0.0053427473
      5255.36      0.91021392    0.0053439978
      5260.61      0.91367013    0.0054474190
      5265.87      0.91849669    0.0053404596
      5271.14      0.92708517    0.0053384683
      5276.41      0.93805815    0.0053392041
      5281.69      0.95013307    0.0053408948
      5286.97      0.95755227    0.0053358807
      5292.26      0.96519252    0.0053337109
      5297.55      0.97412959    0.0053344214
      5302.85      0.98272522    0.0052243926
      5308.15      0.98849341    0.0053311677
      5313.46      0.99261906    0.0053291918
      5318.77      0.99667815    0.0053302095
      5324.09       1.0007339    0.0052196762
      5329.42       1.0058467    0.0053265981
      5334.75       1.0106713    0.0053249552
      5340.08       1.0160352    0.0053263828
      5345.42       1.0224381    0.0052144751
      5350.77       1.0308041    0.0053216180
      5356.12       1.0411583    0.0053203712
      5361.48       1.0531866    0.0052149744
      5366.83       1.0636949    0.0052084651
      5372.20       1.0789551    0.0053160199
      5377.58       1.0944666    0.0053155863
      5382.95       1.1089970    0.0052077228
      5388.34       1.1222171    0.0052019969
      5393.72       1.1378349    0.0053103342
      5399.12       1.1536769    0.0052082368
      5404.52       1.1686277    0.0052004385
      5409.92       1.1824761    0.0053067318
      5415.33       1.1975193    0.0053054639
      5420.75       1.2164886    0.0052000560
      5426.17       1.2317556    0.0051936018
      5431.60       1.2462127    0.0053011681
      5437.03       1.2575422    0.0052004081
      5442.47       1.2624407    0.0051920649
      5447.91       1.2643300    0.0051871105
      5453.36       1.2610865    0.0052009187
      5458.81       1.2541700    0.0051904943
      5464.27       1.2445728    0.0051837004
      5469.73       1.2296537    0.0052909310
      5475.20       1.2097605    0.0051892602
      5480.68       1.1969069    0.0051808300
      5486.16       1.1849482    0.0051761210
      5491.65       1.1660954    0.0051883860
      5497.14       1.1563075    0.0051785048
      5502.64       1.1514573    0.0051724860
      5508.14       1.1519638    0.0051878205
      5513.65       1.1575593    0.0051765685
      5519.16       1.1672171    0.0051692845
      5524.68       1.1822718    0.0050758020
      5530.20       1.2005387    0.0051746701
      5535.73       1.2153354    0.0051662546
      5541.27       1.2306489    0.0051617474
      5546.81       1.2493735    0.0051722610
      5552.36       1.2623040    0.0051625784
      5557.91       1.2736006    0.0051570366
      5563.47       1.2822325    0.0050656399
      5569.04       1.2897048    0.0051587864
      5574.60       1.2967001    0.0051524437
      5580.18       1.3033568    0.0050605241
      5585.76       1.3093959    0.0051549831
      5591.35       1.3110618    0.0051480705
      5596.94       1.3064571    0.0050557554
      5602.53       1.3013381    0.0051512220
      5608.14       1.2961753    0.0051438542
      5613.75       1.2870947    0.0050512442
      5619.36       1.2791042    0.0051472925
      5624.98       1.2692481    0.0051396537
      5630.60       1.2576941    0.0050468814
      5636.23       1.2475979    0.0051428361
      5641.87       1.2381148    0.0050448571
      5647.51       1.2256707    0.0050416795
      5653.16       1.2115975    0.0050426385
      5658.82       1.1922908    0.0050397095
      5664.47       1.1744180    0.0050366333
      5670.14       1.1555795    0.0050378012
      5675.81       1.1350179    0.0050345913
      5681.48       1.1220355    0.0050318415
      5687.17       1.1091927    0.0050334344
      5692.85       1.0947980    0.0050296538
      5698.55       1.0810460    0.0050273391
      5704.25       1.0672978    0.0050294626
      5709.95       1.0553904    0.0050247431
      5715.66       1.0482849    0.0050230860
      5721.38       1.0449646    0.0049287268
      5727.10       1.0452320    0.0050201986
      5732.83       1.0457399    0.0050194011
      5738.56       1.0516969    0.0049239805
      5744.30       1.0605709    0.0050164398
      5750.04       1.0646969    0.0050165320
      5755.79       1.0683928    0.0050172650
      5761.55       1.0712860    0.0050151707
      5767.31       1.0755072    0.0050188286
      5773.08       1.0819232    0.0050227363
      5778.85       1.0872593    0.0050233484
      5784.63       1.0959672    0.0049359493
      5790.41       1.1086017    0.0050323925
      5796.21       1.1169610    0.0050345701
      5802.00       1.1228539    0.0049410250
      5807.81       1.1268218    0.0050356058
      5813.61       1.1329190    0.0049456782
      5819.43       1.1393664    0.0049377736
      5825.25       1.1477136    0.0050308444
      5831.07       1.1541609    0.0049359113
      5836.90       1.1594055    0.0049288347
      5842.74       1.1648068    0.0050238127
      5848.58       1.1652080    0.0049264604
      5854.43       1.1643471    0.0050169077
      5860.29       1.1645492    0.0049234518
      5866.15       1.1621781    0.0049139030
      5872.01       1.1579730    0.0050050848
      5877.89       1.1532432    0.0049079531
      5883.76       1.1476177    0.0049003270
      5889.65       1.1390363    0.0049019482
      5895.54       1.1335697    0.0048916207
      5901.43       1.1281966    0.0049007480
      5907.34       1.1177625    0.0048877789
      5913.24       1.1065255    0.0048799055
      5919.16       1.0956582    0.0048841839
      5925.08       1.0875341    0.0048743619
      5931.00       1.0813653    0.0048846350
      5936.93       1.0738873    0.0048724520
      5942.87       1.0646323    0.0048661172
      5948.81       1.0532747    0.0048727825
      5954.76       1.0450709    0.0048639945
      5960.72       1.0359000    0.0047815838
      5966.68       1.0287841    0.0048633003
      5972.64       1.0219890    0.0047785484
      5978.62       1.0166477    0.0048640254
      5984.60       1.0135479    0.0048561127
      5990.58       1.0116556    0.0047749630
      5996.57       1.0072017    0.0048556238
      6002.57       1.0031642    0.0047720629
      6008.57       1.0024372    0.0048556556
      6014.58       1.0002858    0.0047695972
      6020.60      0.99981058    0.0047686242
      6026.62       1.0003103    0.0048469999
      6032.65       1.0062987    0.0047650199
      6038.68       1.0138273    0.0048462304
      6044.72       1.0207356    0.0047622418
      6050.76       1.0257329    0.0048462996
      6056.81       1.0321834    0.0047602279
      6062.87       1.0371564    0.0047594111
      6068.93       1.0448399    0.0048379376
      6075.00       1.0528408    0.0047563927
      6081.08       1.0584047    0.0048373270
      6087.16       1.0629454    0.0047541174
      6093.25       1.0658235    0.0047557218
      6099.34       1.0683292    0.0047521038
      6105.44       1.0665683    0.0047521773
      6111.54       1.0578524    0.0047524650
      6117.66       1.0471611    0.0047529924
      6123.78       1.0343232    0.0047538067
      6129.90       1.0227309    0.0047505127
      6136.03       1.0068998    0.0047561082
      6142.17      0.99382021    0.0047555547
      6148.31      0.98111180    0.0047624609
      6154.46      0.96518189    0.0047720522
      6160.61      0.95300942    0.0047805793
      6166.77      0.94149692    0.0047943338
      6172.94      0.93311596    0.0048011961
      6179.11      0.92538489    0.0048120323
      6185.29      0.92120694    0.0048140364
      6191.48      0.92009738    0.0047283069
      6197.67      0.91829650    0.0048113415
      6203.87      0.91794564    0.0047187829
      6210.07      0.92057692    0.0047942151
      6216.28      0.92575334    0.0046999507
      6222.50      0.93190992    0.0047732354
      6228.72      0.93334888    0.0046844092
      6234.95      0.93460175    0.0047616551
      6241.19      0.93863157    0.0046760606
      6247.42      0.94320964    0.0047491124
      6253.67      0.94658953    0.0046661765
      6259.93      0.95153057    0.0047411783
      6266.19      0.95794513    0.0046596235
      6272.46      0.96446055    0.0046511977
      6278.73      0.97213492    0.0046548384
      6285.01      0.98091175    0.0046463042
      6291.29      0.99161136    0.0046512308
      6297.58      0.99939225    0.0046428022
      6303.88       1.0060440    0.0046492177
      6310.19       1.0154167    0.0046409841
      6316.50       1.0267992    0.0046484289
      6322.81       1.0369282    0.0046402254
      6329.14       1.0480565    0.0046494080
      6335.47       1.0563794    0.0046422613
      6341.80       1.0624110    0.0046546103
      6348.14       1.0712649    0.0046490827
      6354.49       1.0818623    0.0046622492
      6360.85       1.0903482    0.0046557957
      6367.21       1.0965453    0.0046675390
      6373.57       1.1042508    0.0046608151
      6379.95       1.1141056    0.0046706243
      6386.33       1.1228704    0.0046626532
      6392.72       1.1317839    0.0046687972
      6399.11       1.1403428    0.0046597448
      6405.51       1.1495771    0.0046642032
      6411.92       1.1559323    0.0046553478
      6418.32       1.1600973    0.0046603536
      6424.74       1.1671776    0.0046527973
      6431.17       1.1769289    0.0046585709
      6437.60       1.1829176    0.0045800742
      6444.04       1.1866559    0.0046552074
      6450.48       1.1898448    0.0045767289
      6456.94       1.1934531    0.0046503432
      6463.39       1.1981266    0.0045729033
      6469.85       1.2039269    0.0046469264
      6476.33       1.2063698    0.0045699700
      6482.80       1.2071282    0.0046410656
      6489.28       1.2122193    0.0045654872
      6495.77       1.2172173    0.0046373343
      6502.27       1.2203227    0.0045639760
      6508.77       1.2223962    0.0045652667
      6515.28       1.2258031    0.0045640968
      6521.80       1.2299688    0.0045650274
      6528.32       1.2320982    0.0045652092
      6534.85       1.2343539    0.0045653312
      6541.38       1.2364614    0.0045667378
      6547.92       1.2400239    0.0045660961
      6554.47       1.2392027    0.0045689321
      6561.03       1.2349490    0.0045672496
      6567.59       1.2316813    0.0045706135
      6574.16       1.2298436    0.0045685091
      6580.73       1.2259114    0.0045706385
      6587.31       1.2216295    0.0045701487
      6593.90       1.2154217    0.0045712327
      6600.50       1.2138619    0.0045724336
      6607.10       1.2156965    0.0045723428
      6613.70       1.2142324    0.0045000681
      6620.32       1.2118451    0.0045740707
      6626.94       1.2113455    0.0045005121
      6633.57       1.2102592    0.0045764287
      6640.20       1.2114384    0.0045787495
      6646.84       1.2094224    0.0045083124
      6653.49       1.2070712    0.0045803617
      6660.14       1.2045834    0.0045082884
      6666.80       1.2014624    0.0045822715
      6673.47       1.1970154    0.0045086022
      6680.14       1.1914784    0.0045851759
      6686.82       1.1860655    0.0045156226
      6693.51       1.1827194    0.0045405387
      6700.20       1.1768265    0.0046241759
      6706.90       1.1697797    0.0045403594
      6713.61       1.1629193    0.0046233131
      6720.32       1.1579131    0.0045752688
      6727.05       1.1516127    0.0046388927
      6733.77       1.1427642    0.0046689117
      6740.51       1.1314410    0.0047602838
      6747.25       1.1232802    0.0049028581
      6754.00       1.1115807    0.0048988330
      6760.75       1.0972738    0.0049818538
      6767.51       1.0872045    0.0050029088
      6774.28       1.0744892    0.0050329062
      6781.05       1.0654033    0.0049440335
      6787.84       1.0573543    0.0049948719
      6794.62       1.0510096    0.0049376613
      6801.42       1.0458704    0.0048944081
      6808.22       1.0437007    0.0048284851
      6815.03       1.0451952    0.0047226135
      6821.85       1.0485752    0.0047708894
      6828.67       1.0519244    0.0047421723
      6835.50       1.0564923    0.0046385807
      6842.33       1.0631476    0.0046876385
      6849.17       1.0685047    0.0046049935
      6856.02       1.0727511    0.0046604858
      6862.88       1.0791091    0.0046519434
      6869.74       1.0868027    0.0045757175
      6876.61       1.0919129    0.0046411722
      6883.49       1.0943404    0.0045733406
      6890.37       1.0960662    0.0045748742
      6897.27       1.0983827    0.0046472315
      6904.16       1.0981222    0.0045773029
      6911.07       1.0988088    0.0045769757
      6917.98       1.0971601    0.0046443540
      6924.89       1.0920053    0.0045711491
      6931.82       1.0851317    0.0045699366
      6938.75       1.0789598    0.0045691024
      6945.69       1.0711148    0.0045670639
      6952.64       1.0612268    0.0045675304
      6959.59       1.0530748    0.0045659237
      6966.55       1.0436211    0.0045659428
      6973.52       1.0324702    0.0045703638
      6980.49       1.0230361    0.0045704295
      6987.47       1.0139089    0.0045787247
      6994.46       1.0063954    0.0045163022
      7001.46       1.0002095    0.0045941927
      7008.46      0.99160446    0.0046073685
      7015.46      0.98597991    0.0045525820
      7022.48      0.98158751    0.0046401256
      7029.51      0.97996249    0.0046790250
      7036.53      0.97949865    0.0046567522
      7043.57      0.98081439    0.0047698133
      7050.62      0.98302822    0.0048420702
      7057.66      0.98776764    0.0048139427
      7064.72      0.99431900    0.0049259308
      7071.79       1.0036866    0.0049601573
      7078.86       1.0163720    0.0048937120
      7085.94       1.0279039    0.0049809631
      7093.03       1.0404389    0.0049797600
      7100.12       1.0504349    0.0048947818
      7107.22       1.0598599    0.0049647543
      7114.33       1.0700278    0.0048835634
      7121.44       1.0797080    0.0048929509
      7128.56       1.0865608    0.0049108130
      7135.69       1.0901749    0.0049095037
      7142.83       1.0905234    0.0049206940
      7149.97       1.0894174    0.0049241495
      7157.12       1.0875300    0.0049861289
      7164.28       1.0818472    0.0048951426
      7171.44       1.0722984    0.0048786526
      7178.62       1.0629708    0.0049429796
      7185.80       1.0548745    0.0048502590
      7192.98       1.0489205    0.0048317475
      7200.17       1.0460190    0.0048113990
      7207.38       1.0454194    0.0047905402
      7214.58       1.0459303    0.0047708986
      7221.80       1.0476324    0.0047586210
      7229.02       1.0529352    0.0046784540
      7236.25       1.0588953    0.0047341920
      7243.49       1.0693339    0.0047314293
      7250.73       1.0782381    0.0046597750
      7257.98       1.0871890    0.0047234982
      7265.24       1.0967319    0.0047237512
      7272.51       1.1058685    0.0047249275
      7279.78       1.1108148    0.0046535178
      7287.06       1.1160705    0.0047182372
      7294.35       1.1189449    0.0047226417
      7301.64       1.1176293    0.0046568319
      7308.94       1.1157309    0.0046608887
      7316.25       1.1141503    0.0047302792
      7323.57       1.1129420    0.0046684770
      7330.89       1.1118784    0.0046731322
      7338.22       1.1097741    0.0046804194
      7345.56       1.1042578    0.0047524403
      7352.91       1.0986833    0.0046910742
      7360.26       1.0931768    0.0046983750
      7367.62       1.0865180    0.0047076101
      7374.99       1.0767682    0.0047814840
      7382.37       1.0633776    0.0047202762
      7389.75       1.0468461    0.0047326568
      7397.14       1.0288799    0.0047714156
      7404.53       1.0092247    0.0048066931
      7411.94      0.98715064    0.0048777000
      7419.35      0.95892352    0.0048928708
      7426.77      0.92777173    0.0048933444
      7434.20      0.89769248    0.0049015802
      7441.63      0.86545327    0.0050696191
      7449.07      0.83421179    0.0053024147
      7456.52      0.80322321    0.0056307415
      7463.98      0.77462852    0.0058796956
      7471.45      0.74638595    0.0062615381
      7478.92      0.71980635    0.0067260386
      7486.40      0.69391107    0.0071509154
      7493.88      0.67512170    0.0072159828
      7501.38      0.65926878    0.0073220843
      7508.88      0.64974577    0.0074355407
      7516.39      0.64691506    0.0071582813
      7523.91      0.65063675    0.0067101543
      7531.43      0.66020201    0.0063054986
      7538.96      0.67776078    0.0059329309
      7546.50      0.69605876    0.0058038296
      7554.05      0.71786280    0.0055366678
      7561.60      0.74220511    0.0053385555
      7569.16      0.76861987    0.0051916800
      7576.73      0.79499374    0.0051248310
      7584.31      0.82072973    0.0051348748
      7591.89      0.84765337    0.0050431637
      7599.49      0.87407634    0.0050054216
      7607.09      0.90129349    0.0049821662
      7614.70      0.92720898    0.0049727256
      7622.31      0.95265698    0.0049618513
      7629.93      0.97812421    0.0049634780
      7637.56       1.0025108    0.0049711353
      7645.20       1.0252228    0.0049823493
      7652.85       1.0474635    0.0049961215
      7660.50       1.0681100    0.0049329972
      7668.16       1.0875180    0.0050072398
      7675.83       1.1063519    0.0050213574
      7683.50       1.1232081    0.0050363344
      7691.19       1.1366730    0.0050525299
      7698.88       1.1501032    0.0049910691
      7706.58       1.1613609    0.0050048186
      7714.29       1.1718648    0.0050818582
      7722.00       1.1785316    0.0050996118
      7729.73       1.1859796    0.0051190815
      7737.45       1.1948734    0.0050612954
      7745.19       1.2007331    0.0050800840
      7752.94       1.2083919    0.0051002727
      7760.69       1.2168824    0.0051826176
      7768.45       1.2275769    0.0052012704
      7776.22       1.2373649    0.0051430186
      7784.00       1.2474596    0.0051571202
      7791.78       1.2573626    0.0051713790
      7799.57       1.2698242    0.0051858835
      7807.37       1.2800213    0.0052007517
      7815.18       1.2891143    0.0052804660
      7822.99       1.2966166    0.0052226642
      7830.82       1.3038120    0.0052374498
      7838.65       1.3100598    0.0052540509
      7846.49       1.3154427    0.0052711662
      7854.34       1.3175665    0.0052886879
      7862.19       1.3175173    0.0053068044
      7870.05       1.3139117    0.0052462634
      7877.93       1.3101702    0.0053308080
      7885.80       1.3040652    0.0053446982
      7893.69       1.2939643    0.0053593447
      7901.58       1.2839010    0.0053753039
      7909.49       1.2720511    0.0053911105
      7917.40       1.2584140    0.0053277331
      7925.31       1.2420339    0.0053457454
      7933.24       1.2262735    0.0053667972
      7941.17       1.2098300    0.0053920773
      7949.11       1.1951565    0.0054849821
      7957.06       1.1793300    0.0055180668
      7965.02       1.1651475    0.0055567159
      7972.98       1.1521148    0.0055173407
      7980.96       1.1391209    0.0055763113
      7988.94       1.1262714    0.0056452226
      7996.93       1.1116255    0.0057198214
      8004.93       1.0933778    0.0058007392
      8012.93       1.0713512    0.0058857771
      8020.95       1.0478112    0.0059579934
      8028.97       1.0214308    0.0060015797
      8036.99      0.99191988    0.0060066886
      8045.03      0.95854958    0.0060325469
      8053.08      0.92416560    0.0060526904
      8061.13      0.88414198    0.0060664375
      8069.20      0.84133177    0.0060757582
      8077.26      0.79582979    0.0060799716
      8085.34      0.74843410    0.0060817404
      8093.43      0.70264726    0.0060868772
      8101.52      0.65758077    0.0060978101
      8109.62      0.61545600    0.0060219134
      8117.73      0.57392468    0.0060270574
      8125.85      0.53543705    0.0060300282
      8133.98      0.50005793    0.0060310029
      8142.11      0.46844432    0.0060304999
      8150.25      0.43871698    0.0060291704
      8158.41      0.41230329    0.0061106037
      8166.56      0.39036388    0.0061342083
      8174.73      0.37334287    0.0061471465
      8182.91      0.35953445    0.0061348165
      8191.09      0.35234491    0.0061226448
      8199.28      0.34898262    0.0060415977
      8207.48      0.35029510    0.0060362660
      8215.69      0.35470556    0.0060343022
      8223.91      0.36578102    0.0060369358
      8232.13      0.37940199    0.0060381213
      8240.36      0.39411156    0.0060401601
      8248.60      0.41141097    0.0060458802
      8256.85      0.42853842    0.0060560659
      8265.11      0.44694917    0.0060691344
      8273.37      0.46431481    0.0060819407
      8281.65      0.48256095    0.0060964626
      8289.93      0.50005541    0.0061124088
      8298.22      0.51570153    0.0061307652
      8306.52      0.53109802    0.0061500879
      8314.83      0.54836050    0.0060842193
      8323.14      0.56355854    0.0061051295
      8331.46      0.58054241    0.0061265243
      8339.80      0.60136809    0.0061488518
      8348.13      0.62558333    0.0061724376
      8356.48      0.65314782    0.0061964492
      8364.84      0.68460418    0.0062201786
      8373.21      0.72148863    0.0062443119
      8381.58      0.76295261    0.0062684553
      8389.96      0.80867363    0.0062917758
      8398.35      0.85693630    0.0063147001
      8406.75      0.90636702    0.0063374629
      8415.16      0.95874846    0.0063600756
      8423.57       1.0116889    0.0063828801
      8432.00       1.0651665    0.0064061985
      8440.43       1.1193918    0.0064298859
      8448.87       1.1714101    0.0064531501
      8457.32       1.2197643    0.0064764993
      8465.78       1.2677813    0.0065007897
      8474.25       1.3133831    0.0065263429
      8482.72       1.3541738    0.0065528163
      8491.20       1.3929903    0.0065792659
      8499.69       1.4295324    0.0066057636
      8508.19       1.4620509    0.0066325709
      8516.70       1.4932017    0.0066593794
      8525.22       1.5205004    0.0066859378
      8533.75       1.5478484    0.0067122848
      8542.28       1.5713469    0.0067383846
      8550.82       1.5965072    0.0067643848
      8559.37       1.6181033    0.0067901776
      8567.93       1.6343842    0.0068161561
      8576.50       1.6478014    0.0068426304
      8585.08       1.6565848    0.0068696765
      8593.66       1.6620876    0.0068974033
      8602.26       1.6618978    0.0069257685
      8610.86       1.6574454    0.0068796436
      8619.47       1.6495684    0.0069080189
      8628.09       1.6383455    0.0069372227
      8636.72       1.6243107    0.0069665280
      8645.36       1.6071901    0.0069959443
      8654.00       1.5883006    0.0070256694
      8662.66       1.5682058    0.0070557073
      8671.32       1.5454886    0.0070862047
      8679.99       1.5218333    0.0071170290
      8688.67       1.4953871    0.0071483476
      8697.36       1.4715441    0.0071806755
      8706.06       1.4429947    0.0072137463
      8714.76       1.4141479    0.0072476824
      8723.48       1.3812462    0.0072848365
      8732.21       1.3444305    0.0073255282
      8740.93       1.3048730    0.0072871952
      8749.68       1.2638490    0.0073333219
      8758.43       1.2239443    0.0073914720
      8767.19       1.1842237    0.0074569558
      8775.96       1.1444654    0.0075346873
      8784.73       1.1054962    0.0076309268
      8793.52       1.0662208    0.0078664940
      8802.31       1.0337468    0.0079968230
      8811.11       1.0040048    0.0081374120
      8819.92      0.98090405    0.0082839699
      8828.75      0.96755470    0.0083585237
      8837.57      0.95959801    0.0084669704
      8846.41      0.95500960    0.0085424963
      8855.26      0.95192204    0.0085814825
      8864.12      0.94838518    0.0085928688
      8872.98      0.94220718    0.0085879938
      8881.85      0.93402925    0.0085781511
      8890.73      0.92575233    0.0085812978
      8899.63      0.91979196    0.0086040941
      8908.52      0.91063103    0.0085547861
      8917.43      0.90295234    0.0087305201
      8926.35      0.89517501    0.0088104645
      8935.28      0.88090056    0.0088889454
      8944.22      0.86680435    0.0089685408
      8953.16      0.85136337    0.0090413662
      8962.11      0.83986508    0.0090992847
      8971.08      0.83143915    0.0090478042
      8980.05      0.83348515    0.0090838157
      8989.03      0.84318641    0.0091146256
      8998.02      0.86575861    0.0090381256
      9007.02      0.89055355    0.0090530743
      9016.02      0.91102748    0.0088408286
      9025.04      0.92874406    0.0088321483
      9034.07      0.94325691    0.0088204270
      9043.10      0.95068764    0.0087285080
      9052.14      0.96623230    0.0087237385
      9061.20      0.98519249    0.0085705262
      9070.26       1.0009274    0.0085994731
      9079.33       1.0177503    0.0085743687
      9088.41       1.0379354    0.0086526191
      9097.50       1.0545386    0.0087120720
      9106.60       1.0719201    0.0087515113
      9115.70       1.0904261    0.0089508675
      9124.82       1.1046210    0.0092285035
      9133.94       1.1168950    0.0096146282
      9143.08       1.1267596     0.010005010
      9152.22       1.1355492     0.010223895
      9161.37       1.1458086     0.010631724
      9170.54       1.1613756     0.011014122
      9179.71       1.1804759     0.011407423
      9188.89       1.1951954     0.011691972
      9198.08       1.2028052     0.011750498
      9207.28       1.2156772     0.011862642
      9216.48       1.2178210     0.011920317
      9225.70       1.2194453     0.011984879
      9234.92       1.2108669     0.011875534
      9244.16       1.2035542     0.011867642
      9253.40       1.1903317     0.011645135
      9262.66       1.1743793     0.011618969
      9271.92       1.1560231     0.011522297
      9281.20       1.1471884     0.011502314
      9290.48       1.1379611     0.011421252
      9299.77       1.1274149     0.011479290
      9309.07       1.1168049     0.011342841
      9318.38       1.1036339     0.011302885
      9327.69       1.0990517     0.011346753
      9337.02       1.0977160     0.011282414
      9346.36       1.0912698     0.011261509
      9355.71       1.0826294     0.011133933
      9365.07       1.0789420     0.010921918
      9374.43       1.0806053     0.010845583
      9383.80       1.0803225     0.010659700
      9393.19       1.0746133     0.010570621
      9402.58       1.0678009     0.010424375
      9411.98       1.0619228     0.010374498
      9421.40       1.0596351     0.010183155
      9430.82       1.0620874     0.010040210
      9440.25       1.0616330     0.010155258
      9449.69       1.0590968     0.010278282
      9459.14       1.0549327     0.010415081
      9468.60       1.0506652     0.010581059
      9478.07       1.0462339     0.010783789
      9487.55       1.0403888     0.011099885
      9497.04       1.0353224     0.011463668
      9506.53       1.0294054     0.011939908
      9516.04       1.0226405     0.012567236
      9525.56       1.0156875     0.013367352
      9535.08       1.0042029     0.014434206
      9544.62      0.99361056     0.015894967
      9554.16      0.98205886     0.017306787
      9563.72      0.97099243     0.019522594
      9573.29      0.96280104     0.022446773
      9582.85      0.95740443     0.026231307
      9592.44      0.95226824     0.030915369
