# starting wavelength =        3646.7900
# ending wavelength =        8940.1300
# O2 telluric scale =        0
# O2 telluric shift =        0
# H2O telluric scale =        0
# H2O telluric shift =        0
      3648.86       2.0223523     0.067265668
      3652.50       1.8949531     0.058063541
      3656.16       1.7747428     0.045995703
      3659.81       1.6631488     0.043098915
      3663.47       1.5582820     0.035711008
      3667.14       1.4550917     0.034034933
      3670.80       1.3638472     0.029552905
      3674.48       1.2906045     0.028521748
      3678.15       1.2279566     0.025807818
      3681.83       1.1686664     0.025113026
      3685.51       1.1090740     0.024014841
      3689.20       1.0512405     0.022761557
      3692.88       1.0058720     0.022291994
      3696.58      0.98299617     0.021478480
      3700.27      0.96016358     0.021079115
      3703.98      0.93665131     0.020520969
      3707.68      0.92710559     0.020166483
      3711.39      0.92472875     0.019766168
      3715.10      0.92023457     0.019442780
      3718.81      0.92285650     0.019691473
      3722.53      0.93668033     0.019624422
      3726.26      0.94072272     0.019557773
      3729.98      0.94118716     0.019491482
      3733.71      0.94948164     0.019425514
      3737.45      0.97852480     0.019359857
      3741.18       1.0045988     0.019294476
      3744.93       1.0194890     0.019229754
      3748.67       1.0362462     0.019165380
      3752.42       1.0538275     0.019101723
      3756.17       1.0721209     0.019333175
      3759.93       1.0824749     0.019269085
      3763.69       1.0992019     0.019205198
      3767.45       1.1293357     0.019141502
      3771.22       1.1621326     0.019078019
      3774.99       1.1848069     0.019014754
      3778.77       1.2064077     0.018951714
      3782.54       1.2244655     0.018888925
      3786.33       1.2463612     0.018826349
      3790.11       1.2767486     0.018764005
      3793.90       1.3084857     0.018701919
      3797.70       1.3360122     0.018962397
      3801.50       1.3736461     0.018896655
      3805.30       1.4225890     0.018831233
      3809.10       1.4719593     0.018766161
      3812.91       1.5169340     0.018701413
      3816.73       1.5648766     0.018636982
      3820.54       1.6190595     0.018572910
      3824.36       1.6812621     0.018509068
      3828.19       1.7491317     0.018716266
      3832.02       1.8140877     0.018654600
      3835.85       1.8846379     0.018593145
      3839.68       1.9501448     0.018531782
      3843.52       2.0066773     0.018774851
      3847.37       2.0696574     0.018710566
      3851.22       2.1368668     0.018646490
      3855.07       2.2020883     0.018582601
      3858.92       2.2618966     0.018518877
      3862.78       2.3147311     0.018455291
      3866.64       2.3640807     0.018391826
      3870.51       2.4176200     0.018328449
      3874.38       2.4657343     0.018265138
      3878.26       2.5016170     0.018201874
      3882.13       2.5392554     0.018139133
      3886.02       2.5663637     0.018076562
      3889.90       2.5998616     0.018014156
      3893.79       2.6320624     0.017951912
      3897.69       2.6553696     0.018198515
      3901.59       2.6713277     0.018135553
      3905.49       2.6862089     0.018072748
      3909.39       2.7059185     0.018010529
      3913.30       2.7239752     0.017948261
      3917.22       2.7401857     0.017885991
      3921.13       2.7503554     0.018119044
      3925.06       2.7476963     0.018055809
      3928.98       2.7420332     0.017992667
      3932.91       2.7376519     0.017929623
      3936.84       2.7253732     0.017866708
      3940.78       2.7061918     0.017803958
      3944.72       2.6919402     0.017741365
      3948.67       2.6785730     0.017678955
      3952.61       2.6605786     0.017616751
      3956.57       2.6423959     0.017554736
      3960.52       2.6269073     0.017492930
      3964.48       2.6115130     0.017750257
      3968.45       2.5895003     0.017687755
      3972.42       2.5622072     0.017625490
      3976.39       2.5388117     0.017563416
      3980.37       2.5193105     0.017816085
      3984.35       2.4905909     0.017753333
      3988.33       2.4678328     0.017690754
      3992.32       2.4472711     0.017628449
      3996.31       2.4196199     0.017566109
      4000.31       2.4038246     0.017503977
      4004.31       2.3855931     0.017441977
      4008.31       2.3616334     0.017380059
      4012.32       2.3375864     0.017318191
      4016.33       2.3153530     0.017256350
      4020.35       2.2910563     0.017195196
      4024.37       2.2676547     0.017134262
      4028.40       2.2446124     0.017073582
      4032.42       2.2172910     0.017334105
      4036.46       2.1968900     0.017269135
      4040.50       2.1728670     0.017204338
      4044.54       2.1499322     0.017139739
      4048.58       2.1317841     0.017075408
      4052.63       2.1144602     0.017376026
      4056.68       2.0986282     0.017315217
      4060.74       2.0866658     0.017255348
      4064.80       2.0787219     0.017195571
      4068.86       2.0667157     0.017135954
      4072.93       2.0575425     0.017380384
      4077.01       2.0495243     0.017314409
      4081.08       2.0405669     0.017248761
      4085.17       2.0392521     0.017183418
      4089.25       2.0419335     0.017118495
      4093.34       2.0413459     0.017054011
      4097.43       2.0379632     0.016990003
      4101.53       2.0293833     0.016926507
      4105.63       2.0136259     0.016863731
      4109.74       1.9989471     0.017164389
      4113.85       1.9956429     0.017101240
      4117.96       1.9907502     0.017038571
      4122.08       1.9829531     0.016976568
      4126.20       1.9687898     0.016915154
      4130.33       1.9571051     0.016854305
      4134.46       1.9469392     0.016794013
      4138.59       1.9417666     0.016734227
      4142.73       1.9454422     0.016674948
      4146.88       1.9488220     0.016973047
      4151.02       1.9505047     0.016903503
      4155.18       1.9522884     0.016834685
      4159.33       1.9659990     0.016766685
      4163.49       1.9766110     0.016699404
      4167.65       1.9841664     0.016632825
      4171.82       2.0013222     0.016567312
      4175.99       2.0166407     0.016899132
      4180.17       2.0151493     0.016833365
      4184.35       2.0143762     0.016768567
      4188.54       2.0174174     0.016704789
      4192.72       2.0234848     0.016642047
      4196.92       2.0287236     0.016580356
      4201.11       2.0271747     0.016519764
      4205.31       2.0259212     0.016460290
      4209.52       2.0223063     0.016401986
      4213.73       2.0179959     0.016345654
      4217.94       2.0150864     0.015877671
      4222.16       2.0129438     0.015810573
      4226.38       2.0049805     0.015744516
      4230.61       1.9877711     0.015679599
      4234.84       1.9674026     0.015615876
      4239.08       1.9504477     0.015553455
      4243.32       1.9321409     0.015863963
      4247.56       1.9153387     0.015802579
      4251.81       1.8967419     0.015742728
      4256.06       1.8712629     0.015684489
      4260.32       1.8449767     0.015627841
      4264.58       1.8245718     0.015202296
      4268.84       1.8033412     0.015134937
      4273.11       1.7801963     0.015069109
      4277.38       1.7545781     0.015004621
      4281.66       1.7266170     0.014941515
      4285.94       1.6970540     0.014879778
      4290.23       1.6646484     0.014819298
      4294.52       1.6306868     0.014760011
      4298.81       1.5986769     0.014703017
      4303.11       1.5598475     0.014998352
      4307.42       1.5230688     0.014604278
      4311.72       1.4958258     0.014535866
      4316.04       1.4735781     0.014469279
      4320.35       1.4584469     0.014404558
      4324.67       1.4486654     0.014341582
      4329.00       1.4389512     0.014280437
      4333.33       1.4262436     0.014221148
      4337.66       1.4175381     0.014163679
      4342.00       1.4116731     0.014108080
      4346.34       1.4148580     0.013745820
      4350.69       1.4156819     0.014010596
      4355.04       1.4190970     0.013944035
      4359.39       1.4310676     0.013879181
      4363.75       1.4458885     0.013816210
      4368.12       1.4618336     0.013755242
      4372.48       1.4810062     0.013696259
      4376.86       1.5037321     0.013639364
      4381.23       1.5280229     0.013286216
      4385.61       1.5515111     0.013234967
      4390.00       1.5776483     0.013185736
      4394.39       1.6117813     0.013422527
      4398.79       1.6440999     0.013359008
      4403.18       1.6754911     0.013298035
      4407.59       1.7001181     0.013239479
      4412.00       1.7194495     0.013183366
      4416.41       1.7371900     0.012840896
      4420.82       1.7577483     0.012790859
      4425.25       1.7794532     0.012742929
      4429.67       1.8018065     0.012697116
      4434.10       1.8164530     0.012911441
      4438.54       1.8378550     0.012850667
      4442.97       1.8665278     0.012793015
      4447.42       1.8942531     0.012457548
      4451.86       1.9151810     0.012406749
      4456.32       1.9375453     0.012358288
      4460.77       1.9584323     0.012312215
      4465.24       1.9756496     0.012268561
      4469.70       1.9924212     0.012468792
      4474.17       2.0075624     0.012410887
      4478.65       2.0274265     0.012083465
      4483.12       2.0510206     0.012032964
      4487.61       2.0710622     0.011985016
      4492.09       2.0902923     0.011939643
      4496.59       2.1084499     0.011897376
      4501.08       2.1253109     0.011857469
      4505.58       2.1482842     0.011770031
      4510.09       2.1666796     0.011717801
      4514.60       2.1827251     0.011668289
      4519.12       2.2001921     0.011621535
      4523.63       2.2163294     0.011577574
      4528.16       2.2317942     0.011536476
      4532.69       2.2435990     0.011498319
      4537.22       2.2492344     0.011408634
      4541.76       2.2504024     0.011358805
      4546.30       2.2492293     0.011311990
      4550.85       2.2457416     0.011268183
      4555.40       2.2398890     0.011227393
      4559.95       2.2345380     0.011189615
      4564.51       2.2296595     0.010873633
      4569.08       2.2217230     0.011058244
      4573.65       2.2131978     0.011011482
      4578.22       2.2056513     0.010967676
      4582.80       2.1948093     0.010926827
      4587.38       2.1841766     0.010633641
      4591.97       2.1793147     0.010582987
      4596.56       2.1739079     0.010535385
      4601.16       2.1644241     0.010716160
      4605.76       2.1544879     0.010673649
      4610.37       2.1417117     0.010634449
      4614.98       2.1236251     0.010347338
      4619.59       2.1068009     0.010298031
      4624.21       2.0820577     0.010251947
      4628.84       2.0499408     0.010428239
      4633.47       2.0148902     0.010387620
      4638.10       1.9722219     0.010116896
      4642.74       1.9323596     0.010066453
      4647.38       1.8916184     0.010019291
      4652.03       1.8470693    0.0099753330
      4656.68       1.7979102     0.010148011
      4661.34       1.7514070    0.0098895141
      4666.00       1.7095514    0.0098379306
      4670.67       1.6664401    0.0097899524
      4675.33       1.6246492    0.0097455432
      4680.01       1.5904669    0.0099130172
      4684.69       1.5574889    0.0096652125
      4689.38       1.5244769    0.0096136745
      4694.07       1.4974952    0.0095659221
      4698.76       1.4707078    0.0095218830
      4703.46       1.4426887    0.0094814424
      4708.16       1.4261529    0.0094450311
      4712.87       1.4028525    0.0093938288
      4717.58       1.3807247    0.0093464093
      4722.30       1.3624731    0.0093026991
      4727.03       1.3453449    0.0092626142
      4731.75       1.3294188    0.0092261321
      4736.48       1.3111999    0.0091756664
      4741.22       1.2946862    0.0091291880
      4745.96       1.2817340    0.0090866384
      4750.71       1.2670191    0.0088621161
      4755.46       1.2555968    0.0090103644
      4760.22       1.2434196    0.0089612985
      4764.97       1.2329101    0.0089163956
      4769.74       1.2259264    0.0088754987
      4774.51       1.2206150    0.0086570655
      4779.29       1.2188200    0.0087976182
      4784.07       1.2196215    0.0087508857
      4788.85       1.2181470    0.0087082223
      4793.64       1.2175663    0.0084914335
      4798.43       1.2245689    0.0084575163
      4803.23       1.2319525    0.0085886098
      4808.03       1.2414306    0.0085439967
      4812.84       1.2527252    0.0085036929
      4817.66       1.2657437    0.0082938156
      4822.48       1.2774686    0.0082625712
      4827.30       1.2905035    0.0083832873
      4832.12       1.3062762    0.0083421478
      4836.96       1.3223994    0.0081347508
      4841.79       1.3329061    0.0081029971
      4846.63       1.3420274    0.0080751115
      4851.48       1.3492985    0.0081846737
      4856.33       1.3488466    0.0079798280
      4861.19       1.3479258    0.0079476219
      4866.05       1.3434287    0.0079193049
      4870.92       1.3354584    0.0080295364
      4875.79       1.3122481    0.0078271832
      4880.66       1.2955104    0.0077947821
      4885.55       1.2791816    0.0077663974
      4890.43       1.2622995    0.0078766662
      4895.32       1.2479629    0.0076777780
      4900.22       1.2358909    0.0076455625
      4905.12       1.2250295    0.0076174513
      4910.02       1.2162608    0.0075934864
      4914.94       1.2144530    0.0075311809
      4919.85       1.2109336    0.0074995021
      4924.77       1.2062170    0.0074722604
      4929.70       1.2007403    0.0072803941
      4934.62       1.1967518    0.0073877936
      4939.56       1.1932222    0.0073568319
      4944.50       1.1902369    0.0073301132
      4949.44       1.1862878    0.0071406104
      4954.39       1.1877396    0.0072462302
      4959.35       1.1908005    0.0072164295
      4964.31       1.1931800    0.0071910146
      4969.27       1.1992547    0.0070036270
      4974.24       1.2064638    0.0071080152
      4979.22       1.2139773    0.0070799036
      4984.20       1.2188732    0.0069041357
      4989.18       1.2300234    0.0068700433
      4994.17       1.2448639    0.0069736177
      4999.16       1.2598331    0.0069473338
      5004.16       1.2764551    0.0067717089
      5009.17       1.2939627    0.0067393914
      5014.18       1.3120430    0.0068421264
      5019.19       1.3309849    0.0066759130
      5024.21       1.3457141    0.0066413951
      5029.23       1.3600249    0.0066112399
      5034.26       1.3765598    0.0067139138
      5039.30       1.3943146    0.0065467235
      5044.34       1.4102596    0.0065146222
      5049.39       1.4301640    0.0066136170
      5054.43       1.4473285    0.0064546940
      5059.49       1.4593065    0.0064207919
      5064.55       1.4692341    0.0063913916
      5069.61       1.4764261    0.0064910476
      5074.68       1.4837656    0.0063297506
      5079.76       1.4905237    0.0062987795
      5084.84       1.5000378    0.0063949691
      5089.92       1.5122641    0.0062402978
      5095.01       1.5211527    0.0062078898
      5100.11       1.5310906    0.0061800978
      5105.21       1.5453332    0.0061529375
      5110.31       1.5588926    0.0061192641
      5115.42       1.5711427    0.0060905104
      5120.54       1.5814425    0.0059501977
      5125.66       1.5912071    0.0060329514
      5130.79       1.6010421    0.0060033182
      5135.92       1.6055791    0.0058639503
      5141.05       1.6125478    0.0059485643
      5146.20       1.6206166    0.0059181542
      5151.34       1.6270434    0.0058924902
      5156.49       1.6280345    0.0058655208
      5161.65       1.6343656    0.0058343285
      5166.81       1.6414617    0.0058079226
      5171.98       1.6497514    0.0056758201
      5177.15       1.6583569    0.0057520287
      5182.33       1.6699022    0.0057254428
      5187.51       1.6824170    0.0055947046
      5192.70       1.6938597    0.0056714191
      5197.89       1.7066095    0.0056446439
      5203.09       1.7224221    0.0055154395
      5208.29       1.7330930    0.0055922558
      5213.50       1.7372065    0.0055656395
      5218.72       1.7382405    0.0054382046
      5223.93       1.7413676    0.0055147217
      5229.16       1.7415752    0.0054880445
      5234.39       1.7364692    0.0053621706
      5239.62       1.7304445    0.0053455255
      5244.86       1.7217721    0.0053084082
      5250.11       1.7156241    0.0052877533
      5255.36       1.7076978    0.0052715935
      5260.61       1.6953371    0.0052352586
      5265.87       1.6881330    0.0052152581
      5271.14       1.6818408    0.0051998000
      5276.41       1.6769704    0.0051639969
      5281.69       1.6683894    0.0051447112
      5286.97       1.6603948    0.0051300268
      5292.26       1.6586931    0.0050942880
      5297.55       1.6528245    0.0050758623
      5302.85       1.6459136    0.0050620128
      5308.15       1.6359575    0.0050258525
      5313.46       1.6264643    0.0050082544
      5318.77       1.6193660    0.0048912634
      5324.09       1.6168983    0.0049589361
      5329.42       1.6102379    0.0049426195
      5334.75       1.6041978    0.0048260500
      5340.08       1.5987820    0.0048938229
      5345.42       1.5946124    0.0048788240
      5350.77       1.5884645    0.0047624083
      5356.12       1.5813752    0.0048305990
      5361.48       1.5755016    0.0048171357
      5366.83       1.5729315    0.0047858943
      5372.20       1.5657389    0.0047691003
      5377.58       1.5567740    0.0046593982
      5382.95       1.5461415    0.0047242908
      5388.34       1.5384972    0.0047092035
      5393.72       1.5312112    0.0045989986
      5399.12       1.5223905    0.0046646435
      5404.52       1.5138641    0.0045608647
      5409.92       1.5068916    0.0045406377
      5415.33       1.4996538    0.0046072509
      5420.75       1.4970654    0.0045026090
      5426.17       1.4928025    0.0044843883
      5431.60       1.4856657    0.0044671982
      5437.03       1.4790284    0.0044463676
      5442.47       1.4745928    0.0045109486
      5447.91       1.4672133    0.0044106486
      5453.36       1.4574333    0.0043919814
      5458.81       1.4515030    0.0044577027
      5464.27       1.4461379    0.0043558296
      5469.73       1.4398421    0.0043395123
      5475.20       1.4312361    0.0043220587
      5480.68       1.4227409    0.0043034369
      5486.16       1.4145388    0.0042903240
      5491.65       1.4106051    0.0042694231
      5497.14       1.4052037    0.0042534916
      5502.64       1.4011008    0.0042375225
      5508.14       1.3951069    0.0042193254
      5513.65       1.3945326    0.0042072020
      5519.16       1.3923740    0.0041868258
      5524.68       1.3861850    0.0041714061
      5530.20       1.3733727    0.0041561891
      5535.73       1.3659595    0.0041386802
      5541.27       1.3594493    0.0040539614
      5546.81       1.3533605    0.0041077517
      5552.36       1.3476534    0.0040218774
      5557.91       1.3418581    0.0040785064
      5563.47       1.3387759    0.0040624990
      5569.04       1.3341896    0.0039806620
      5574.60       1.3302379    0.0040330662
      5580.18       1.3263167    0.0039501810
      5585.76       1.3219680    0.0040050071
      5591.35       1.3165849    0.0039210272
      5596.94       1.3141304    0.0039780857
      5602.53       1.3082375    0.0039620166
      5608.14       1.3019544    0.0038823983
      5613.75       1.2960150    0.0039349020
      5619.36       1.2880838    0.0038544277
      5624.98       1.2766854    0.0039090192
      5630.60       1.2638592    0.0038276726
      5636.23       1.2524424    0.0038192004
      5641.87       1.2439562    0.0038022042
      5647.51       1.2332973    0.0037926137
      5653.16       1.2221775    0.0038443518
      5658.82       1.2143800    0.0037669131
      5664.47       1.2088977    0.0038203180
      5670.14       1.2043910    0.0037422040
      5675.81       1.2016773    0.0037351700
      5681.48       1.2030668    0.0037185267
      5687.17       1.2025348    0.0037105725
      5692.85       1.2035569    0.0036958627
      5698.55       1.2045078    0.0036870872
      5704.25       1.2100824    0.0036742038
      5709.95       1.2127834    0.0036646570
      5715.66       1.2139115    0.0035914457
      5721.38       1.2170798    0.0036437166
      5727.10       1.2200936    0.0036386634
      5732.83       1.2254982    0.0036239854
      5738.56       1.2291779    0.0036180214
      5744.30       1.2293509    0.0036048861
      5750.04       1.2299865    0.0035988198
      5755.79       1.2269997    0.0035896827
      5761.55       1.2286762    0.0035845711
      5767.31       1.2324697    0.0035158425
      5773.08       1.2360531    0.0035723110
      5778.85       1.2414352    0.0035054499
      5784.63       1.2484058    0.0035619856
      5790.41       1.2532262    0.0034941532
      5796.21       1.2566949    0.0035483140
      5802.00       1.2586535    0.0034798225
      5807.81       1.2632415    0.0035322746
      5813.61       1.2642454    0.0034638359
      5819.43       1.2646374    0.0035147643
      5825.25       1.2634645    0.0034469817
      5831.07       1.2638771    0.0034374446
      5836.90       1.2671075    0.0034313677
      5842.74       1.2656569    0.0034215614
      5848.58       1.2578712    0.0034150089
      5854.43       1.2526954    0.0034045416
      5860.29       1.2476735    0.0033978340
      5866.15       1.2430884    0.0033873307
      5872.01       1.2382549    0.0033810443
      5877.89       1.2324218    0.0033700383
      5883.76       1.2293568    0.0033638469
      5889.65       1.2231161    0.0033536740
      5895.54       1.2135394    0.0033491351
      5901.43       1.2053343    0.0033389039
      5907.34       1.1951234    0.0033343655
      5913.24       1.1838609    0.0033248623
      5919.16       1.1724053    0.0033218515
      5925.08       1.1623732    0.0033130458
      5931.00       1.1504302    0.0033106686
      5936.93       1.1426170    0.0033023160
      5942.87       1.1384442    0.0033003616
      5948.81       1.1338524    0.0032924413
      5954.76       1.1288804    0.0032905365
      5960.72       1.1250755    0.0032831046
      5966.68       1.1242167    0.0032813841
      5972.64       1.1234428    0.0032234438
      5978.62       1.1221869    0.0032728827
      5984.60       1.1194444    0.0032157833
      5990.58       1.1185190    0.0032649905
      5996.57       1.1177395    0.0032087661
      6002.57       1.1136956    0.0032576856
      6008.57       1.1097808    0.0032023606
      6014.58       1.1085516    0.0032509253
      6020.60       1.1052864    0.0031965220
      6026.62       1.1001550    0.0032446281
      6032.65       1.0975849    0.0031911893
      6038.68       1.0929896    0.0031885745
      6044.72       1.0852059    0.0031863668
      6050.76       1.0779962    0.0031835998
      6056.81       1.0709431    0.0031822881
      6062.87       1.0622222    0.0031792132
      6068.93       1.0503743    0.0031789305
      6075.00       1.0373974    0.0031755662
      6081.08       1.0257279    0.0031762470
      6087.16       1.0126716    0.0031724003
      6093.25      0.99643045    0.0031724943
      6099.34      0.98194923    0.0031703224
      6105.44      0.96515363    0.0031719610
      6111.54      0.95222043    0.0031715025
      6117.66      0.93662712    0.0031700795
      6123.78      0.92612365    0.0031702385
      6129.90      0.91622305    0.0031716591
      6136.03      0.90951689    0.0031257896
      6142.17      0.90406186    0.0031808115
      6148.31      0.89965468    0.0031368984
      6154.46      0.89533705    0.0031952451
      6160.61      0.89220338    0.0032055882
      6166.77      0.89179576    0.0032096071
      6172.94      0.89360000    0.0032155419
      6179.11      0.89639469    0.0031655591
      6185.29      0.90132790    0.0032173263
      6191.48      0.91124458    0.0031617063
      6197.67      0.91993062    0.0032110179
      6203.87      0.92694817    0.0031519820
      6210.07      0.93453879    0.0031491683
      6216.28      0.94288450    0.0031957933
      6222.50      0.95356907    0.0031428729
      6228.72      0.96407989    0.0031924496
      6234.95      0.97458030    0.0031383608
      6241.19      0.98759620    0.0031406882
      6247.42      0.99767051    0.0031353400
      6253.67       1.0105274    0.0031378561
      6259.93       1.0216025    0.0031879090
      6266.19       1.0319060    0.0031368183
      6272.46       1.0390098    0.0031423766
      6278.73       1.0415370    0.0031377144
      6285.01       1.0423016    0.0031429094
      6291.29       1.0412643    0.0031407051
      6297.58       1.0386894    0.0031454785
      6303.88       1.0340094    0.0031533593
      6310.19       1.0263445    0.0031496123
      6316.50       1.0124890    0.0031568521
      6322.81       1.0008858    0.0031119872
      6329.14      0.98883069    0.0031633613
      6335.47      0.97548784    0.0031749458
      6341.80      0.96873204    0.0031737233
      6348.14      0.96362709    0.0031837496
      6354.49      0.96321065    0.0031401255
      6360.85      0.96237133    0.0031925328
      6367.21      0.96329028    0.0032026694
      6373.57      0.96678158    0.0031564448
      6379.95      0.97267519    0.0032080973
      6386.33      0.98121162    0.0031633332
      6392.72      0.98963740    0.0031674023
      6399.11      0.99837133    0.0032188966
      6405.51       1.0057006    0.0031727442
      6411.92       1.0148640    0.0032235698
      6418.32       1.0224141    0.0031806776
      6424.74       1.0284809    0.0031855895
      6431.17       1.0325225    0.0032375669
      6437.60       1.0372214    0.0031930592
      6444.04       1.0374443    0.0031974575
      6450.48       1.0385709    0.0032498140
      6456.94       1.0418513    0.0032046510
      6463.39       1.0460232    0.0032103187
      6469.85       1.0495451    0.0032132201
      6476.33       1.0513044    0.0032165596
      6482.80       1.0496048    0.0032228942
      6489.28       1.0489284    0.0032260468
      6495.77       1.0515338    0.0032318163
      6502.27       1.0512556    0.0032398107
      6508.77       1.0548852    0.0032430130
      6515.28       1.0577426    0.0032496655
      6521.80       1.0555664    0.0032582910
      6528.32       1.0544543    0.0032613290
      6534.85       1.0561562    0.0032683827
      6541.38       1.0543824    0.0032239915
      6547.92       1.0514594    0.0032805965
      6554.47       1.0474084    0.0032881901
      6561.03       1.0433089    0.0032438329
      6567.59       1.0366582    0.0033010238
      6574.16       1.0315163    0.0033089143
      6580.73       1.0234222    0.0032644198
      6587.31       1.0150457    0.0032757362
      6593.90       1.0070413    0.0033304586
      6600.50      0.99812718    0.0032856826
      6607.10      0.98765939    0.0032970536
      6613.70      0.97835242    0.0033528605
      6620.32      0.96942810    0.0033073755
      6626.94      0.95801993    0.0033186700
      6633.57      0.95286949    0.0033753030
      6640.20      0.94574133    0.0033297313
      6646.84      0.93304626    0.0033410844
      6653.49      0.92909197    0.0033540199
      6660.14      0.92294192    0.0033527822
      6666.80      0.91535762    0.0033640146
      6673.47      0.90841701    0.0033794714
      6680.14      0.90085202    0.0033838635
      6686.82      0.89468807    0.0034067175
      6693.51      0.88877501    0.0034183650
      6700.20      0.88205112    0.0033779481
      6706.90      0.87526222    0.0034416965
      6713.61      0.86951224    0.0034854986
      6720.32      0.86316136    0.0035467687
      6727.05      0.85734922    0.0035740459
      6733.77      0.85178593    0.0036506041
      6740.51      0.84803246    0.0037309609
      6747.25      0.84467966    0.0037200822
      6754.00      0.84139742    0.0038263374
      6760.75      0.84055044    0.0038681143
      6767.51      0.83617655    0.0038186233
      6774.28      0.83180045    0.0038140932
      6781.05      0.83012414    0.0038475167
      6787.84      0.82377350    0.0038084903
      6794.62      0.81729342    0.0037278497
      6801.42      0.80990886    0.0036928922
      6808.22      0.80233044    0.0037330733
      6815.03      0.79782053    0.0036721278
      6821.85      0.79258962    0.0036524192
      6828.67      0.78620241    0.0036371995
      6835.50      0.78094485    0.0036862829
      6842.33      0.77559642    0.0036314844
      6849.17      0.77081846    0.0036300719
      6856.02      0.76590418    0.0036332565
      6862.88      0.76285434    0.0036362358
      6869.74      0.76157374    0.0036429487
      6876.61      0.75676626    0.0036530978
      6883.49      0.75169427    0.0036650852
      6890.37      0.74986185    0.0036704978
      6897.27      0.74896475    0.0036785676
      6904.16      0.74851397    0.0036857607
      6911.07      0.74594744    0.0036925212
      6917.98      0.74423246    0.0036441173
      6924.89      0.74236941    0.0037027387
      6931.82      0.73887443    0.0037107657
      6938.75      0.73344999    0.0037192877
      6945.69      0.72640777    0.0036718255
      6952.64      0.72031081    0.0037317360
      6959.59      0.71290692    0.0037407421
      6966.55      0.70843242    0.0037518240
      6973.52      0.70194968    0.0037080589
      6980.49      0.69480897    0.0037249309
      6987.47      0.68850145    0.0037897793
      6994.46      0.68304236    0.0038073871
      7001.46      0.67734947    0.0037662819
      7008.46      0.67301911    0.0037945218
      7015.46      0.67092637    0.0038326948
      7022.48      0.67112527    0.0039150409
      7029.51      0.66994365    0.0039044163
      7036.53      0.66904663    0.0039668079
      7043.57      0.67096309    0.0040276296
      7050.62      0.67298629    0.0040787494
      7057.66      0.67353493    0.0041680219
      7064.72      0.67158882    0.0041245494
      7071.79      0.66742046    0.0041465630
      7078.86      0.66535564    0.0041599298
      7085.94      0.66446353    0.0041654760
      7093.03      0.66119707    0.0041102744
      7100.12      0.66091622    0.0041633804
      7107.22      0.65792427    0.0041751892
      7114.33      0.65339553    0.0041950551
      7121.44      0.65226553    0.0042166797
      7128.56      0.65211647    0.0041649157
      7135.69      0.64974756    0.0042327646
      7142.83      0.64720212    0.0042377461
      7149.97      0.64279404    0.0042333484
      7157.12      0.63852335    0.0042268777
      7164.28      0.63577205    0.0041641176
      7171.44      0.63243037    0.0041585218
      7178.62      0.63218933    0.0041511514
      7185.80      0.63008791    0.0041964121
      7192.98      0.62832641    0.0041844174
      7200.17      0.62362850    0.0041203808
      7207.38      0.61872622    0.0041109522
      7214.58      0.61499415    0.0041057082
      7221.80      0.60821708    0.0041025535
      7229.02      0.60173956    0.0041566268
      7236.25      0.59712492    0.0041048893
      7243.49      0.59173866    0.0041080884
      7250.73      0.58541888    0.0041127071
      7257.98      0.58148561    0.0041169794
      7265.24      0.57764939    0.0041215080
      7272.51      0.56793813    0.0041277339
      7279.78      0.56116533    0.0040759422
      7287.06      0.55542017    0.0041379584
      7294.35      0.54878376    0.0041457339
      7301.64      0.54248404    0.0041546020
      7308.94      0.53720807    0.0041640730
      7316.25      0.52934334    0.0041743191
      7323.57      0.52282536    0.0041247306
      7330.89      0.51290221    0.0041365060
      7338.22      0.50226904    0.0041485487
      7345.56      0.49181498    0.0042126328
      7352.91      0.48172089    0.0042238346
      7360.26      0.46850860    0.0042355318
      7367.62      0.45865085    0.0042474913
      7374.99      0.44463005    0.0041980478
      7382.37      0.43107042    0.0042194645
      7389.75      0.41722341    0.0042652621
      7397.14      0.40325079    0.0043227000
      7404.53      0.38840635    0.0043499003
      7411.94      0.37054944    0.0044224213
      7419.35      0.35551105    0.0044434321
      7426.77      0.34162999    0.0044670406
      7434.20      0.32623321    0.0046377911
      7441.63      0.31332932    0.0048784224
      7449.07      0.30201143    0.0051821681
      7456.52      0.28680016    0.0055353766
      7463.98      0.27952460    0.0059155058
      7471.45      0.26804385    0.0062816044
      7478.92      0.26280681    0.0065710867
      7486.40      0.26280550    0.0067152225
      7493.88      0.26581979    0.0065647810
      7501.38      0.26985134    0.0065807056
      7508.88      0.27697665    0.0063078268
      7516.39      0.28721456    0.0059638206
      7523.91      0.30370521    0.0056155004
      7531.43      0.31961704    0.0053215642
      7538.96      0.33887437    0.0051120687
      7546.50      0.35659225    0.0049313359
      7554.05      0.36944280    0.0047860140
      7561.60      0.38277796    0.0046563795
      7569.16      0.39450911    0.0046028651
      7576.73      0.40563497    0.0045637044
      7584.31      0.41331371    0.0045299689
      7591.89      0.41913102    0.0045058712
      7599.49      0.42314441    0.0044919266
      7607.09      0.42866655    0.0044864271
      7614.70      0.42959678    0.0044870508
      7622.31      0.42986302    0.0044917313
      7629.93      0.42964919    0.0044986640
      7637.56      0.42936202    0.0045606460
      7645.20      0.43060661    0.0045696954
      7652.85      0.43073288    0.0045198125
      7660.50      0.43264104    0.0045289252
      7668.16      0.43627106    0.0045379801
      7675.83      0.43881333    0.0045471922
      7683.50      0.44046074    0.0045566101
      7691.19      0.43874581    0.0045658666
      7698.88      0.43599762    0.0045754435
      7706.58      0.43830552    0.0045860088
      7714.29      0.43985857    0.0045972847
      7722.00      0.44188289    0.0046090808
      7729.73      0.44080251    0.0046216690
      7737.45      0.43909233    0.0046351284
      7745.19      0.44080132    0.0046486083
      7752.94      0.44171002    0.0046602500
      7760.69      0.43705960    0.0046697480
      7768.45      0.43776060    0.0046783582
      7776.22      0.43974947    0.0046864530
      7784.00      0.44007206    0.0046302235
      7791.78      0.44156558    0.0046376938
      7799.57      0.44069641    0.0046448697
      7807.37      0.43949035    0.0046521091
      7815.18      0.43937169    0.0046598035
      7822.99      0.43893168    0.0046683031
      7830.82      0.43716396    0.0046771390
      7838.65      0.43471794    0.0046855141
      7846.49      0.43184398    0.0046937960
      7854.34      0.42939235    0.0047017874
      7862.19      0.42572015    0.0047087629
      7870.05      0.41888923    0.0047144986
      7877.93      0.40971534    0.0047199591
      7885.80      0.39811688    0.0047259235
      7893.69      0.38787506    0.0047320328
      7901.58      0.37333121    0.0047370507
      7909.49      0.35853505    0.0047422885
      7917.40      0.34817628    0.0047496994
      7925.31      0.33484791    0.0047590139
      7933.24      0.32194237    0.0047715015
      7941.17      0.31100143    0.0047398986
      7949.11      0.29944333    0.0047603405
      7957.06      0.28773964    0.0047872082
      7965.02      0.28023034    0.0048223025
      7972.98      0.27462504    0.0048651144
      7980.96      0.27079970    0.0049123371
      7988.94      0.26366670    0.0049637106
      7996.93      0.25823198    0.0050206653
      8004.93      0.25496254    0.0050767180
      8012.93      0.25150620    0.0051134600
      8020.95      0.24564316    0.0051290209
      8028.97      0.23953897    0.0051382987
      8036.99      0.23320786    0.0051445440
      8045.03      0.23153050    0.0051454757
      8053.08      0.22932203    0.0051429176
      8061.13      0.22897116    0.0051355817
      8069.20      0.22539696    0.0051239183
      8077.26      0.22144512    0.0051109053
      8085.34      0.22333942    0.0050339316
      8093.43      0.22256883    0.0050284333
      8101.52      0.22257475    0.0050203376
      8109.62      0.22174627    0.0050688809
      8117.73      0.22122471    0.0050550880
      8125.85      0.21990840    0.0050398709
      8133.98      0.22039761    0.0050239385
      8142.11      0.22235764    0.0050118868
      8150.25      0.22362736    0.0050095211
      8158.41      0.22539413    0.0050092003
      8166.56      0.22429365    0.0049935191
      8174.73      0.22177119    0.0049037951
      8182.91      0.22190881    0.0048801040
      8191.09      0.22090455    0.0048596649
      8199.28      0.22496963    0.0048409811
      8207.48      0.22902483    0.0048261844
      8215.69      0.23143377    0.0048114176
      8223.91      0.23090327    0.0047955929
      8232.13      0.23596064    0.0047814089
      8240.36      0.24229256    0.0047700109
      8248.60      0.24757426    0.0047647433
      8256.85      0.25309141    0.0047554056
      8265.11      0.25700714    0.0047464633
      8273.37      0.25844274    0.0047384834
      8281.65      0.26078369    0.0047316059
      8289.93      0.26288390    0.0047259879
      8298.22      0.26646855    0.0047206776
      8306.52      0.26682113    0.0047160985
      8314.83      0.26915448    0.0046586741
      8323.14      0.27137356    0.0046549294
      8331.46      0.27126603    0.0046518595
      8339.80      0.27210955    0.0047051488
      8348.13      0.27036590    0.0047007462
      8356.48      0.27120468    0.0046962394
      8364.84      0.27218490    0.0046916154
      8373.21      0.27328146    0.0046327931
      8381.58      0.27324676    0.0046271660
      8389.96      0.27583503    0.0046213426
      8398.35      0.27622729    0.0046153551
      8406.75      0.27624014    0.0046093423
      8415.16      0.27680566    0.0045478652
      8423.57      0.27941753    0.0045407551
      8432.00      0.27857594    0.0044834304
      8440.43      0.27931326    0.0044761657
      8448.87      0.27960887    0.0043730309
      8457.32      0.27970738    0.0043666217
      8465.78      0.28015737    0.0043136048
      8474.25      0.28198152    0.0043066693
      8482.72      0.28501238    0.0042557207
      8491.20      0.28266707    0.0042058975
      8499.69      0.28059911    0.0041571224
      8508.19      0.27760539    0.0041499776
      8516.70      0.27393195    0.0041010861
      8525.22      0.27145514    0.0040923444
      8533.75      0.26689025    0.0040069874
      8542.28      0.26518445    0.0039985138
      8550.82      0.26494593    0.0039527248
      8559.37      0.26248774    0.0039078220
      8567.93      0.25940544    0.0038981264
      8576.50      0.25724885    0.0038206270
      8585.08      0.25453873    0.0038114184
      8593.66      0.24929127    0.0037689146
      8602.26      0.24683848    0.0037601038
      8610.86      0.24777352    0.0037182686
      8619.47      0.24691483    0.0036805482
      8628.09      0.24457994    0.0036384602
      8636.72      0.24392461    0.0035985349
      8645.36      0.24626719    0.0035895250
      8654.00      0.24746017    0.0035512246
      8662.66      0.24637188    0.0035176436
      8671.32      0.24469215    0.0034812388
      8679.99      0.24194604    0.0034484213
      8688.67      0.24082663    0.0034404991
      8697.36      0.23858350    0.0034072925
      8706.06      0.23809566    0.0033792123
      8714.76      0.23653167    0.0033442282
      8723.48      0.23521131    0.0033159047
      8732.21      0.23378576    0.0033128030
      8740.93      0.23441036    0.0032905257
      8749.68      0.23423955    0.0032743805
      8758.43      0.23581827    0.0032614336
      8767.19      0.23677529    0.0032550370
      8775.96      0.23605796    0.0032668844
      8784.73      0.23963902    0.0032575271
      8793.52      0.24042477    0.0032637765
      8802.31      0.24099492    0.0032930989
      8811.11      0.24096726    0.0033539372
      8819.92      0.24024101    0.0034248138
      8828.75      0.24023637    0.0035084481
      8837.57      0.24020729    0.0036087746
      8846.41      0.24094814    0.0037316004
      8855.26      0.23988446    0.0038418677
      8864.12      0.23899648    0.0040284104
      8872.98      0.24040448    0.0042677590
      8881.85      0.24165582    0.0045779748
      8890.73      0.24172001    0.0049825956
      8899.63      0.24015517    0.0055103753
      8908.52      0.23833767    0.0063682021
      8917.43      0.23538405    0.0072864393
      8926.35      0.22950789    0.0084553424
      8935.28      0.21773865    0.0099381341
