# starting wavelength =        5165.8000
# ending wavelength =        9101.6400
# O2 telluric scale =        0
# O2 telluric shift =        0
# H2O telluric scale =        0
# H2O telluric shift =        0
      5166.81      0.73320408     0.039967133
      5171.98      0.74488642     0.034702551
      5177.15      0.75684371     0.030055326
      5182.33      0.77104448     0.021182125
      5187.51      0.78552243     0.018937511
      5192.70      0.79983206     0.017174483
      5197.89      0.81895190     0.018126335
      5203.09      0.83369554     0.016545412
      5208.29      0.84794561     0.015310165
      5213.50      0.86740133     0.013406601
      5218.72      0.88082292     0.012962761
      5223.93      0.89351257     0.012669178
      5229.16      0.91442627     0.012522195
      5234.39      0.92526896     0.012187288
      5239.62      0.93507448     0.011963634
      5244.86      0.93773436     0.011423410
      5250.11      0.94607943     0.011378847
      5255.36      0.95357915     0.011382779
      5260.61      0.97061666     0.011808965
      5265.87      0.96377169     0.011382181
      5271.14      0.97125284     0.011398671
      5276.41      0.97443588     0.011795738
      5281.69      0.98105441     0.011390378
      5286.97      0.98040118     0.011869419
      5292.26      0.98450535     0.011790302
      5297.55      0.98735659     0.012002988
      5302.85      0.98995428     0.011863893
      5308.15      0.99214901     0.011803694
      5313.46      0.97995257     0.012006204
      5318.77      0.98270957     0.011888359
      5324.09      0.97939063     0.012501441
      5329.42      0.98117477     0.012048920
      5334.75      0.98442631     0.011953283
      5340.08      0.98118217     0.012606824
      5345.42      0.99029807     0.012134645
      5350.77      0.99431276     0.012759653
      5356.12      0.99818987     0.012762998
      5361.48       1.0033341     0.012259404
      5366.83       1.0110068     0.012934040
      5372.20       1.0161786     0.012962637
      5377.58       1.0247309     0.013162614
      5382.95       1.0314015     0.013135313
      5388.34       1.0435035     0.013919289
      5393.72       1.0558650     0.013348637
      5399.12       1.0621754     0.013347901
      5404.52       1.0583429     0.014070599
      5409.92       1.0677467     0.013541418
      5415.33       1.0698563     0.014427284
      5420.75       1.0736162     0.014239923
      5426.17       1.0903974     0.014856650
      5431.60       1.0965164     0.014555086
      5437.03       1.1018878     0.014416582
      5442.47       1.1128305     0.014935473
      5447.91       1.1160189     0.014691123
      5453.36       1.1061163     0.015690095
      5458.81       1.1072796     0.015027245
      5464.27       1.1065086     0.014838529
      5469.73       1.1121749     0.015897210
      5475.20       1.1093044     0.015130489
      5480.68       1.1123327     0.016104288
      5486.16       1.1099601     0.016116911
      5491.65       1.0993644     0.016369481
      5497.14       1.0942260     0.016282978
      5502.64       1.0884318     0.016354746
      5508.14       1.0735839     0.016504545
      5513.65       1.0671416     0.016478080
      5519.16       1.0681033     0.017577560
      5524.68       1.0550583     0.016655335
      5530.20       1.0434427     0.018069608
      5535.73       1.0382534     0.017636645
      5541.27       1.0175395     0.018716744
      5546.81       1.0130273     0.018035760
      5552.36       1.0107583     0.017735691
      5557.91       1.0235938     0.018567490
      5563.47       1.0238575     0.018048509
      5569.04       1.0223077     0.019600478
      5574.60       1.0371360     0.018476366
      5580.18       1.0358477     0.018105752
      5585.76       1.0594376     0.019043511
      5591.35       1.0542790     0.018440163
      5596.94       1.0660502     0.019960114
      5602.53       1.0504099     0.018894036
      5608.14       1.0382460     0.018456199
      5613.75       1.0292317     0.020118088
      5619.36      0.99220023     0.018807773
      5624.98      0.97367572     0.018523036
      5630.60      0.93621575     0.019282171
      5636.23      0.91335444     0.018783387
      5641.87      0.87028890     0.020424099
      5647.51      0.85279215     0.019149684
      5653.16      0.82371464     0.018817161
      5658.82      0.78825453     0.019639868
      5664.47      0.75875074     0.019087275
      5670.14      0.73339550     0.020708411
      5675.81      0.69055577     0.019460598
      5681.48      0.66643657     0.019088157
      5687.17      0.62957670     0.019960481
      5692.85      0.61329853     0.019361303
      5698.55      0.58171076     0.020970680
      5704.25      0.57210906     0.019739428
      5709.95      0.56529344     0.019335449
      5715.66      0.56352522     0.020241325
      5721.38      0.56027137     0.019607009
      5727.10      0.56173785     0.019378750
      5732.83      0.59471113     0.019986668
      5738.56      0.60012362     0.019556687
      5744.30      0.63486866     0.020499224
      5750.04      0.64568200     0.019832270
      5755.79      0.65542301     0.019587450
      5761.55      0.66150882     0.020225869
      5767.31      0.67478505     0.019782095
      5773.08      0.66279599     0.020760690
      5778.85      0.67852333     0.020085626
      5784.63      0.69665569     0.019838756
      5790.41      0.70193928     0.020486283
      5796.21      0.72193508     0.020041426
      5802.00      0.75577496     0.020981321
      5807.81      0.77823091     0.020309520
      5813.61      0.80309676     0.020069613
      5819.43      0.85297414     0.020643811
      5825.25      0.87985269     0.020209036
      5831.07      0.93214306     0.021080916
      5836.90      0.95861296     0.020423710
      5842.74      0.98484721     0.019320678
      5848.58       1.0161752     0.020725481
      5854.43       1.0345088     0.020312788
      5860.29       1.0377033     0.021107928
      5866.15       1.0501285     0.020480100
      5872.01       1.0561795     0.019390965
      5877.89       1.0549453     0.020732908
      5883.76       1.0595421     0.020351682
      5889.65       1.0577814     0.021078072
      5895.54       1.0603072     0.020489363
      5901.43       1.0575051     0.019431233
      5907.34       1.0544817     0.020709002
      5913.24       1.0554396     0.020369553
      5919.16       1.0536667     0.021025596
      5925.08       1.0524986     0.020489307
      5931.00       1.0543928     0.019473895
      5936.93       1.0561374     0.020689955
      5942.87       1.0551742     0.019502468
      5948.81       1.0562952     0.020976968
      5954.76       1.0526135     0.020504041
      5960.72       1.0497617     0.021352941
      5966.68       1.0428093     0.020669909
      5972.64       1.0346285     0.019542627
      5978.62       1.0290464     0.020912092
      5984.60       1.0178081     0.020510945
      5990.58      0.99721945     0.021235357
      5996.57      0.98353043     0.020640155
      6002.57      0.95958043     0.019578206
      6008.57      0.93808116     0.020833722
      6014.58      0.91417553     0.019597736
      6020.60      0.89743596     0.021100861
      6026.62      0.88895958     0.020599913
      6032.65      0.88733466     0.019605153
      6038.68      0.87447956     0.020744994
      6044.72      0.87821273     0.019600110
      6050.76      0.87471670     0.020953593
      6056.81      0.86837994     0.019622892
      6062.87      0.87477573     0.021234553
      6068.93      0.88021700     0.020651697
      6075.00      0.88926586     0.019596845
      6081.08      0.90393636     0.020805372
      6087.16      0.91703972     0.019593598
      6093.25      0.93140011     0.021021554
      6099.34      0.94552777     0.020563984
      6105.44      0.96446415     0.019598116
      6111.54      0.97644310     0.020661865
      6117.66      0.99708054     0.019581495
      6123.78       1.0110068     0.020829383
      6129.90       1.0262497     0.019579535
      6136.03       1.0530181     0.021079566
      6142.17       1.0686529     0.020571909
      6148.31       1.0764406     0.019621693
      6154.46       1.0946504     0.020769577
      6160.61       1.1088049     0.019680824
      6166.77       1.1122819     0.021037857
      6172.94       1.1269118     0.019761976
      6179.11       1.1423902     0.019801474
      6185.29       1.1599522     0.019813797
      6191.48       1.1764013     0.019774783
      6197.67       1.1923526     0.020859717
      6203.87       1.2148124     0.019692341
      6210.07       1.2375883     0.020891145
      6216.28       1.2598945     0.019583409
      6222.50       1.2764438     0.019627884
      6228.72       1.3004234     0.019527889
      6234.95       1.3159517     0.019495568
      6241.19       1.3318960     0.020514274
      6247.42       1.3417543     0.019385862
      6253.67       1.3507743     0.020573883
      6259.93       1.3599426     0.019315287
      6266.19       1.3699874     0.019376409
      6272.46       1.3821171     0.019274733
      6278.73       1.3902611     0.019262445
      6285.01       1.3936188     0.020245808
      6291.29       1.4037665     0.019177870
      6297.58       1.4082702     0.020305441
      6303.88       1.4156231     0.019118963
      6310.19       1.4193346     0.020410538
      6316.50       1.4149431     0.019085176
      6322.81       1.4096118     0.019104384
      6329.14       1.3944834     0.019077135
      6335.47       1.3874796     0.019027617
      6341.80       1.3753796     0.020085951
      6348.14       1.3550685     0.018988309
      6354.49       1.3352958     0.020197366
      6360.85       1.3259145     0.018968722
      6367.21       1.3170904     0.019030916
      6373.57       1.3067919     0.018952601
      6379.95       1.2972535     0.018949983
      6386.33       1.2918070     0.018932988
      6392.72       1.2831918     0.018867122
      6399.11       1.2818879     0.019912346
      6405.51       1.2787491     0.018775848
      6411.92       1.2708523     0.018894482
      6418.32       1.2708457     0.018699176
      6424.74       1.2634706     0.018755110
      6431.17       1.2536334     0.018645191
      6437.60       1.2455579     0.018640847
      6444.04       1.2255522     0.018595186
      6450.48       1.2160564     0.018532189
      6456.94       1.1973754     0.018556564
      6463.39       1.1882168     0.018434199
      6469.85       1.1802905     0.018561728
      6476.33       1.1699448     0.018345513
      6482.80       1.1650564     0.018414797
      6489.28       1.1600099     0.018267740
      6495.77       1.1587960     0.018281720
      6502.27       1.1573857     0.018209560
      6508.77       1.1591797     0.018169460
      6515.28       1.1695940     0.018167502
      6521.80       1.1745262     0.018073888
      6528.32       1.1942884     0.017024722
      6534.85       1.2035839     0.017990345
      6541.38       1.2074100     0.018093244
      6547.92       1.2225868     0.017914138
      6554.47       1.2247876     0.017965613
      6561.03       1.2357294     0.017847674
      6567.59       1.2342878     0.017849956
      6574.16       1.2405398     0.017789823
      6580.73       1.2324967     0.017744048
      6587.31       1.2167951     0.017737596
      6593.90       1.2024505     0.017644805
      6600.50       1.1698752     0.016610502
      6607.10       1.1447201     0.017553940
      6613.70       1.1147098     0.016574026
      6620.32       1.0838665     0.017471266
      6626.94       1.0635786     0.017534719
      6633.57       1.0299191     0.017393889
      6640.20       1.0113969     0.017414311
      6646.84      0.99576895     0.017321839
      6653.49      0.98056308     0.017300246
      6660.14      0.96581953     0.017256658
      6666.80      0.95229667     0.017194134
      6673.47      0.94776114     0.016149908
      6680.14      0.94382936     0.017095182
      6686.82      0.94004100     0.016119124
      6693.51      0.94474600     0.017039236
      6700.20      0.93283068     0.016142016
      6706.90      0.92778331     0.017044334
      6713.61      0.91721200     0.016212104
      6720.32      0.90364827     0.017062546
      6727.05      0.89293881     0.017097283
      6733.77      0.88178860     0.017421698
      6740.51      0.86974659     0.017417463
      6747.25      0.85019999     0.017958179
      6754.00      0.83846349     0.017920522
      6760.75      0.82672602     0.017033650
      6767.51      0.81383190     0.018310744
      6774.28      0.80490193     0.017146290
      6781.05      0.79333972     0.018279151
      6787.84      0.78163344     0.016922655
      6794.62      0.77255247     0.017809523
      6801.42      0.75982294     0.016479315
      6808.22      0.75226418     0.017238131
      6815.03      0.74100171     0.016089460
      6821.85      0.73164041     0.016864330
      6828.67      0.73101433     0.015893814
      6835.50      0.72986230     0.016526339
      6842.33      0.73621856     0.015641694
      6849.17      0.73853237     0.016303448
      6856.02      0.74086635     0.016303697
      6862.88      0.74622895     0.015229483
      6869.74      0.74872082     0.016112646
      6876.61      0.75552736     0.015088178
      6883.49      0.76622210     0.015987785
      6890.37      0.76808992     0.014992914
      6897.27      0.77937092     0.015879704
      6904.16      0.78295297     0.014902155
      6911.07      0.79024878     0.015755030
      6917.98      0.80138601     0.014790011
      6924.89      0.80770958     0.015615012
      6931.82      0.82567579     0.014675804
      6938.75      0.83402117     0.015482764
      6945.69      0.85194915     0.014578230
      6952.64      0.86760674     0.015353643
      6959.59      0.88010146     0.014480551
      6966.55      0.89731608     0.015237845
      6973.52      0.90765751     0.014394184
      6980.49      0.92014076     0.015129351
      6987.47      0.92789884     0.014332081
      6994.46      0.93256735     0.014144592
      7001.46      0.93521034     0.014307162
      7008.46      0.93671331     0.014093002
      7015.46      0.92298405     0.014341221
      7022.48      0.92260166     0.014111059
      7029.51      0.90952461     0.014473696
      7036.53      0.90895098     0.014247462
      7043.57      0.90573383     0.014698029
      7050.62      0.90540398     0.014467452
      7057.66      0.90438530     0.014876498
      7064.72      0.90543857     0.014631893
      7071.79      0.89953707     0.014906090
      7078.86      0.90354139     0.014651046
      7085.94      0.90367445     0.014824379
      7093.03      0.91114485     0.014557343
      7100.12      0.93098630     0.014682742
      7107.22      0.94072126     0.014406494
      7114.33      0.96347007     0.014608331
      7121.44      0.97470346     0.014324169
      7128.56      0.98164840     0.014576545
      7135.69      0.99477987     0.014290458
      7142.83      0.99970956     0.014478151
      7149.97       1.0147596     0.014195580
      7157.12       1.0366774     0.014276360
      7164.28       1.0531983     0.013993273
      7171.44       1.0824249     0.014098811
      7178.62       1.0992972     0.013808747
      7185.80       1.1158649     0.013926327
      7192.98       1.1319469     0.013631728
      7200.17       1.1403575     0.013736177
      7207.38       1.1560514     0.013440429
      7214.58       1.1722759     0.013594448
      7221.80       1.1890429     0.013299343
      7229.02       1.2120384     0.013485132
      7236.25       1.2305421     0.013192357
      7243.49       1.2538596     0.013419536
      7250.73       1.2703975     0.013130345
      7257.98       1.2925627     0.013362509
      7265.24       1.3032987     0.013077993
      7272.51       1.3257884     0.013303727
      7279.78       1.3311265     0.013023717
      7287.06       1.3463585     0.013262593
      7294.35       1.3474225     0.012987038
      7301.64       1.3457938     0.013233024
      7308.94       1.3413626     0.012963626
      7316.25       1.3220349     0.013205669
      7323.57       1.3104351     0.012942947
      7330.89       1.2785369     0.013184660
      7338.22       1.2612912     0.012929680
      7345.56       1.2293460     0.013165240
      7352.91       1.2085766     0.012919464
      7360.26       1.1770385     0.013148626
      7367.62       1.1550014     0.012912531
      7374.99       1.1378150     0.013131680
      7382.37       1.1157883     0.012905854
      7389.75       1.1062928     0.013119200
      7397.14       1.0837355     0.012902836
      7404.53       1.0636123     0.013258555
      7411.94       1.0398614     0.012981208
      7419.35       1.0125165     0.013518581
      7426.77      0.98716374     0.013082891
      7434.20      0.95705577     0.013912853
      7441.63      0.93161464     0.013432804
      7449.07      0.90553050     0.015052474
      7456.52      0.88088646     0.014686787
      7463.98      0.85033362     0.016716121
      7471.45      0.82594645     0.016400569
      7478.92      0.79735984     0.018734366
      7486.40      0.77595619     0.018082263
      7493.88      0.74902531     0.020199787
      7501.38      0.72582245     0.018828194
      7508.88      0.71243558     0.019849659
      7516.39      0.68493062     0.018079868
      7523.91      0.67408163     0.017933323
      7531.43      0.65745447     0.016431048
      7538.96      0.64744526     0.015994183
      7546.50      0.64383953     0.014819458
      7554.05      0.64040596     0.014791535
      7561.60      0.64655255     0.013764870
      7569.16      0.65447439     0.013845733
      7576.73      0.66931284     0.013080420
      7584.31      0.70092761     0.012799038
      7591.89      0.72462283     0.013393425
      7599.49      0.75915418     0.012580456
      7607.09      0.79118749     0.013177219
      7614.70      0.82757667     0.012461462
      7622.31      0.86636914     0.013070932
      7629.93      0.89837794     0.012411604
      7637.56      0.93506326     0.013016769
      7645.20      0.95874267     0.012394094
      7652.85      0.99051128     0.012981037
      7660.50       1.0188336     0.012389036
      7668.16       1.0487766     0.012955191
      7675.83       1.0762590     0.012392034
      7683.50       1.1024956     0.012934388
      7691.19       1.1308240     0.012398367
      7698.88       1.1621023     0.012418138
      7706.58       1.1888780     0.012408708
      7714.29       1.2200371     0.012414809
      7722.00       1.2442901     0.012425820
      7729.73       1.2821409     0.012421375
      7737.45       1.3110934     0.013084401
      7745.19       1.3385425     0.012436173
      7752.94       1.3639700     0.013069310
      7760.69       1.3726414     0.012457222
      7768.45       1.3857261     0.013053282
      7776.22       1.3868235     0.012465436
      7784.00       1.3892176     0.012509806
      7791.78       1.3872866     0.012472416
      7799.57       1.3824849     0.012494291
      7807.37       1.3728146     0.012481012
      7815.18       1.3504864     0.012480066
      7822.99       1.3339345     0.012491749
      7830.82       1.2999734     0.012474614
      7838.65       1.2799437     0.012512262
      7846.49       1.2483525     0.012476160
      7854.34       1.2192497     0.013087129
      7862.19       1.1956146     0.012481170
      7870.05       1.1704284     0.012533591
      7877.93       1.1490466     0.012487057
      7885.80       1.1336570     0.012510519
      7893.69       1.1125964     0.012492299
      7901.58       1.0888489     0.012495936
      7909.49       1.0672089     0.012506679
      7917.40       1.0497638     0.012482953
      7925.31       1.0297912     0.012524139
      7933.24       1.0214291     0.012495575
      7941.17       1.0024047     0.011952166
      7949.11      0.98757994     0.012542921
      7957.06      0.96661603     0.012688117
      7965.02      0.94635147     0.012648531
      7972.98      0.91371563     0.012837040
      7980.96      0.89323828     0.012833468
      7988.94      0.86485831     0.013088069
      7996.93      0.84653000     0.013121090
      8004.93      0.83322078     0.013406425
      8012.93      0.81770809     0.012996325
      8020.95      0.80245459     0.013772340
      8028.97      0.78872639     0.014047441
      8036.99      0.77289153     0.014006013
      8045.03      0.76235220     0.014160080
      8053.08      0.74486662     0.014156785
      8061.13      0.72376646     0.014247979
      8069.20      0.70652386     0.014284450
      8077.26      0.68852411     0.014325701
      8085.34      0.67268793     0.013681414
      8093.43      0.65838288     0.014391038
      8101.52      0.64224758     0.014529041
      8109.62      0.62645601     0.014495560
      8117.73      0.60547196     0.014591916
      8125.85      0.58804372     0.014604810
      8133.98      0.57151067     0.014650702
      8142.11      0.55100986     0.014051583
      8150.25      0.54212767     0.014717191
      8158.41      0.52815514     0.014079878
      8166.56      0.51220873     0.014897049
      8174.73      0.49542034     0.015006053
      8182.91      0.48212885     0.015002632
      8191.09      0.47104865     0.015041434
      8199.28      0.46204186     0.014408343
      8207.48      0.44305965     0.015106969
      8215.69      0.43095139     0.014446313
      8223.91      0.41872144     0.015212448
      8232.13      0.40744822     0.014529311
      8240.36      0.40346285     0.015332289
      8248.60      0.39891074     0.015450421
      8256.85      0.39622737     0.014862914
      8265.11      0.39818410     0.015599629
      8273.37      0.40045441     0.014971661
      8281.65      0.40307298     0.015775799
      8289.93      0.41585015     0.015101417
      8298.22      0.43206961     0.015443129
      8306.52      0.45028987     0.016172643
      8314.83      0.47009447     0.015572527
      8323.14      0.48918113     0.016379670
      8331.46      0.50321248     0.015729501
      8339.80      0.52729102     0.016619347
      8348.13      0.54482634     0.015914819
      8356.48      0.57219725     0.016295792
      8364.84      0.59383469     0.017104174
      8373.21      0.61003933     0.016461278
      8381.58      0.63187945     0.017354658
      8389.96      0.65600864     0.016649297
      8398.35      0.68644780     0.017079504
      8406.75      0.72957620     0.016856394
      8415.16      0.77298322     0.017235528
      8423.57      0.81722452     0.018127951
      8432.00      0.87622717     0.017419748
      8440.43      0.94158530     0.018404960
      8448.87       1.0035391     0.017633259
      8457.32       1.0829947     0.018065564
      8465.78       1.1631862     0.018963626
      8474.25       1.2523784     0.018257246
      8482.72       1.3383976     0.019260672
      8491.20       1.4380700     0.018485594
      8499.69       1.5514472     0.018976683
      8508.19       1.6437262     0.018742296
      8516.70       1.7608701     0.019175293
      8525.22       1.8545380     0.020204451
      8533.75       1.9544206     0.019405986
      8542.28       2.0574834     0.019941521
      8550.82       2.1350369     0.019668277
      8559.37       2.2394763     0.020135931
      8567.93       2.3265367     0.021191117
      8576.50       2.3934299     0.020368106
      8585.08       2.4503489     0.020950277
      8593.66       2.4827532     0.020642279
      8602.26       2.4984239     0.021156198
      8610.86       2.5054205     0.020960942
      8619.47       2.4995065     0.021403404
      8628.09       2.4641046     0.022033422
      8636.72       2.4420887     0.021698310
      8645.36       2.3723370     0.022247801
      8654.00       2.3405680     0.022035270
      8662.66       2.2718728     0.022511433
      8671.32       2.2092364     0.023177763
      8679.99       2.1678678     0.022823374
      8688.67       2.1040659     0.023403392
      8697.36       2.0600466     0.023182570
      8706.06       2.0071392     0.023684878
      8714.76       1.9808574     0.024396078
      8723.48       1.9410615     0.023447699
      8732.21       1.8887742     0.023482633
      8740.93       1.8619769     0.023877640
      8749.68       1.8060654     0.023196660
      8758.43       1.7626268     0.023978311
      8767.19       1.7068796     0.023695844
      8775.96       1.6497784     0.024525412
      8784.73       1.5811055     0.023978287
      8793.52       1.5038252     0.024832715
      8802.31       1.4475547     0.024807500
      8811.11       1.3492800     0.025708421
      8819.92       1.2892169     0.025303894
      8828.75       1.2012335     0.026236130
      8837.57       1.1486327     0.025991438
      8846.41       1.0889239     0.026759910
      8855.26       1.0456091     0.026110078
      8864.12       1.0081665     0.025549350
      8872.98      0.96561785     0.026656401
      8881.85      0.93496246     0.025986654
      8890.73      0.90827300     0.026508684
      8899.63      0.88712318     0.026010864
      8908.52      0.87301579     0.026883087
      8917.43      0.85319670     0.026434280
      8926.35      0.84386008     0.026891027
      8935.28      0.83151183     0.026452752
      8944.22      0.82798354     0.027122643
      8953.16      0.82338607     0.026970621
      8962.11      0.82857766     0.027605582
      8971.08      0.82939833     0.027514055
      8980.05      0.84001637     0.028709040
      8989.03      0.84692956     0.028951093
      8998.02      0.85658095     0.029408982
      9007.02      0.87262881     0.030253177
      9016.02      0.88756780     0.030951097
      9025.04      0.90591628     0.033494927
      9034.07      0.92602816     0.035297368
      9043.10      0.94689436     0.036119742
      9052.14      0.97272476     0.038756087
      9061.20      0.99938821     0.045475404
      9070.26       1.0322835     0.050973149
      9079.33       1.0677719     0.053611292
      9088.41       1.1058034     0.061369065
      9097.50       1.1433475     0.081495076
