# starting wavelength =        3488.7200
# ending wavelength =        9767.8300
# O2 telluric scale =        0
# O2 telluric shift =        0
# H2O telluric scale =        0
# H2O telluric shift =        0
      3491.86      0.33241389     0.010218138
      3495.35      0.32570744    0.0087518776
      3498.84      0.31760849    0.0079623880
      3502.34      0.30932355    0.0070012049
      3505.84      0.30127397    0.0060076666
      3509.35      0.29399568    0.0054737037
      3512.86      0.28740467    0.0050610906
      3516.37      0.28094553    0.0048319097
      3519.89      0.27427502    0.0045619021
      3523.41      0.26781083    0.0042786476
      3526.93      0.26317279    0.0041266030
      3530.46      0.25870515    0.0040029297
      3533.99      0.25464887    0.0039334157
      3537.53      0.25268240    0.0038433055
      3541.06      0.25131746    0.0037666028
      3544.60      0.25077917    0.0037061144
      3548.15      0.24857077    0.0036529555
      3551.70      0.24538260    0.0036255829
      3555.25      0.24186664    0.0035825242
      3558.80      0.23560619    0.0036204006
      3562.36      0.23082589    0.0036767719
      3565.92      0.22988994    0.0036742906
      3569.49      0.22891774    0.0037321243
      3573.06      0.22925527    0.0037687102
      3576.64      0.23528192    0.0038055540
      3580.21      0.23639569    0.0038236643
      3583.79      0.23506232    0.0038597633
      3587.38      0.23319394    0.0038961142
      3590.96      0.23181465    0.0039551227
      3594.55      0.22873476    0.0039499600
      3598.15      0.22721654    0.0040084540
      3601.75      0.22292125    0.0040450041
      3605.35      0.21743203    0.0040819643
      3608.96      0.21374000    0.0041421194
      3612.56      0.21181483    0.0041340494
      3616.18      0.21150257    0.0041704589
      3619.79      0.21035229    0.0042315977
      3623.41      0.20755505    0.0042673418
      3627.04      0.20751223    0.0042581522
      3630.66      0.20781896    0.0043203810
      3634.29      0.20898457    0.0043554578
      3637.93      0.21040296    0.0043908961
      3641.57      0.21222912    0.0044541029
      3645.21      0.21704242    0.0044428497
      3648.86      0.22088692    0.0045053953
      3652.50      0.22836805    0.0045409011
      3656.16      0.23825897    0.0045766958
      3659.81      0.24652024    0.0046414483
      3663.47      0.25570214    0.0046269848
      3667.14      0.26620385    0.0046620520
      3670.80      0.27178502    0.0047282930
      3674.48      0.27688400    0.0047625588
      3678.15      0.28291293    0.0047971524
      3681.83      0.28700575    0.0048146169
      3685.51      0.29411005    0.0048480659
      3689.20      0.30185607    0.0048818938
      3692.88      0.30819106    0.0049489053
      3696.58      0.31011295    0.0049837336
      3700.27      0.30901371    0.0050190504
      3703.98      0.30543002    0.0050331619
      3707.68      0.29802074    0.0050671418
      3711.39      0.29085190    0.0051016017
      3715.10      0.28406035    0.0051364067
      3718.81      0.27741972    0.0052055971
      3722.53      0.26712947    0.0052394011
      3726.26      0.25791807    0.0052176469
      3729.98      0.24731040    0.0052891143
      3733.71      0.23484383    0.0053219733
      3737.45      0.22253724    0.0053551172
      3741.18      0.21080237    0.0054270909
      3744.93      0.19950389    0.0054612675
      3748.67      0.19000245    0.0054366183
      3752.42      0.17911974    0.0055083160
      3756.17      0.16865781    0.0055414183
      3759.93      0.16200610    0.0055749278
      3763.69      0.15771416    0.0056087729
      3767.45      0.15339252    0.0056828590
      3771.22      0.15013165    0.0057155429
      3774.99      0.14787221    0.0056867999
      3778.77      0.14565387    0.0057641059
      3782.54      0.14219514    0.0057956999
      3786.33      0.14050785    0.0058275588
      3790.11      0.14160336    0.0059042223
      3793.90      0.14333997    0.0059371054
      3797.70      0.14485398    0.0059703539
      3801.50      0.14719582    0.0060038983
      3805.30      0.15081694    0.0060151215
      3809.10      0.15453537    0.0060470938
      3812.91      0.15976591    0.0060793584
      3816.73      0.16611687    0.0061118632
      3820.54      0.17324559    0.0061926264
      3824.36      0.17996352    0.0062237811
      3828.19      0.18800994    0.0062553089
      3832.02      0.19866014    0.0063375925
      3835.85      0.21039760    0.0063700218
      3839.68      0.22378867    0.0063322453
      3843.52      0.23865039    0.0063627644
      3847.37      0.25443815    0.0064448650
      3851.22      0.27315112    0.0064762604
      3855.07      0.29427184    0.0065078331
      3858.92      0.31799472    0.0065396453
      3862.78      0.34287197    0.0066258399
      3866.64      0.37087306    0.0066562901
      3870.51      0.40140801    0.0066870167
      3874.38      0.43374397    0.0067179307
      3878.26      0.46301838    0.0068064783
      3882.13      0.49293114    0.0068382052
      3886.02      0.51966974    0.0067918313
      3889.90      0.54729647    0.0068215177
      3893.79      0.57389496    0.0069096391
      3897.69      0.60082927    0.0069401948
      3901.59      0.62526475    0.0069708144
      3905.49      0.64710014    0.0070017085
      3909.39      0.66734992    0.0070951553
      3913.30      0.68440214    0.0071243208
      3917.22      0.69637814    0.0071539136
      3921.13      0.70327567    0.0071836623
      3925.06      0.70818721    0.0072781686
      3928.98      0.70721350    0.0073088040
      3932.91      0.70162349    0.0073393831
      3936.84      0.69367084    0.0073702507
      3940.78      0.68775684    0.0074678085
      3944.72      0.67889919    0.0074969190
      3948.67      0.66829233    0.0075263541
      3952.61      0.65759268    0.0075558777
      3956.57      0.64827422    0.0075854814
      3960.52      0.64485088    0.0075991066
      3964.48      0.63878828    0.0076267003
      3968.45      0.63594952    0.0076546265
      3972.42      0.63708836    0.0076828245
      3976.39      0.64086864    0.0077839112
      3980.37      0.64794468    0.0078126096
      3984.35      0.66210018    0.0078414278
      3988.33      0.68259440    0.0078703993
      3992.32      0.70967586    0.0078993485
      3996.31      0.73763021    0.0080098672
      4000.31      0.77378266    0.0080371269
      4004.31      0.81302184    0.0080645395
      4008.31      0.85329731    0.0080921705
      4012.32      0.89017241    0.0081196352
      4016.33      0.92036944    0.0082286163
      4020.35      0.94984527    0.0082567311
      4024.37      0.97277804    0.0082847740
      4028.40      0.98891597    0.0083132497
      4032.42      0.99768361    0.0083412599
      4036.46      0.99960238    0.0084605001
      4040.50      0.99110002    0.0084872357
      4044.54      0.97501369    0.0085136886
      4048.58      0.95131870    0.0085406307
      4052.63      0.92041123    0.0085671604
      4056.68      0.88619435    0.0086844893
      4060.74      0.84472392    0.0087116485
      4064.80      0.80082101    0.0087387018
      4068.86      0.75741025    0.0087660155
      4072.93      0.71565907    0.0087931393
      4077.01      0.67392565    0.0089394236
      4081.08      0.63926343    0.0090665875
      4085.17      0.60652094    0.0090946254
      4089.25      0.57602595    0.0091222819
      4093.34      0.54734095    0.0091502537
      4097.43      0.52069458    0.0091778601
      4101.53      0.49686718    0.0092054749
      4105.63      0.47575076    0.0093376783
      4109.74      0.45776256    0.0093633797
      4113.85      0.44141327    0.0093894871
      4117.96      0.42756150    0.0094154563
      4122.08      0.41743939    0.0094412585
      4126.20      0.40992608    0.0094675258
      4130.33      0.40463297    0.0094930459
      4134.46      0.40153133    0.0095190109
      4138.59      0.39940248    0.0095444519
      4142.73      0.39766765    0.0095699447
      4146.88      0.39607782    0.0094624113
      4151.02      0.39662747    0.0094870757
      4155.18      0.39736110    0.0095120452
      4159.33      0.39624342    0.0095366164
      4163.49      0.39295316    0.0095612121
      4167.65      0.38902238    0.0095858419
      4171.82      0.38476499    0.0096100254
      4175.99      0.38065435    0.0096344025
      4180.17      0.37706431    0.0096583145
      4184.35      0.37357798    0.0096821761
      4188.54      0.36984304    0.0097060332
      4192.72      0.36661321    0.0097293694
      4196.92      0.36509516    0.0097528699
      4201.11      0.36569774    0.0097758845
      4205.31      0.36865496    0.0097988366
      4209.52      0.37335030    0.0098217599
      4213.73      0.37943273    0.0098441221
      4217.94      0.38683642    0.0098667260
      4222.16      0.39581656    0.0098888253
      4226.38      0.40622372    0.0099108741
      4230.61      0.41630907    0.0099329705
      4234.84      0.42405809    0.0099545593
      4239.08      0.42985603    0.0099764599
      4243.32      0.43437050    0.0099974568
      4247.56      0.43870291     0.010018728
      4251.81      0.44167901     0.010039587
      4256.06      0.44263736     0.010060387
      4260.32      0.44164778     0.010081222
      4264.58      0.43953898     0.010101529
      4268.84      0.43621143     0.010122066
      4273.11      0.43280486     0.010142135
      4277.38      0.43013102     0.010162138
      4281.66      0.42768276     0.010182139
      4285.94      0.42582375     0.010201634
      4290.23      0.42553802     0.010221317
      4294.52      0.42675262     0.010240567
      4298.81      0.42943379     0.010259807
      4303.11      0.43328299     0.010279037
      4307.42      0.43861708     0.010182191
      4311.72      0.44267993     0.010200863
      4316.04      0.44653699     0.010219421
      4320.35      0.45086173     0.010237990
      4324.67      0.45442412     0.010256489
      4329.00      0.45723289     0.010274835
      4333.33      0.45940787     0.010293138
      4337.66      0.46141268     0.010311303
      4342.00      0.46251888     0.010329551
      4346.34      0.46284648     0.010347792
      4350.69      0.46304340     0.010366098
      4355.04      0.46335998     0.010384315
      4359.39      0.46333956     0.010402462
      4363.75      0.46250629     0.010420721
      4368.12      0.46159583     0.010316091
      4372.48      0.46028166     0.010331796
      4376.86      0.45784351     0.010347771
      4381.23      0.45395223     0.010363572
      4385.61      0.44874205     0.010379226
      4390.00      0.44255805     0.010395196
      4394.39      0.43461808     0.010547692
      4398.79      0.42643923     0.010563818
      4403.18      0.41826313     0.010580143
      4407.59      0.40962947     0.010596560
      4412.00      0.40069368     0.010494831
      4416.41      0.39309048     0.010508547
      4420.82      0.38672215     0.010522144
      4425.25      0.38094873     0.010535920
      4429.67      0.37695907     0.010549820
      4434.10      0.37569512     0.010563688
      4438.54      0.37780313     0.010577983
      4442.97      0.38314560     0.010592337
      4447.42      0.39160856     0.010606724
      4451.86      0.40278052     0.010506842
      4456.32      0.41650928     0.010655958
      4460.77      0.43253303     0.010667708
      4465.24      0.45095144     0.010679483
      4469.70      0.47226146     0.010691793
      4474.17      0.49636434     0.010704196
      4478.65      0.52348847     0.010716749
      4483.12      0.55431503     0.010613654
      4487.61      0.58677104     0.010626691
      4492.09      0.62178695     0.010640573
      4496.59      0.65872378     0.010654441
      4501.08      0.69686519     0.010798334
      4505.58      0.73434832     0.010809022
      4510.09      0.77038112     0.010820027
      4514.60      0.80411997     0.010713907
      4519.12      0.83471671     0.010725888
      4523.63      0.86242691     0.010738528
      4528.16      0.88726408     0.010751275
      4532.69      0.91042097     0.010765039
      4537.22      0.93232841     0.010778954
      4541.76      0.95273006     0.010797214
      4546.30      0.97118764     0.010807546
      4550.85      0.98717688     0.010818681
      4555.40       1.0010736     0.010830584
      4559.95       1.0128451     0.010842673
      4564.51       1.0246061     0.010855959
      4569.08       1.0363517     0.010741375
      4573.65       1.0499937     0.010883981
      4578.22       1.0672843     0.010893781
      4582.80       1.0867609     0.010904551
      4587.38       1.1072758     0.010916289
      4591.97       1.1304516     0.010804506
      4596.56       1.1509464     0.010812405
      4601.16       1.1692718     0.010820806
      4605.76       1.1866626     0.010964222
      4610.37       1.2009813     0.010974340
      4614.98       1.2148536     0.010864504
      4619.59       1.2249994     0.010870641
      4624.21       1.2316279     0.010878084
      4628.84       1.2324871     0.010886397
      4633.47       1.2266081     0.011029956
      4638.10       1.2096665     0.010919716
      4642.74       1.1868597     0.010924874
      4647.38       1.1577207     0.010931527
      4652.03       1.1233507     0.010938541
      4656.68       1.0809182     0.010832528
      4661.34       1.0365615     0.010970210
      4666.00      0.99596304     0.010974761
      4670.67      0.95785449     0.010980450
      4675.33      0.92265820     0.010987234
      4680.01      0.89087350     0.010880131
      4684.69      0.86297415     0.011016556
      4689.38      0.84176281     0.011020692
      4694.07      0.82578480     0.011026045
      4698.76      0.81737126     0.010917254
      4703.46      0.81191914     0.010925268
      4708.16      0.81209046     0.011059120
      4712.87      0.81416867     0.011063015
      4717.58      0.81950894     0.010952434
      4722.30      0.82459850     0.010959431
      4727.03      0.83010565     0.010968031
      4731.75      0.83630341     0.011097462
      4736.48      0.83859363     0.010985178
      4741.22      0.83788124     0.010991594
      4745.96      0.83426665     0.010999316
      4750.71      0.82786309     0.011011856
      4755.46      0.81874589     0.011015757
      4760.22      0.80690230     0.011021710
      4764.97      0.79192649     0.011029181
      4769.74      0.77280256     0.010913001
      4774.51      0.75260004     0.011044271
      4779.29      0.73009122     0.011049965
      4784.07      0.70622722     0.011057443
      4788.85      0.67989467     0.010939496
      4793.64      0.65489738     0.011070820
      4798.43      0.63457741     0.011076332
      4803.23      0.61682611     0.010961884
      4808.03      0.60554186     0.010963533
      4812.84      0.59876183     0.011095435
      4817.66      0.60252998     0.010983581
      4822.48      0.61343805     0.010983582
      4827.30      0.63266893     0.010985732
      4832.12      0.66102655     0.011118214
      4836.96      0.69727141     0.011002761
      4841.79      0.72916623     0.011003388
      4846.63      0.76035118     0.011006259
      4851.48      0.79478953     0.011021008
      4856.33      0.81614495     0.011020213
      4861.19      0.83078798     0.011021661
      4866.05      0.83770335     0.011037914
      4870.92      0.83482344     0.011035658
      4875.79      0.82430236     0.011035905
      4880.66      0.80340972     0.010926829
      4885.55      0.77980406     0.011050266
      4890.43      0.75617344     0.011049518
      4895.32      0.73008902     0.010939154
      4900.22      0.70435349     0.011063405
      4905.12      0.68879153     0.011061898
      4910.02      0.68071545     0.010950621
      4914.94      0.67862731     0.011075077
      4919.85      0.68663335     0.011072826
      4924.77      0.70297064     0.010960697
      4929.70      0.72311439     0.010964376
      4934.62      0.74997652     0.011082195
      4939.56      0.78020973     0.010969683
      4944.50      0.81057912     0.010973046
      4949.44      0.84668515     0.010977430
      4954.39      0.87747444     0.010977503
      4959.35      0.90578353     0.010980824
      4964.31      0.93444736     0.010984253
      4969.27      0.95656140     0.010984673
      4974.24      0.97372500     0.010988153
      4979.22      0.98769305     0.010990101
      4984.20      0.99191935     0.010990649
      4989.18      0.98771638     0.010876426
      4994.17      0.97575354     0.010994723
      4999.16      0.95372846     0.010995627
      5004.16      0.92019595     0.010879677
      5009.17      0.88156380     0.010998224
      5014.18      0.83447438     0.010886186
      5019.19      0.78999013     0.010881644
      5024.21      0.74110461     0.011001258
      5029.23      0.69459972     0.010886548
      5034.26      0.65532253     0.010883106
      5039.30      0.61738292     0.010891970
      5044.34      0.59216703     0.010886196
      5049.39      0.57236905     0.011003963
      5054.43      0.56526614     0.010889916
      5059.49      0.56579328     0.010885066
      5064.55      0.57931023     0.010894275
      5069.61      0.59624323     0.010887052
      5074.68      0.61872604     0.010884213
      5079.76      0.65023376     0.010889421
      5084.84      0.67910257     0.010884335
      5089.92      0.71255930     0.010892072
      5095.01      0.74103354     0.010884698
      5100.11      0.76925866     0.010773879
      5105.21      0.79597365     0.010885231
      5110.31      0.81827754     0.010879687
      5115.42      0.83776122     0.010771334
      5120.54      0.85560597     0.010878254
      5125.66      0.87114910     0.010768069
      5130.79      0.88508748     0.010876933
      5135.92      0.89695878     0.010764937
      5141.05      0.90667788     0.010764695
      5146.20      0.91359422     0.010761933
      5151.34      0.91965152     0.010760025
      5156.49      0.92372995     0.010758730
      5161.65      0.92804933     0.010755371
      5166.81      0.93141332     0.010862840
      5171.98      0.93349665     0.010750566
      5177.15      0.93489967     0.010750845
      5182.33      0.93416545     0.010745528
      5187.51      0.93437172     0.010744559
      5192.70      0.93203035     0.010740143
      5197.89      0.93310823     0.010738017
      5203.09      0.93412960     0.010734364
      5208.29      0.93784768     0.010731193
      5213.50      0.94514857     0.010616524
      5218.72      0.95604825     0.010724053
      5223.93      0.97263852     0.010610101
      5229.16      0.98977657     0.010716763
      5234.39       1.0092770     0.010603352
      5239.62       1.0282673     0.010709302
      5244.86       1.0465296     0.010596038
      5250.11       1.0653325     0.010701237
      5255.36       1.0807459     0.010588175
      5260.61       1.0973487     0.010692693
      5265.87       1.1116242     0.010579707
      5271.14       1.1266798     0.010572629
      5276.41       1.1408600     0.010570613
      5281.69       1.1544392     0.010563241
      5286.97       1.1673223     0.010560973
      5292.26       1.1798784     0.010553418
      5297.55       1.1915558     0.010550813
      5302.85       1.2023939     0.010442310
      5308.15       1.2129582     0.010540650
      5313.46       1.2251855     0.010431818
      5318.77       1.2395147     0.010529048
      5324.09       1.2533635     0.010420920
      5329.42       1.2672876     0.010517443
      5334.75       1.2820100     0.010409692
      5340.08       1.2954774     0.010505381
      5345.42       1.3085505     0.010398123
      5350.77       1.3173582     0.010492855
      5356.12       1.3250054     0.010386200
      5361.48       1.3303765     0.010379377
      5366.83       1.3304740     0.010373978
      5372.20       1.3281507     0.010366133
      5377.58       1.3186970     0.010361505
      5382.95       1.3015336     0.010352565
      5388.34       1.2801028     0.010348840
      5393.72       1.2488946     0.010338763
      5399.12       1.2151789     0.010230280
      5404.52       1.1817113     0.010324708
      5409.92       1.1462539     0.010317544
      5415.33       1.1221203     0.010310871
      5420.75       1.0992325     0.010302261
      5426.17       1.0909026     0.010195409
      5431.60       1.0893713     0.010286955
      5437.03       1.1038876     0.010178802
      5442.47       1.1258079     0.010271658
      5447.91       1.1595506     0.010162123
      5453.36       1.2029772     0.010157797
      5458.81       1.2447374     0.010145456
      5464.27       1.2973304     0.010139436
      5469.73       1.3464783     0.010230123
      5475.20       1.3906642     0.010121019
      5480.68       1.4318317     0.010116484
      5486.16       1.4594735     0.010102964
      5491.65       1.4812527     0.010096668
      5497.14       1.4894995     0.010085376
      5502.64       1.4865111     0.010077276
      5508.14       1.4695779     0.010071961
      5513.65       1.4461865     0.010058270
      5519.16       1.4087109     0.010050956
      5524.68       1.3666456    0.0099464157
      5530.20       1.3216617     0.010030454
      5535.73       1.2746725    0.0099287001
      5541.27       1.2262509    0.0099173845
      5546.81       1.1844205     0.010002064
      5552.36       1.1503942    0.0098984532
      5557.91       1.1215201    0.0098877846
      5563.47       1.1012678    0.0099727669
      5569.04       1.0934879    0.0098677022
      5574.60       1.0944219    0.0098576695
      5580.18       1.1009396    0.0098490215
      5585.76       1.1190983    0.0098367641
      5591.35       1.1444070    0.0098265474
      5596.94       1.1673281    0.0098169687
      5602.53       1.1974135    0.0098046327
      5608.14       1.2232114    0.0097019579
      5613.75       1.2471024    0.0097841025
      5619.36       1.2685752    0.0097718148
      5624.98       1.2815194    0.0096693096
      5630.60       1.2890998    0.0097506000
      5636.23       1.2892134    0.0097381783
      5641.87       1.2796511    0.0096355234
      5647.51       1.2635918    0.0097163988
      5653.16       1.2379369    0.0097033587
      5658.82       1.2048343    0.0096009683
      5664.47       1.1663356    0.0096812419
      5670.14       1.1213960    0.0095767858
      5675.81       1.0712202    0.0095651427
      5681.48       1.0177002    0.0095550822
      5687.17      0.96661481    0.0095408220
      5692.85      0.91128821    0.0095286815
      5698.55      0.85744174    0.0095181435
      5704.25      0.80800685    0.0094185261
      5709.95      0.76128097    0.0094916612
      5715.66      0.71802130    0.0094798610
      5721.38      0.68050614    0.0094696820
      5727.10      0.65094899    0.0094535238
      5732.83      0.62563490    0.0094409858
      5738.56      0.60702316    0.0094296695
      5744.30      0.59613350    0.0093297618
      5750.04      0.59285587    0.0094014360
      5755.79      0.59761787    0.0093888904
      5761.55      0.61343569    0.0092912152
      5767.31      0.63973529    0.0092766564
      5773.08      0.67427278    0.0093481430
      5778.85      0.72035792    0.0092528617
      5784.63      0.77571698    0.0092372275
      5790.41      0.83771968    0.0092226817
      5796.21      0.90099354    0.0092933685
      5802.00      0.96787483    0.0091979136
      5807.81       1.0384631    0.0091823601
      5813.61       1.1081463    0.0091686421
      5819.43       1.1716980    0.0090730994
      5825.25       1.2317931    0.0091453190
      5831.07       1.2846668    0.0091298212
      5836.90       1.3254897    0.0091158678
      5842.74       1.3543351    0.0090224701
      5848.58       1.3744741    0.0090156979
      5854.43       1.3878194    0.0090903360
      5860.29       1.3915512    0.0090833543
      5866.15       1.3920675    0.0089946557
      5872.01       1.3882762    0.0089908022
      5877.89       1.3829968    0.0089864938
      5883.76       1.3769088    0.0090581389
      5889.65       1.3708010    0.0089631491
      5895.54       1.3636222    0.0089502160
      5901.43       1.3575232    0.0089363327
      5907.34       1.3526789    0.0089211954
      5913.24       1.3492712    0.0089032527
      5919.16       1.3482521    0.0088848937
      5925.08       1.3496028    0.0088676033
      5931.00       1.3520260    0.0088511337
      5936.93       1.3530402    0.0088339536
      5942.87       1.3507084    0.0087364008
      5948.81       1.3458206    0.0087937529
      5954.76       1.3397627    0.0087722796
      5960.72       1.3308907    0.0087515370
      5966.68       1.3193079    0.0086564244
      5972.64       1.3053386    0.0086323468
      5978.62       1.2889872    0.0086088378
      5984.60       1.2717374    0.0085879721
      5990.58       1.2533745    0.0086451585
      5996.57       1.2323147    0.0086240246
      6002.57       1.2105660    0.0085306309
      6008.57       1.1870341    0.0085096499
      6014.58       1.1636624    0.0084903356
      6020.60       1.1416266    0.0084716095
      6026.62       1.1224784    0.0084535949
      6032.65       1.1085571    0.0083637322
      6038.68       1.0976832    0.0084233244
      6044.72       1.0917786    0.0084047511
      6050.76       1.0907503    0.0083862914
      6056.81       1.0936316    0.0083683575
      6062.87       1.0995569    0.0083505550
      6068.93       1.1061765    0.0082611596
      6075.00       1.1139575    0.0082439397
      6081.08       1.1210908    0.0082266685
      6087.16       1.1259582    0.0082095925
      6093.25       1.1277250    0.0081926166
      6099.34       1.1279395    0.0082471085
      6105.44       1.1234321    0.0082287387
      6111.54       1.1165266    0.0081397693
      6117.66       1.1064660    0.0081218925
      6123.78       1.0958813    0.0081038949
      6129.90       1.0874902    0.0080860256
      6136.03       1.0824512    0.0080682888
      6142.17       1.0819089    0.0080504022
      6148.31       1.0869210    0.0080327408
      6154.46       1.0978612    0.0080149158
      6160.61       1.1140360    0.0079290980
      6166.77       1.1342388    0.0079104807
      6172.94       1.1575256    0.0078918416
      6179.11       1.1823695    0.0078734069
      6185.29       1.2070536    0.0078547697
      6191.48       1.2300857    0.0078365938
      6197.67       1.2493283    0.0078869097
      6203.87       1.2641731    0.0078718948
      6210.07       1.2734743    0.0078569090
      6216.28       1.2768248    0.0077758084
      6222.50       1.2757551    0.0077573695
      6228.72       1.2701276    0.0077439606
      6234.95       1.2603487    0.0077350583
      6241.19       1.2490351    0.0077305575
      6247.42       1.2367544    0.0077289224
      6253.67       1.2241047    0.0077286407
      6259.93       1.2116843    0.0077273886
      6266.19       1.1996626    0.0077231957
      6272.46       1.1879358    0.0077144001
      6278.73       1.1762292    0.0076995256
      6285.01       1.1643346    0.0076782102
      6291.29       1.1523101    0.0076509346
      6297.58       1.1403071    0.0076186980
      6303.88       1.1284784    0.0075838304
      6310.19       1.1170080    0.0075489610
      6316.50       1.1063490    0.0074566684
      6322.81       1.0964434    0.0074297234
      6329.14       1.0877199    0.0074042988
      6335.47       1.0806962    0.0073759485
      6341.80       1.0758368    0.0073489206
      6348.14       1.0736441    0.0073241276
      6354.49       1.0745793    0.0072997029
      6360.85       1.0789474    0.0072757609
      6367.21       1.0875487    0.0071910464
      6373.57       1.0989366    0.0071685864
      6379.95       1.1132469    0.0071468140
      6386.33       1.1297747    0.0071257290
      6392.72       1.1476349    0.0071054108
      6399.11       1.1658187    0.0070855859
      6405.51       1.1833575    0.0070659328
      6411.92       1.1994033    0.0070463009
      6418.32       1.2132547    0.0070274321
      6424.74       1.2244834    0.0070096881
      6431.17       1.2327706    0.0069935979
      6437.60       1.2379452    0.0069798067
      6444.04       1.2399650    0.0069667487
      6450.48       1.2390134    0.0069521381
      6456.94       1.2355385    0.0069365632
      6463.39       1.2290511    0.0068606945
      6469.85       1.2231089    0.0068435699
      6476.33       1.2173644    0.0068250592
      6482.80       1.2128478    0.0068048115
      6489.28       1.2106020    0.0067830628
      6495.77       1.2106969    0.0068140637
      6502.27       1.2154170    0.0067909423
      6508.77       1.2235273    0.0067683408
      6515.28       1.2342934    0.0067466098
      6521.80       1.2465172    0.0067257106
      6528.32       1.2599827    0.0066482608
      6534.85       1.2706860    0.0066258237
      6541.38       1.2792981    0.0066025545
      6547.92       1.2852796    0.0065788621
      6554.47       1.2882208    0.0065554714
      6561.03       1.2878765    0.0065329574
      6567.59       1.2842320    0.0065106675
      6574.16       1.2766120    0.0064333438
      6580.73       1.2678390    0.0064102061
      6587.31       1.2576433    0.0063883249
      6593.90       1.2456612    0.0064157900
      6600.50       1.2346910    0.0063942728
      6607.10       1.2244297    0.0063731170
      6613.70       1.2153592    0.0063522900
      6620.32       1.2082077    0.0062794595
      6626.94       1.2014864    0.0062592823
      6633.57       1.1950673    0.0062390387
      6640.20       1.1882551    0.0062191234
      6646.84       1.1805745    0.0061994126
      6653.49       1.1718336    0.0061799971
      6660.14       1.1615089    0.0061535364
      6666.80       1.1511969    0.0061333312
      6673.47       1.1407007    0.0061131800
      6680.14       1.1304300    0.0060933626
      6686.82       1.1207964    0.0060736404
      6693.51       1.1121835    0.0060027188
      6700.20       1.1054779    0.0059824041
      6706.90       1.1007371    0.0059621277
      6713.61       1.0978889    0.0059874109
      6720.32       1.0974623    0.0059675890
      6727.05       1.0994390    0.0058982453
      6733.77       1.1022518    0.0058777001
      6740.51       1.1061254    0.0058573920
      6747.25       1.1106158    0.0058372936
      6754.00       1.1162949    0.0058146652
      6760.75       1.1205567    0.0057937998
      6767.51       1.1241444    0.0057730838
      6774.28       1.1265347    0.0057530281
      6781.05       1.1270485    0.0057360020
      6787.84       1.1247998    0.0056924111
      6794.62       1.1199718    0.0057308624
      6801.42       1.1121999    0.0057075252
      6808.22       1.1029833    0.0056837358
      6815.03       1.0927077    0.0056443217
      6821.85       1.0829826    0.0056649588
      6828.67       1.0725460    0.0057538865
      6835.50       1.0625109    0.0058076701
      6842.33       1.0524750    0.0058329921
      6849.17       1.0432128    0.0058955924
      6856.02       1.0347128    0.0059512373
      6862.88       1.0268538    0.0059995285
      6869.74       1.0214063    0.0060070978
      6876.61       1.0181814    0.0059883834
      6883.49       1.0175239    0.0059438670
      6890.37       1.0201449    0.0058123954
      6897.27       1.0250062    0.0057673325
      6904.16       1.0302011    0.0056821357
      6911.07       1.0359910    0.0055480851
      6917.98       1.0389504    0.0054908844
      6924.89       1.0397368    0.0054813431
      6931.82       1.0371184    0.0053766239
      6938.75       1.0328000    0.0053245303
      6945.69       1.0271056    0.0052858576
      6952.64       1.0203788    0.0052849826
      6959.59       1.0120231    0.0052084051
      6966.55       1.0059426    0.0051782202
      6973.52       1.0012925    0.0051520500
      6980.49      0.99747507    0.0051238663
      6987.47      0.99667745    0.0051024130
      6994.46      0.99798202    0.0050821940
      7001.46       1.0024510    0.0050566145
      7008.46       1.0095644    0.0050331497
      7015.46       1.0205527    0.0049685764
      7022.48       1.0319139    0.0049440183
      7029.51       1.0455943    0.0049524233
      7036.53       1.0575874    0.0048892704
      7043.57       1.0671444    0.0048670535
      7050.62       1.0747559    0.0048771636
      7057.66       1.0773261    0.0048153980
      7064.72       1.0783563    0.0047941204
      7071.79       1.0770267    0.0048057320
      7078.86       1.0746681    0.0047483125
      7085.94       1.0730515    0.0047326100
      7093.03       1.0716297    0.0046814404
      7100.12       1.0705721    0.0047015323
      7107.22       1.0713482    0.0046895462
      7114.33       1.0737400    0.0046419832
      7121.44       1.0781307    0.0046717879
      7128.56       1.0864010    0.0046428741
      7135.69       1.0963947    0.0046560479
      7142.83       1.1080682    0.0047161786
      7149.97       1.1194878    0.0047194697
      7157.12       1.1299599    0.0047850886
      7164.28       1.1379003    0.0047676810
      7171.44       1.1456617    0.0047708340
      7178.62       1.1529802    0.0047649109
      7185.80       1.1607260    0.0047492621
      7192.98       1.1685395    0.0047286436
      7200.17       1.1761558    0.0046942778
      7207.38       1.1845599    0.0046645099
      7214.58       1.1940160    0.0046028839
      7221.80       1.2038011    0.0046115088
      7229.02       1.2151275    0.0045603174
      7236.25       1.2257355    0.0045790071
      7243.49       1.2374733    0.0045249058
      7250.73       1.2477872    0.0045056863
      7257.98       1.2590413    0.0044723952
      7265.24       1.2664422    0.0044403222
      7272.51       1.2716378    0.0044310641
      7279.78       1.2703568    0.0043604835
      7287.06       1.2643675    0.0043280887
      7294.35       1.2518741    0.0042817183
      7301.64       1.2379156    0.0042447930
      7308.94       1.2202543    0.0041951195
      7316.25       1.2046403    0.0041594104
      7323.57       1.1874612    0.0041159336
      7330.89       1.1735753    0.0040858779
      7338.22       1.1615756    0.0040236562
      7345.56       1.1511451    0.0040230672
      7352.91       1.1451705    0.0039675286
      7360.26       1.1414010    0.0039712174
      7367.62       1.1416262    0.0039185051
      7374.99       1.1439778    0.0039221530
      7382.37       1.1488451    0.0038694845
      7389.75       1.1557679    0.0038444410
      7397.14       1.1619514    0.0038238954
      7404.53       1.1684297    0.0037763011
      7411.94       1.1749195    0.0037826606
      7419.35       1.1802062    0.0037370137
      7426.77       1.1842824    0.0037441612
      7434.20       1.1874321    0.0036996157
      7441.63       1.1888541    0.0037076358
      7449.07       1.1897036    0.0036645848
      7456.52       1.1885472    0.0036729604
      7463.98       1.1853008    0.0036307434
      7471.45       1.1792888    0.0036120822
      7478.92       1.1682602    0.0035981879
      7486.40       1.1543501    0.0035799102
      7493.88       1.1351417    0.0035671716
      7501.38       1.1113310    0.0035591796
      7508.88       1.0805265    0.0035728959
      7516.39       1.0436815    0.0036094493
      7523.91      0.99808864    0.0035840725
      7531.43      0.94403312    0.0035863131
      7538.96      0.88809384    0.0035565039
      7546.50      0.83659179    0.0036350398
      7554.05      0.78648448    0.0037563173
      7561.60      0.74406419    0.0039039733
      7569.16      0.70510704    0.0041212653
      7576.73      0.67615913    0.0043404575
      7584.31      0.65327443    0.0046232621
      7591.89      0.64582163    0.0048195863
      7599.49      0.65396875    0.0050179835
      7607.09      0.67820995    0.0050844215
      7614.70      0.72379377    0.0050385853
      7622.31      0.78151809    0.0048527043
      7629.93      0.83544893    0.0046510636
      7637.56      0.89447681    0.0043512741
      7645.20      0.94792801    0.0040782723
      7652.85      0.99930131    0.0038692898
      7660.50       1.0495671    0.0036760990
      7668.16       1.0965286    0.0035146831
      7675.83       1.1389770    0.0034182118
      7683.50       1.1779162    0.0033156935
      7691.19       1.2121384    0.0032563002
      7698.88       1.2405283    0.0032191775
      7706.58       1.2632735    0.0031742625
      7714.29       1.2811829    0.0031377116
      7722.00       1.2956873    0.0031153613
      7729.73       1.3054123    0.0030907921
      7737.45       1.3112827    0.0030712891
      7745.19       1.3143242    0.0030364132
      7752.94       1.3145784    0.0030432969
      7760.69       1.3125962    0.0030101419
      7768.45       1.3084565    0.0029973085
      7776.22       1.3034353    0.0030066170
      7784.00       1.2979201    0.0029752090
      7791.78       1.2914628    0.0029636244
      7799.57       1.2847210    0.0029527170
      7807.37       1.2773794    0.0029430734
      7815.18       1.2692980    0.0029321912
      7822.99       1.2600591    0.0029221041
      7830.82       1.2495520    0.0029137135
      7838.65       1.2377638    0.0029047471
      7846.49       1.2250945    0.0028965284
      7854.34       1.2117980    0.0028699679
      7862.19       1.1977480    0.0028825633
      7870.05       1.1824267    0.0028757489
      7877.93       1.1658732    0.0028494250
      7885.80       1.1480251    0.0028401427
      7893.69       1.1294499    0.0028308747
      7901.58       1.1115841    0.0028238240
      7909.49       1.0934454    0.0028143404
      7917.40       1.0767740    0.0028050549
      7925.31       1.0619837    0.0027959825
      7933.24       1.0487939    0.0027892478
      7941.17       1.0367730    0.0027806887
      7949.11       1.0255878    0.0027730590
      7957.06       1.0150981    0.0027481475
      7965.02       1.0054697    0.0027413097
      7972.98      0.99674470    0.0027534348
      7980.96      0.98967954    0.0027465374
      7988.94      0.98337158    0.0027217928
      7996.93      0.97801424    0.0027143860
      8004.93      0.97287658    0.0027071696
      8012.93      0.96744109    0.0027006503
      8020.95      0.95974606    0.0026946881
      8028.97      0.95191611    0.0026880112
      8036.99      0.94208863    0.0026821070
      8045.03      0.92942296    0.0026779264
      8053.08      0.91178604    0.0026584795
      8061.13      0.88943310    0.0026577965
      8069.20      0.86068074    0.0026757181
      8077.26      0.82454209    0.0026801011
      8085.34      0.78015556    0.0026884841
      8093.43      0.72817725    0.0026825611
      8101.52      0.66994000    0.0027002195
      8109.62      0.60682320    0.0027210587
      8117.73      0.54120350    0.0027445748
      8125.85      0.47549847    0.0027716610
      8133.98      0.41503205    0.0027917552
      8142.11      0.35308145    0.0028083276
      8150.25      0.29621414    0.0028112089
      8158.41      0.24718888    0.0028102701
      8166.56      0.20714855    0.0028080492
      8174.73      0.17627137    0.0028033058
      8182.91      0.15383387    0.0027791260
      8191.09      0.13928366    0.0027704606
      8199.28      0.13152342    0.0027600438
      8207.48      0.12855051    0.0027499738
      8215.69      0.12810110    0.0027608727
      8223.91      0.13018041    0.0027549234
      8232.13      0.13267830    0.0027309676
      8240.36      0.13694203    0.0027227735
      8248.60      0.14205147    0.0027141735
      8256.85      0.14810518    0.0027049890
      8265.11      0.15509411    0.0026955970
      8273.37      0.16285907    0.0026883480
      8281.65      0.17135096    0.0026872141
      8289.93      0.18081003    0.0026876624
      8298.22      0.19147503    0.0026632649
      8306.52      0.20318057    0.0026501809
      8314.83      0.21586991    0.0026387039
      8323.14      0.22978302    0.0026292795
      8331.46      0.24550635    0.0026211360
      8339.80      0.26333735    0.0026154601
      8348.13      0.28323679    0.0026100713
      8356.48      0.30505118    0.0026047531
      8364.84      0.32874312    0.0026009173
      8373.21      0.35452668    0.0025990879
      8381.58      0.38310446    0.0025825337
      8389.96      0.41429789    0.0025831142
      8398.35      0.44905811    0.0025839182
      8406.75      0.48817015    0.0025855640
      8415.16      0.53205764    0.0025880887
      8423.57      0.58066996    0.0025916804
      8432.00      0.63363075    0.0025958069
      8440.43      0.69116622    0.0026006468
      8448.87      0.75426229    0.0026060316
      8457.32      0.82387658    0.0026119020
      8465.78      0.90062071    0.0026184775
      8474.25      0.98426523    0.0026256309
      8482.72       1.0739782    0.0026329719
      8491.20       1.1685609    0.0026405721
      8499.69       1.2662787    0.0026484878
      8508.19       1.3658068    0.0026563618
      8516.70       1.4662511    0.0026641878
      8525.22       1.5679911    0.0026570683
      8533.75       1.6649811    0.0026651766
      8542.28       1.7565319    0.0026735251
      8550.82       1.8404954    0.0026822582
      8559.37       1.9161368    0.0026915090
      8567.93       1.9833396    0.0027009862
      8576.50       2.0414330    0.0027105615
      8585.08       2.0893048    0.0027206106
      8593.66       2.1259459    0.0027312757
      8602.26       2.1515775    0.0027426822
      8610.86       2.1674181    0.0027545653
      8619.47       2.1738967    0.0027514531
      8628.09       2.1740123    0.0027637250
      8636.72       2.1673568    0.0027763321
      8645.36       2.1542227    0.0027891756
      8654.00       2.1352851    0.0028021860
      8662.66       2.1118216    0.0028154047
      8671.32       2.0852422    0.0028288012
      8679.99       2.0559700    0.0028273878
      8688.67       2.0227768    0.0028411939
      8697.36       1.9851238    0.0028553385
      8706.06       1.9426886    0.0028892791
      8714.76       1.8955750    0.0029042828
      8723.48       1.8433908    0.0029199159
      8732.21       1.7853068    0.0029359315
      8740.93       1.7190600    0.0029368527
      8749.68       1.6444979    0.0029536755
      8758.43       1.5611105    0.0029710868
      8767.19       1.4696947    0.0029887535
      8775.96       1.3722264    0.0030068293
      8784.73       1.2689459    0.0030090429
      8793.52       1.1654188    0.0030484577
      8802.31       1.0659483    0.0030674941
      8811.11      0.97057055    0.0030869927
      8819.92      0.88161053    0.0031071293
      8828.75      0.80114095    0.0031118094
      8837.57      0.73277370    0.0031326864
      8846.41      0.67664459    0.0031548188
      8855.26      0.63372094    0.0031786733
      8864.12      0.60582792    0.0032113583
      8872.98      0.59039883    0.0032375607
      8881.85      0.58551928    0.0032681925
      8890.73      0.58918007    0.0033037816
      8899.63      0.60081364    0.0033296876
      8908.52      0.61835084    0.0033766563
      8917.43      0.64262098    0.0034605704
      8926.35      0.67056707    0.0035244819
      8935.28      0.70421120    0.0035797843
      8944.22      0.74209572    0.0036531895
      8953.16      0.78446310    0.0037270748
      8962.11      0.83126007    0.0038295007
      8971.08      0.88001364    0.0038695477
      8980.05      0.92417192    0.0039103475
      8989.03      0.96357120    0.0039361780
      8998.02      0.99670432    0.0039264149
      9007.02       1.0230404    0.0039623318
      9016.02       1.0379702    0.0039731052
      9025.04       1.0418908    0.0039727490
      9034.07       1.0373430    0.0039985554
      9043.10       1.0228962    0.0040576771
      9052.14       1.0012729    0.0041035133
      9061.20      0.97362973    0.0041389415
      9070.26      0.94395121    0.0041904544
      9079.33      0.90851263    0.0042735917
      9088.41      0.87276076    0.0043014838
      9097.50      0.83706393    0.0043399900
      9106.60      0.80311142    0.0043530966
      9115.70      0.77310508    0.0044151026
      9124.82      0.74818337    0.0044452341
      9133.94      0.72547525    0.0044518480
      9143.08      0.70511461    0.0044751683
      9152.22      0.68411120    0.0044614650
      9161.37      0.66683528    0.0044176940
      9170.54      0.65492660    0.0044064604
      9179.71      0.65030454    0.0043932916
      9188.89      0.65377900    0.0043626064
      9198.08      0.66168060    0.0043711259
      9207.28      0.67465336    0.0043889067
      9216.48      0.69297627    0.0043947695
      9225.70      0.71638162    0.0044430306
      9234.92      0.74780766    0.0045005977
      9244.16      0.78436388    0.0046148742
      9253.40      0.82055700    0.0047251332
      9262.66      0.85974649    0.0049029249
      9271.92      0.89625803    0.0051284050
      9281.20      0.92380195    0.0053102984
      9290.48      0.94891493    0.0055496767
      9299.77      0.96672984    0.0058129760
      9309.07      0.97142619    0.0059937579
      9318.38      0.96754571    0.0062119881
      9327.69      0.95029256    0.0063952328
      9337.02      0.91834404    0.0064514065
      9346.36      0.88184946    0.0065403347
      9355.71      0.84096456    0.0065956372
      9365.07      0.79773821    0.0066013663
      9374.43      0.76025450    0.0065605557
      9383.80      0.72385990    0.0065552126
      9393.19      0.69007510    0.0065052833
      9402.58      0.66568789    0.0064641733
      9411.98      0.64269510    0.0064564797
      9421.40      0.62779506    0.0064652875
      9430.82      0.62220882    0.0064964076
      9440.25      0.62793297    0.0065109402
      9449.69      0.64454271    0.0065332152
      9459.14      0.67028125    0.0065634297
      9468.60      0.70555948    0.0065805191
      9478.07      0.74362820    0.0065508585
      9487.55      0.78848757    0.0065207766
      9497.04      0.83093129    0.0064983169
      9506.53      0.86945782    0.0064374176
      9516.04      0.91099469    0.0063791157
      9525.56      0.95375349    0.0063036495
      9535.08      0.99288975    0.0062714290
      9544.62       1.0222996    0.0062251137
      9554.16       1.0470732    0.0062018942
      9563.72       1.0626107    0.0061580354
      9573.29       1.0705111    0.0061265906
      9582.85       1.0713220    0.0060787176
      9592.44       1.0633929    0.0059811591
      9602.03       1.0530292    0.0059235984
      9611.63       1.0486220    0.0059866659
      9621.25       1.0399557    0.0060612126
      9630.87       1.0269263    0.0061503088
      9640.50       1.0082736    0.0062680864
      9650.14      0.98424224    0.0064137645
      9659.79      0.95588868    0.0065894974
      9669.45      0.92311180    0.0068223989
      9679.12      0.88903402    0.0070961140
      9688.80      0.85181112    0.0074828256
      9698.49      0.81404675    0.0079896894
      9708.19      0.77697326    0.0086774662
      9717.90      0.74423780    0.0097105187
      9727.62      0.71402306     0.010891615
      9737.34      0.68555346     0.012376749
      9747.08      0.65704182     0.014304488
      9756.83      0.62988378     0.016817668
      9766.59      0.60504949     0.019900017
