# starting wavelength =        3173.2500
# ending wavelength =        9066.9399
# O2 telluric scale =        0
# O2 telluric shift =        0
# H2O telluric scale =        0
# H2O telluric shift =        0
      3175.54       1.8321945      0.13837198
      3178.71       1.7674678      0.12374080
      3181.89       1.7274898      0.10611076
      3185.07       1.6665963     0.092523501
      3188.26       1.6159092     0.079147364
      3191.45       1.5868113     0.071478245
      3194.64       1.5380487     0.067111460
      3197.83       1.5232451     0.062112795
      3201.03       1.5193492     0.058165771
      3204.23       1.5280999     0.054358614
      3207.44       1.5527198     0.052049751
      3210.64       1.5582730     0.050731812
      3213.85       1.6169352     0.049058779
      3217.07       1.6051128     0.047634168
      3220.28       1.5955242     0.046530348
      3223.51       1.5883450     0.045500537
      3226.73       1.6052499     0.044578573
      3229.96       1.6155889     0.044106079
      3233.19       1.6312145     0.043326040
      3236.42       1.6520683     0.043272118
      3239.66       1.6684978     0.043195496
      3242.90       1.6604578     0.043124277
      3246.14       1.6805053     0.043404606
      3249.39       1.6829581     0.042995967
      3252.64       1.7341046     0.042923855
      3255.89       1.7473092     0.043206080
      3259.14       1.7677529     0.043126929
      3262.40       1.7860401     0.042723820
      3265.67       1.7822198     0.043008403
      3268.93       1.7576548     0.042927935
      3272.20       1.7567946     0.042852382
      3275.47       1.7488499     0.043134695
      3278.75       1.7350986     0.042730232
      3282.03       1.7410764     0.043004818
      3285.31       1.7202305     0.042931718
      3288.60       1.6854774     0.042863294
      3291.88       1.6800365     0.042805156
      3295.18       1.6648353     0.042729965
      3298.47       1.6563394     0.042659234
      3301.77       1.6295618     0.042947475
      3305.07       1.6609417     0.042868958
      3308.38       1.6582971     0.042456669
      3311.69       1.6431109     0.042751224
      3315.00       1.6806165     0.042669657
      3318.31       1.7065292     0.042592987
      3321.63       1.7278312     0.042882587
      3324.95       1.7430259     0.042473106
      3328.28       1.7494250     0.042393288
      3331.61       1.7496308     0.042677745
      3334.94       1.7429719     0.042606793
      3338.27       1.7709374     0.042539399
      3341.61       1.7657581     0.042476866
      3344.95       1.7834529     0.042402207
      3348.30       1.7826310     0.042332068
      3351.65       1.7897435     0.042629777
      3355.00       1.7921825     0.042550790
      3358.35       1.8116402     0.042128151
      3361.71       1.8262138     0.042436777
      3365.07       1.8635730     0.042353559
      3368.44       1.8960040     0.042274757
      3371.81       1.9089977     0.042200254
      3375.18       1.9030328     0.042499014
      3378.56       1.8852944     0.042078922
      3381.94       1.8969102     0.041999870
      3385.32       1.8909039     0.042292667
      3388.70       1.8869270     0.042220470
      3392.09       1.9003785     0.042151500
      3395.48       1.9113090     0.042453631
      3398.88       1.9068242     0.042015974
      3402.28       1.9098652     0.041942711
      3405.68       1.9167733     0.041872445
      3409.09       1.9300754     0.042177448
      3412.49       1.9350490     0.042098679
      3415.91       1.9408462     0.042023624
      3419.32       1.9395116     0.042332025
      3422.74       1.9404714     0.041904189
      3426.17       1.9327021     0.041824082
      3429.59       1.9192560     0.041747504
      3433.02       1.9137914     0.042051530
      3436.45       1.9154327     0.041980227
      3439.89       1.9154410     0.041912581
      3443.33       1.9054881     0.042222427
      3446.78       1.8946611     0.041772667
      3450.22       1.8677086     0.041699144
      3453.67       1.8756815     0.041628822
      3457.13       1.8789014     0.041948029
      3460.58       1.8866337     0.041868004
      3464.04       1.8904293     0.041791331
      3467.51       1.8999425     0.042108027
      3470.98       1.9308339     0.042037248
      3474.45       1.9316714     0.041596493
      3477.92       1.9325899     0.041516904
      3481.40       1.9313562     0.041827737
      3484.88       1.9380035     0.041753477
      3488.37       1.9403789     0.041680765
      3491.86       1.9353922     0.041610924
      3495.35       1.9354452     0.041939841
      3498.84       1.9256964     0.041860639
      3502.34       1.9160548     0.041783546
      3505.84       1.9034368     0.041709357
      3509.35       1.9057984     0.042041511
      3512.86       1.9098822     0.041589122
      3516.37       1.8728199     0.041508164
      3519.89       1.8458057     0.041430013
      3523.41       1.8246276     0.041754758
      3526.93       1.8231133     0.041680491
      3530.46       1.8306099     0.041608073
      3533.99       1.8535478     0.041538324
      3537.53       1.8621674     0.041881039
      3541.06       1.8668362     0.041801886
      3544.60       1.8592912     0.041724620
      3548.15       1.8380733     0.041649083
      3551.70       1.8385398     0.041993197
      3555.25       1.8376275     0.041921261
      3558.80       1.8333924     0.041452310
      3562.36       1.8492738     0.041372319
      3565.92       1.8847736     0.041293679
      3569.49       1.8957449     0.041631535
      3573.06       1.9038452     0.041556047
      3576.64       1.9180279     0.041482407
      3580.21       1.9188180     0.041410145
      3583.79       1.9220349     0.041779143
      3587.38       1.9396124     0.041697704
      3590.96       1.9361596     0.041618261
      3594.55       1.9514052     0.041540019
      3598.15       1.9252230     0.041463178
      3601.75       1.9337401     0.041819649
      3605.35       1.9236956     0.041745780
      3608.96       1.9140619     0.041672928
      3612.56       1.9196233     0.041601117
      3616.18       1.9699017     0.041531050
      3619.79       1.9907609     0.041900149
      3623.41       1.9978947     0.041819948
      3627.04       1.9865729     0.041741782
      3630.66       1.9785700     0.041665461
      3634.29       1.9479953     0.041591000
      3637.93       1.9032584     0.041966252
      3641.57       1.8608312     0.041892777
      3645.21       1.8283475     0.041820003
      3648.86       1.8427401     0.041747875
      3652.50       1.8273990     0.041677570
      3656.16       1.8104801     0.042062623
      3659.81       1.8061275     0.041983384
      3663.47       1.8014226     0.041904737
      3667.14       1.8060077     0.041827919
      3670.80       1.8229599     0.041751544
      3674.48       1.8277724     0.041675240
      3678.15       1.8104555     0.042070347
      3681.83       1.7784181     0.041996481
      3685.51       1.7621000     0.041922552
      3689.20       1.7665233     0.041848556
      3692.88       1.7688172     0.041776227
      3696.58       1.7960840     0.041703956
      3700.27       1.8373438     0.042109706
      3703.98       1.8672167     0.042029143
      3707.68       1.9024150     0.041950400
      3711.39       1.9458116     0.041871782
      3715.10       1.9514624     0.041794191
      3718.81       1.9472819     0.041716907
      3722.53       1.9408935     0.042129748
      3726.26       1.9514125     0.042053074
      3729.98       1.9931476     0.041977313
      3733.71       1.9731134     0.041900574
      3737.45       1.9709444     0.041824824
      3741.18       1.9908162     0.041750068
      3744.93       2.0107210     0.042212907
      3748.67       2.0118007     0.042130621
      3752.42       2.0026718     0.042049626
      3756.17       1.9782477     0.041968804
      3759.93       1.9284311     0.042400382
      3763.69       1.9047812     0.042325426
      3767.45       1.8795423     0.042251272
      3771.22       1.9132106     0.042175299
      3774.99       1.9446165     0.042626513
      3778.77       1.9907435     0.042546881
      3782.54       2.0095131     0.042466831
      3786.33       2.0305257     0.042386278
      3790.11       2.0280218     0.042306832
      3793.90       2.0566186     0.042228488
      3797.70       2.0520997     0.042147967
      3801.50       2.0400280     0.042068556
      3805.30       2.0386276     0.041990221
      3809.10       2.0112488     0.041911407
      3812.91       1.9865772     0.041298717
      3816.73       1.9631497     0.041221369
      3820.54       1.9620126     0.041144513
      3824.36       1.9510519     0.041066542
      3828.19       1.9691491     0.040989662
      3832.02       1.9409395     0.040913863
      3835.85       1.9395253     0.040837272
      3839.68       1.9674218     0.040760282
      3843.52       2.0146167     0.040684377
      3847.37       2.0673612     0.041226380
      3851.22       2.0806006     0.042534405
      3855.07       2.0896280     0.044251209
      3858.92       2.1053990     0.040415015
      3862.78       2.1039261     0.040336412
      3866.64       2.1164929     0.041132639
      3870.51       2.1073891     0.042320187
      3874.38       2.0771227     0.043685644
      3878.26       2.0661397     0.045052967
      3882.13       2.0268728     0.046233586
      3886.02       1.9834905     0.047037181
      3889.90       1.9591451     0.047079430
      3893.79       1.9793886     0.046277554
      3897.69       1.9952940     0.045052375
      3901.59       1.9958309     0.043579887
      3905.49       1.9888454     0.042052110
      3909.39       2.0117095     0.040642464
      3913.30       2.0326176     0.039514991
      3917.22       2.0508491     0.038938435
      3921.13       2.0988496     0.039845843
      3925.06       2.0919976     0.041717294
      3928.98       2.0902268     0.040158520
      3932.91       2.0612011     0.038475196
      3936.84       2.0822718     0.038401034
      3940.78       2.1095932     0.038326488
      3944.72       2.1030200     0.038253108
      3948.67       2.0910704     0.038179937
      3952.61       2.0736456     0.038107135
      3956.57       2.0603478     0.038035501
      3960.52       2.0570762     0.037965129
      3964.48       2.0508548     0.037894058
      3968.45       2.0813436     0.037824268
      3972.42       2.1135476     0.037755756
      3976.39       2.1085942     0.037687598
      3980.37       2.0836752     0.037152300
      3984.35       2.0796929     0.037077972
      3988.33       2.0947516     0.037003912
      3992.32       2.0949510     0.036930416
      3996.31       2.0903953     0.036858188
      4000.31       2.0653986     0.036787055
      4004.31       2.0516044     0.036716979
      4008.31       2.0388941     0.036647447
      4012.32       2.0627080     0.037027668
      4016.33       2.0525932     0.036525864
      4020.35       2.0187220     0.036449143
      4024.37       2.0145263     0.036374130
      4028.40       1.9976864     0.036298858
      4032.42       1.9962704     0.036225361
      4036.46       2.0226744     0.036153724
      4040.50       2.0582020     0.036083811
      4044.54       2.1042784     0.036014000
      4048.58       2.1241683     0.035528801
      4052.63       2.1096290     0.035463301
      4056.68       2.0918919     0.035399209
      4060.74       2.1118521     0.036635464
      4064.80       2.1148051     0.037683456
      4068.86       2.0750514     0.036684624
      4072.93       2.0268512     0.035744483
      4077.01       2.0109232     0.035629032
      4081.08       1.9973434     0.036381664
      4085.17       1.9653664     0.037278936
      4089.25       1.9281182     0.038206023
      4093.34       1.9140941     0.039054108
      4097.43       1.8686185     0.040192962
      4101.53       1.8820851     0.040561033
      4105.63       1.8984548     0.039581284
      4109.74       1.8906915     0.038826774
      4113.85       1.9183014     0.037880876
      4117.96       1.9378429     0.036844380
      4122.08       1.9464298     0.035823255
      4126.20       1.9598162     0.034917066
      4130.33       1.9784172     0.034528052
      4134.46       1.9945012     0.034659452
      4138.59       2.0268120     0.036815657
      4142.73       2.0403211     0.035393600
      4146.88       2.0344212     0.034318024
      4151.02       2.0331534     0.033455410
      4155.18       2.0078057     0.033387073
      4159.33       2.0072870     0.033710268
      4163.49       1.9797036     0.033646821
      4167.65       1.9711121     0.033585964
      4171.82       1.9628249     0.033136977
      4175.99       1.9462824     0.033066802
      4180.17       1.9431028     0.032998999
      4184.35       1.9562650     0.032935107
      4188.54       1.9211071     0.033257480
      4192.72       1.9190290     0.032818955
      4196.92       1.9313157     0.032747654
      4201.11       1.9308231     0.032679490
      4205.31       1.9255883     0.032615143
      4209.52       1.9162040     0.032554077
      4213.73       1.9307588     0.032502709
      4217.94       1.9299750     0.032431528
      4222.16       1.9269840     0.032363908
      4226.38       1.9257205     0.032299755
      4230.61       1.9181699     0.031880779
      4234.84       1.8912275     0.032187487
      4239.08       1.9152481     0.032116823
      4243.32       1.9006980     0.032049756
      4247.56       1.8972154     0.031987378
      4251.81       1.8895391     0.031574714
      4256.06       1.8774766     0.031520875
      4260.32       1.9020529     0.031804199
      4264.58       1.9253861     0.031739700
      4268.84       1.9077621     0.031327585
      4273.11       1.9166975     0.031273038
      4277.38       1.9197247     0.031560465
      4281.66       1.9058652     0.031494707
      4285.94       1.9062220     0.031084156
      4290.23       1.9061073     0.031029523
      4294.52       1.9123234     0.031327656
      4298.81       1.8997687     0.032549196
      4303.11       1.8994024     0.033699616
      4307.42       1.8551004     0.031237161
      4311.72       1.8243799     0.031091906
      4316.04       1.7940155     0.031272769
      4320.35       1.7800074     0.032344712
      4324.67       1.7440823     0.033287980
      4329.00       1.7357408     0.034239683
      4333.33       1.7244251     0.034694118
      4337.66       1.7219543     0.035606878
      4342.00       1.7399893     0.035696762
      4346.34       1.7533294     0.034604872
      4350.69       1.7661266     0.033780501
      4355.04       1.7725905     0.033212521
      4359.39       1.7788785     0.032162109
      4363.75       1.7920118     0.030861835
      4368.12       1.8016834     0.030098239
      4372.48       1.8118400     0.030110427
      4376.86       1.8198773     0.030778945
      4381.23       1.7741713     0.031468261
      4385.61       1.7975294     0.030456793
      4390.00       1.7847460     0.029365747
      4394.39       1.7697383     0.029301689
      4398.79       1.7540149     0.029243074
      4403.18       1.7552480     0.029516254
      4407.59       1.7458754     0.029137269
      4412.00       1.7519315     0.029076540
      4416.41       1.7251204     0.029023230
      4420.82       1.7339866     0.028974342
      4425.25       1.7406936     0.028912017
      4429.67       1.7425093     0.028857398
      4434.10       1.7712271     0.028812235
      4438.54       1.7884358     0.028749314
      4442.97       1.7862173     0.028694279
      4447.42       1.7921369     0.028341142
      4451.86       1.7997669     0.028588375
      4456.32       1.8022996     0.028229297
      4460.77       1.8024470     0.028181326
      4465.24       1.7798122     0.028428528
      4469.70       1.8003272     0.028071166
      4474.17       1.7730183     0.028023407
      4478.65       1.7646109     0.028269565
      4483.12       1.7472088     0.027914343
      4487.61       1.7361588     0.027867309
      4492.09       1.7139858     0.027828560
      4496.59       1.7169752     0.027759032
      4501.08       1.6921930     0.027713272
      4505.58       1.7106748     0.027676108
      4510.09       1.7334716     0.027605700
      4514.60       1.7429982     0.027561835
      4519.12       1.7616650     0.027214064
      4523.63       1.7743087     0.027453842
      4528.16       1.7584042     0.027412668
      4532.69       1.7685470     0.027064110
      4537.22       1.7798609     0.027305021
      4541.76       1.7753678     0.026968516
      4546.30       1.7556237     0.026916475
      4550.85       1.7325530     0.027158998
      4555.40       1.7382127     0.026819896
      4559.95       1.7292698     0.027056653
      4564.51       1.7286806     0.026727997
      4569.08       1.7151902     0.026673529
      4573.65       1.7107124     0.026912623
      4578.22       1.6954489     0.026580117
      4582.80       1.6754069     0.026529805
      4587.38       1.6682806     0.026490715
      4591.97       1.6631156     0.026435122
      4596.56       1.6634719     0.026389734
      4601.16       1.6460100     0.026344276
      4605.76       1.6437222     0.026294085
      4610.37       1.6536027     0.026256179
      4614.98       1.6391611     0.026201337
      4619.59       1.6367444     0.025890315
      4624.21       1.6227301     0.026112007
      4628.84       1.6028680     0.026063872
      4633.47       1.5739525     0.026024553
      4638.10       1.5682679     0.025972668
      4642.74       1.5663965     0.025666742
      4647.38       1.5676592     0.025883374
      4652.03       1.5629035     0.025575079
      4656.68       1.5487059     0.025796138
      4661.34       1.5383965     0.025485815
      4666.00       1.5352054     0.025449216
      4670.67       1.5277897     0.025398233
      4675.33       1.5447403     0.025359259
      4680.01       1.5335231     0.025573541
      4684.69       1.5289813     0.025271001
      4689.38       1.5290450     0.025240660
      4694.07       1.5496450     0.025184720
      4698.76       1.5574298     0.025152016
      4703.46       1.5515041     0.025099894
      4708.16       1.5459308     0.025064755
      4712.87       1.5455849     0.025015391
      4717.58       1.5491935     0.024979038
      4722.30       1.5398965     0.024680145
      4727.03       1.5415910     0.024894601
      4731.75       1.5362382     0.024598869
      4736.48       1.5457239     0.024811873
      4741.22       1.5445154     0.024519433
      4745.96       1.5328717     0.024730465
      4750.71       1.5255474     0.024440905
      4755.46       1.5265963     0.024650426
      4760.22       1.5253940     0.024362883
      4764.97       1.5306333     0.024321851
      4769.74       1.5026617     0.024285688
      4774.51       1.4943374     0.024244082
      4779.29       1.4879006     0.024208889
      4784.07       1.4856521     0.024167508
      4788.85       1.4854740     0.024132639
      4793.64       1.4745996     0.024091533
      4798.43       1.4734921     0.024057183
      4803.23       1.4790699     0.024016406
      4808.03       1.4687148     0.023982332
      4812.84       1.4625182     0.023942574
      4817.66       1.4540677     0.023908825
      4822.48       1.4470481     0.023636735
      4827.30       1.4340462     0.023835458
      4832.12       1.4130867     0.023565193
      4836.96       1.3925664     0.023763003
      4841.79       1.3820872     0.023495293
      4846.63       1.3750777     0.023691756
      4851.48       1.3716839     0.023426438
      4856.33       1.3751632     0.023621327
      4861.19       1.3560900     0.023358934
      4866.05       1.3671408     0.023322110
      4870.92       1.3579262     0.023292531
      4875.79       1.3588018     0.023254499
      4880.66       1.3503163     0.023227768
      4885.55       1.3535252     0.023187856
      4890.43       1.3512982     0.023164246
      4895.32       1.3502488     0.023122924
      4900.22       1.3526392     0.022865503
      4905.12       1.3516358     0.023059261
      4910.02       1.3304469     0.022800556
      4914.94       1.3413677     0.022997603
      4919.85       1.3384479     0.022962418
      4924.77       1.3303102     0.022938011
      4929.70       1.3419247     0.022900883
      4934.62       1.3547375     0.022648648
      4939.56       1.3674133     0.022841125
      4944.50       1.3717172     0.022586621
      4949.44       1.3813904     0.022782760
      4954.39       1.3762719     0.022526563
      4959.35       1.3948554     0.022500986
      4964.31       1.3728914     0.022690879
      4969.27       1.3639756     0.022440704
      4974.24       1.3532566     0.022420303
      4979.22       1.3540047     0.022382633
      4984.20       1.3295886     0.022359310
      4989.18       1.3150016     0.022327058
      4994.17       1.3108668     0.022300863
      4999.16       1.2906397     0.022281543
      5004.16       1.2797671     0.022245237
      5009.17       1.2827616     0.022222613
      5014.18       1.2661845     0.021984969
      5019.19       1.2593731     0.022166397
      5024.21       1.2925257     0.021935822
      5029.23       1.2986639     0.021906784
      5034.26       1.2996571     0.022090861
      5039.30       1.2945288     0.021858460
      5044.34       1.2927451     0.021832680
      5049.39       1.2918500     0.021814011
      5054.43       1.2899041     0.021784396
      5059.49       1.2662898     0.021760700
      5064.55       1.2762013     0.021740440
      5069.61       1.2782778     0.021713160
      5074.68       1.2684207     0.021691153
      5079.76       1.2677209     0.021669793
      5084.84       1.2641684     0.021644497
      5089.92       1.2541002     0.021419135
      5095.01       1.2492577     0.021602045
      5100.11       1.2446366     0.021577943
      5105.21       1.2536556     0.021354259
      5110.31       1.2508086     0.021537314
      5115.42       1.2691972     0.021514244
      5120.54       1.2764939     0.021292385
      5125.66       1.2660045     0.021475119
      5130.79       1.2738321     0.021452831
      5135.92       1.2669826     0.021232105
      5141.05       1.2531140     0.021218361
      5146.20       1.2360413     0.021191267
      5151.34       1.2182998     0.021173899
      5156.49       1.2168812     0.021160784
      5161.65       1.2251021     0.021136115
      5166.81       1.2197990     0.021118503
      5171.98       1.2170467     0.021104911
      5177.15       1.2313047     0.020894291
      5182.33       1.2236874     0.021065105
      5187.51       1.2183584     0.021051644
      5192.70       1.2225105     0.021041153
      5197.89       1.2145889     0.021014959
      5203.09       1.2189371     0.021000634
      5208.29       1.2052430     0.020989253
      5213.50       1.2029011     0.020780266
      5218.72       1.1986853     0.020952433
      5223.93       1.1790694     0.020941098
      5229.16       1.1798646     0.020737738
      5234.39       1.1663974     0.020721989
      5239.62       1.1514981     0.020895968
      5244.86       1.1601200     0.020699141
      5250.11       1.1554321     0.020682535
      5255.36       1.1650533     0.020668587
      5260.61       1.1728611     0.020657404
      5265.87       1.1809639     0.020647359
      5271.14       1.1854926     0.020632023
      5276.41       1.1933357     0.020619691
      5281.69       1.1980319     0.020609734
      5286.97       1.2002697     0.020600421
      5292.26       1.1897992     0.020586870
      5297.55       1.1843778     0.020575250
      5302.85       1.1799911     0.020377130
      5308.15       1.1607772     0.020370456
      5313.46       1.1544844     0.020546818
      5318.77       1.1369749     0.020536133
      5324.09       1.1263495     0.020338558
      5329.42       1.1252943     0.020332426
      5334.75       1.1113659     0.020328186
      5340.08       1.1145588     0.020502574
      5345.42       1.1073297     0.020305557
      5350.77       1.0907720     0.020299340
      5356.12       1.0954956     0.020295235
      5361.48       1.1083505     0.020292713
      5366.83       1.1050171     0.020292529
      5372.20       1.1038190     0.020271721
      5377.58       1.1021284     0.020267087
      5382.95       1.1058017     0.020264408
      5388.34       1.0896539     0.020263151
      5393.72       1.0745361     0.020076909
      5399.12       1.0818849     0.020072358
      5404.52       1.0873042     0.020241979
      5409.92       1.0911704     0.020240547
      5415.33       1.0986085     0.020240403
      5420.75       1.1133233     0.020058609
      5426.17       1.1133436     0.020618490
      5431.60       1.1140106     0.021384388
      5437.03       1.1045179     0.020342345
      5442.47       1.1190993     0.020329132
      5447.91       1.1146172     0.020367577
      5453.36       1.1232899     0.020824483
      5458.81       1.1468285     0.021421706
      5464.27       1.1535454     0.022060560
      5469.73       1.1572482     0.022647379
      5475.20       1.1512904     0.023085986
      5480.68       1.1413041     0.023024334
      5486.16       1.1137465     0.023106456
      5491.65       1.0693525     0.022736424
      5497.14       1.0812883     0.022200174
      5502.64       1.0789487     0.021588516
      5508.14       1.0645883     0.020996462
      5513.65       1.0623916     0.020353218
      5519.16       1.0484167     0.020015037
      5524.68       1.0459478     0.020074600
      5530.20       1.0040598     0.021536858
      5535.73       1.0298623     0.020770602
      5541.27       1.0256850     0.020088708
      5546.81       1.0217384     0.020078182
      5552.36       1.0043607     0.019902770
      5557.91       1.0009720     0.019909014
      5563.47       1.0016083     0.019915532
      5569.04       1.0013793     0.019922895
      5574.60      0.99965650     0.019930815
      5580.18      0.99953923     0.019939518
      5585.76       1.0007514     0.019948545
      5591.35      0.98468933     0.019958231
      5596.94      0.98105981     0.019791638
      5602.53      0.99544570     0.019799702
      5608.14      0.97569176     0.019808439
      5613.75      0.96251612     0.019817478
      5619.36      0.96821206     0.019827438
      5624.98      0.95725058     0.019837615
      5630.60      0.95618573     0.019848474
      5636.23      0.94912804     0.019859515
      5641.87      0.96658818     0.019871427
      5647.51      0.94048945     0.019883494
      5653.16      0.93525365     0.019891696
      5658.82      0.92966093     0.019903059
      5664.47      0.93789104     0.019914597
      5670.14      0.93914203     0.019927052
      5675.81      0.93267101     0.019939771
      5681.48      0.94753989     0.019952618
      5687.17      0.95054036     0.019966084
      5692.85      0.95279060     0.019980125
      5698.55      0.94320565     0.019994732
      5704.25      0.92454542     0.020009278
      5709.95      0.92829058     0.020025084
      5715.66      0.92377836     0.020041434
      5721.38      0.91367198     0.020059555
      5727.10      0.93175941     0.020078778
      5732.83      0.93871116     0.020098062
      5738.56      0.92711291     0.019958796
      5744.30      0.91785710     0.019980139
      5750.04      0.91932557     0.020006185
      5755.79      0.89612323     0.020038577
      5761.55      0.88709925     0.019896311
      5767.31      0.88365212     0.019932028
      5773.08      0.86747724     0.019969966
      5778.85      0.86347779     0.020011572
      5784.63      0.86615551     0.020052327
      5790.41      0.87753505     0.020086586
      5796.21      0.86555219     0.020115672
      5802.00      0.85003565     0.020142769
      5807.81      0.83495978     0.020167109
      5813.61      0.82138870     0.020188317
      5819.43      0.80611688     0.020206554
      5825.25      0.83069755     0.020225295
      5831.07      0.85634807     0.020245413
      5836.90      0.87092067     0.020266660
      5842.74      0.92344271     0.020286789
      5848.58      0.95642159     0.020137392
      5854.43      0.98039221     0.020151607
      5860.29       1.0048472     0.020337361
      5866.15       1.0127626     0.020352056
      5872.01       1.0306150     0.020364805
      5877.89       1.0340572     0.020375631
      5883.76       1.0273375     0.020388279
      5889.65       1.0384521     0.020406146
      5895.54       1.0394562     0.020425565
      5901.43       1.0147059     0.020442755
      5907.34      0.99664302     0.020461195
      5913.24      0.97012346     0.020323447
      5919.16      0.94099957     0.020346440
      5925.08      0.90721822     0.020370787
      5931.00      0.87202239     0.020396448
      5936.93      0.88382557     0.020423458
      5942.87      0.87206763     0.020452238
      5948.81      0.86073329     0.020481194
      5954.76      0.89403588     0.020357837
      5960.72      0.89266375     0.020388227
      5966.68      0.87657330     0.020419855
      5972.64      0.88059030     0.020623567
      5978.62      0.87438943     0.020653693
      5984.60      0.85874157     0.020684516
      5990.58      0.84507000     0.020716125
      5996.57      0.83252855     0.020594124
      6002.57      0.83380507     0.020627398
      6008.57      0.83642599     0.020661320
      6014.58      0.83066566     0.020696323
      6020.60      0.83972977     0.020732292
      6026.62      0.85490567     0.020769137
      6032.65      0.85026790     0.020816810
      6038.68      0.84647694     0.020851573
      6044.72      0.85959023     0.020887294
      6050.76      0.86496045     0.020923935
      6056.81      0.87953442     0.020961929
      6062.87      0.87244435     0.021000898
      6068.93      0.88730867     0.020876461
      6075.00      0.89956078     0.020912963
      6081.08      0.88163949     0.021127728
      6087.16      0.87252933     0.021167123
      6093.25      0.86104874     0.021051435
      6099.34      0.82775779     0.021091467
      6105.44      0.82279746     0.021138661
      6111.54      0.81494667     0.021184981
      6117.66      0.81221335     0.021405047
      6123.78      0.80720660     0.021294839
      6129.90      0.81250623     0.021349997
      6136.03      0.80640698     0.021417079
      6142.17      0.80938144     0.021495841
      6148.31      0.80352353     0.021435516
      6154.46      0.81519083     0.021717788
      6160.61      0.83412401     0.021805036
      6166.77      0.84036140     0.021887209
      6172.94      0.85879587     0.021802995
      6179.11      0.85858847     0.021862022
      6185.29      0.88154349     0.021907804
      6191.48      0.88524388     0.022110329
      6197.67      0.90656694     0.021959889
      6203.87      0.91949351     0.021966136
      6210.07      0.92851271     0.021973274
      6216.28      0.92511563     0.021988938
      6222.50       1.0038048     0.022025454
      6228.72       1.0334131     0.022054947
      6234.95       1.0529999     0.022078826
      6241.19       1.0733847     0.021944588
      6247.42       1.1047670     0.022155237
      6253.67       1.1034212     0.022190344
      6259.93       1.1147869     0.022229573
      6266.19       1.1306078     0.022106276
      6272.46       1.1452055     0.022327405
      6278.73       1.1404970     0.022371261
      6285.01       1.1412469     0.022257957
      6291.29       1.1418925     0.022302636
      6297.58       1.1505309     0.022352032
      6303.88       1.1442644     0.022431274
      6310.19       1.1379298     0.022479440
      6316.50       1.1440825     0.022532158
      6322.81       1.1159204     0.022624768
      6329.14       1.0967827     0.022684287
      6335.47       1.1102292     0.022752620
      6341.80       1.1026840     0.022671452
      6348.14       1.0707964     0.022928902
      6354.49       1.0118451     0.022993139
      6360.85      0.95973205     0.022902632
      6367.21      0.91146639     0.022970130
      6373.57      0.86460755     0.023216086
      6379.95      0.82276487     0.023111269
      6386.33      0.79447543     0.023165081
      6392.72      0.76502098     0.023396554
      6399.11      0.72726552     0.023282666
      6405.51      0.70963229     0.023334261
      6411.92      0.70960284     0.023409616
      6418.32      0.71303258     0.023464607
      6424.74      0.71077909     0.023523676
      6431.17      0.71936601     0.023598934
      6437.60      0.71397117     0.023649979
      6444.04      0.69821757     0.023702896
      6450.48      0.70436048     0.023773118
      6456.94      0.71755691     0.023827946
      6463.39      0.69946246     0.023715807
      6469.85      0.68998893     0.023953409
      6476.33      0.63746802     0.024005751
      6482.80      0.63261898     0.023891109
      6489.28      0.61642006     0.024141572
      6495.77      0.61228103     0.024036542
      6502.27      0.60138222     0.024094528
      6508.77      0.57718917     0.024190339
      6515.28      0.56384266     0.024248242
      6521.80      0.54412638     0.024310838
      6528.32      0.54277710     0.024405563
      6534.85      0.54341941     0.024466393
      6541.38      0.54627287     0.024370592
      6547.92      0.55593305     0.024626178
      6554.47      0.55234427     0.024528810
      6561.03      0.52903726     0.024789259
      6567.59      0.52944749     0.024689604
      6574.16      0.54822345     0.024759136
      6580.73      0.55677912     0.024852650
      6587.31      0.54672845     0.024921549
      6593.90      0.55414487     0.025184753
      6600.50      0.56742201     0.025086726
      6607.10      0.58454632     0.025161077
      6613.70      0.59162893     0.025254604
      6620.32      0.61074153     0.025328710
      6626.94      0.61937269     0.025424704
      6633.57      0.61842266     0.025498558
      6640.20      0.63779626     0.025596963
      6646.84      0.64507511     0.025670669
      6653.49      0.66170687     0.025568791
      6660.14      0.65527338     0.025845033
      6666.80      0.66140907     0.025744942
      6673.47      0.64568141     0.026035946
      6680.14      0.60923050     0.026007353
      6686.82      0.58238581     0.026374220
      6693.51      0.56631789     0.026252554
      6700.20      0.53991187     0.026370987
      6706.90      0.51205305     0.026530982
      6713.61      0.48296074     0.026638912
      6720.32      0.47857378     0.027203855
      6727.05      0.47319214     0.027461266
      6733.77      0.47186546     0.028185342
      6740.51      0.47107657     0.028494466
      6747.25      0.50415596     0.029231947
      6754.00      0.53979936     0.029419830
      6760.75      0.56014811     0.029963836
      6767.51      0.58759064     0.029881447
      6774.28      0.62999879     0.029875212
      6781.05      0.64632308     0.029753951
      6787.84      0.66260383     0.029496221
      6794.62      0.66845440     0.029277737
      6801.42      0.65756279     0.029030605
      6808.22      0.64846536     0.028942916
      6815.03      0.64552316     0.028892689
      6821.85      0.63675880     0.028590039
      6828.67      0.60470423     0.028687277
      6835.50      0.58765887     0.028481304
      6842.33      0.58826416     0.028685601
      6849.17      0.62671727     0.028704457
      6856.02      0.64235581     0.028551051
      6862.88      0.64783908     0.028805691
      6869.74      0.66894831     0.028687933
      6876.61      0.69952241     0.028804210
      6883.49      0.71245042     0.028880114
      6890.37      0.71262984     0.028994341
      6897.27      0.71342737     0.029061183
      6904.16      0.71221167     0.029151423
      6911.07      0.70668349     0.029236183
      6917.98      0.71225836     0.029286068
      6924.89      0.69001295     0.029382732
      6931.82      0.68701369     0.029262390
      6938.75      0.67196514     0.029543419
      6945.69      0.64849015     0.029425738
      6952.64      0.61628884     0.029525726
      6959.59      0.59918355     0.029821160
      6966.55      0.59004055     0.029720157
      6973.52      0.60617974     0.029860002
      6980.49      0.61873257     0.029975877
      6987.47      0.60460154     0.030132460
      6994.46      0.59545778     0.030302504
      7001.46      0.60521795     0.030441102
      7008.46      0.59753826     0.030696121
      7015.46      0.59797065     0.030773477
      7022.48      0.59593631     0.031164312
      7029.51      0.59396325     0.031761292
      7036.53      0.60059044     0.031992086
      7043.57      0.62011463     0.032475127
      7050.62      0.62406452     0.032884935
      7057.66      0.63711706     0.033113278
      7064.72      0.62826942     0.033373831
      7071.79      0.61646547     0.033569350
      7078.86      0.61248927     0.033668465
      7085.94      0.57563952     0.033754527
      7093.03      0.56334585     0.033828924
      7100.12      0.56268462     0.033694340
      7107.22      0.58211156     0.034051903
      7114.33      0.58122216     0.034269750
      7121.44      0.58519934     0.034211612
      7128.56      0.57871921     0.034399216
      7135.69      0.58123592     0.034753292
      7142.83      0.59625877     0.034555234
      7149.97      0.61445276     0.034536492
      7157.12      0.64448524     0.034514401
      7164.28      0.68011394     0.034509369
      7171.44      0.72282521     0.034511424
      7178.62      0.77833374     0.034493833
      7185.80      0.79864557     0.034441021
      7192.98      0.84403173     0.034383415
      7200.17      0.85497422     0.034344952
      7207.38      0.87887385     0.034316761
      7214.58      0.92638275     0.034318679
      7221.80      0.94714201     0.034105258
      7229.02       1.0138828     0.034150574
      7236.25       1.0833332     0.034436670
      7243.49       1.1548152     0.034521875
      7250.73       1.1764035     0.034370815
      7257.98       1.2016413     0.034457379
      7265.24       1.2033640     0.034543863
      7272.51       1.2252130     0.034643279
      7279.78       1.2393845     0.034706887
      7287.06       1.2518803     0.034820162
      7294.35       1.2404517     0.034944624
      7301.64       1.1947773     0.035076839
      7308.94       1.1612758     0.034960937
      7316.25       1.0922639     0.035094297
      7323.57       1.0152743     0.035443250
      7330.89      0.96085725     0.035591366
      7338.22      0.90360372     0.035741461
      7345.56      0.84606282     0.035640173
      7352.91      0.83146616     0.035791999
      7360.26      0.78418861     0.035946829
      7367.62      0.74402912     0.036104230
      7374.99      0.70838232     0.036274504
      7382.37      0.67886346     0.036454292
      7389.75      0.64517238     0.036884564
      7397.14      0.63031412     0.037479481
      7404.53      0.62748323     0.037878344
      7411.94      0.64257068     0.037893980
      7419.35      0.66273993     0.038255152
      7426.77      0.67373214     0.038902881
      7434.20      0.65347942     0.040443189
      7441.63      0.64007058     0.042569749
      7449.07      0.65066346     0.045229112
      7456.52      0.63124515     0.048314061
      7463.98      0.65573289     0.051642742
      7471.45      0.69025455     0.054093034
      7478.92      0.69220436     0.056948741
      7486.40      0.72700298     0.058778881
      7493.88      0.77919514     0.059134901
      7501.38      0.77402023     0.057965401
      7508.88      0.74186829     0.055652978
      7516.39      0.74509833     0.052774736
      7523.91      0.75812456     0.049868642
      7531.43      0.71435372     0.047487696
      7538.96      0.72145804     0.045578478
      7546.50      0.63852426     0.044059659
      7554.05      0.61543843     0.042794556
      7561.60      0.62888917     0.042016319
      7569.16      0.63133375     0.041659274
      7576.73      0.63507097     0.041386799
      7584.31      0.61127115     0.041168073
      7591.89      0.61665924     0.041037761
      7599.49      0.62086605     0.040999060
      7607.09      0.61579383     0.041035171
      7614.70      0.60048390     0.040861775
      7622.31      0.61744526     0.040980612
      7629.93      0.66530150     0.041124869
      7637.56      0.67478305     0.041283141
      7645.20      0.66434237     0.041451426
      7652.85      0.66278747     0.041629103
      7660.50      0.70040209     0.041810624
      7668.16      0.68032969     0.041992421
      7675.83      0.61409544     0.042177819
      7683.50      0.58834357     0.042365124
      7691.19      0.52794305     0.042552834
      7698.88      0.55879166     0.042745373
      7706.58      0.54632911     0.042946715
      7714.29      0.54446011     0.043156875
      7722.00      0.53768129     0.043136117
      7729.73      0.53775589     0.043359668
      7737.45      0.57209364     0.043592108
      7745.19      0.60104278     0.043824403
      7752.94      0.62342230     0.044042545
      7760.69      0.64291816     0.044244782
      7768.45      0.69667550     0.044441835
      7776.22      0.72239087     0.044636165
      7784.00      0.70432066     0.044828710
      7791.78      0.72638274     0.045020059
      7799.57      0.75727057     0.045209412
      7807.37      0.75076562     0.045147900
      7815.18      0.71184147     0.045344037
      7822.99      0.68445610     0.045549267
      7830.82      0.67407262     0.045759575
      7838.65      0.66323874     0.045967349
      7846.49      0.67601429     0.046176533
      7854.34      0.65335752     0.046385457
      7862.19      0.61816954     0.046587101
      7870.05      0.60520127     0.046527732
      7877.93      0.61307775     0.047032893
      7885.80      0.64526361     0.047228409
      7893.69      0.66897694     0.047426378
      7901.58      0.65812681     0.047615003
      7909.49      0.64018923     0.047811002
      7917.40      0.61123664     0.047786041
      7925.31      0.58743731     0.048027969
      7933.24      0.56681544     0.048305769
      7941.17      0.57161313     0.048625536
      7949.11      0.53957713     0.048979029
      7957.06      0.49356446     0.049390784
      7965.02      0.48487672     0.050019921
      7972.98      0.49052888     0.050614731
      7980.96      0.48622731     0.051263121
      7988.94      0.50106658     0.051957719
      7996.93      0.49790767     0.052711441
      8004.93      0.47306440     0.053238978
      8012.93      0.42324795     0.053791883
      8020.95      0.45647207     0.054153224
      8028.97      0.50426247     0.054838520
      8036.99      0.54248078     0.054777378
      8045.03      0.56938352     0.054963050
      8053.08      0.55164346     0.055113157
      8061.13      0.48777679     0.055219045
      8069.20      0.55122134     0.054984997
      8077.26      0.65065750     0.055394342
      8085.34      0.66444033     0.055500867
      8093.43      0.71016774     0.055643637
      8101.52      0.71577035     0.055445838
      8109.62      0.68944723     0.055531150
      8117.73      0.72259192     0.057041443
      8125.85      0.75621023     0.059096624
      8133.98      0.64109764     0.055897113
      8142.11      0.61800816     0.055934087
      8150.25      0.59615834     0.056764985
      8158.41      0.61164500     0.057858816
      8166.56      0.60207523     0.059854107
      8174.73      0.63287553     0.062541660
      8182.91      0.63744490     0.061510762
      8191.09      0.65210313     0.062132459
      8199.28      0.61543761     0.063830183
      8207.48      0.55715665     0.065521990
      8215.69      0.50596189     0.064473653
      8223.91      0.58731686     0.064394269
      8232.13      0.64059722     0.064650532
      8240.36      0.63693972     0.064139014
      8248.60      0.65776300     0.063581401
      8256.85      0.62522562     0.063127555
      8265.11      0.59346407     0.064309677
      8273.37      0.51298036     0.068201752
      8281.65      0.50677171     0.064392575
      8289.93      0.48089223     0.061597109
      8298.22      0.49490475     0.061085588
      8306.52      0.49142787     0.059881358
      8314.83      0.51174071     0.059276278
      8323.14      0.49611084     0.059885825
      8331.46      0.47938097     0.060276159
      8339.80      0.45299686     0.058576344
      8348.13      0.43766657     0.058388068
      8356.48      0.40670205     0.059573188
      8364.84      0.37781957     0.060457743
      8373.21      0.35750818     0.059175477
      8381.58      0.33998946     0.059778758
      8389.96      0.36176296     0.061021489
      8398.35      0.37088543     0.062990030
      8406.75      0.37358153     0.066098800
      8415.16      0.39704386     0.069832347
      8423.57      0.44415611     0.075414577
      8432.00      0.44422877     0.065041512
      8440.43      0.47447193     0.066873552
      8448.87      0.47090908     0.069987474
      8457.32      0.47213059     0.074270534
      8465.78      0.48284881     0.078573070
      8474.25      0.53562157     0.083662781
      8482.72      0.53629695     0.086575597
      8491.20      0.51861799     0.088045886
      8499.69      0.49493767     0.086343616
      8508.19      0.45853175     0.082684219
      8516.70      0.46479678     0.078831797
      8525.22      0.42152334     0.074767155
      8533.75      0.40232994     0.071625180
      8542.28      0.41871569     0.069746766
      8550.82      0.43606527     0.073837840
      8559.37      0.41585319     0.076992643
      8567.93      0.42446513     0.072970168
      8576.50      0.44186438     0.069934297
      8585.08      0.48768904     0.067395917
      8593.66      0.48369546     0.065807577
      8602.26      0.51883515     0.065734441
      8610.86      0.55382524     0.065663441
      8619.47      0.57719434     0.065607298
      8628.09      0.60224468     0.065155294
      8636.72      0.59471593     0.065109904
      8645.36      0.64010835     0.065055048
      8654.00      0.61526824     0.064720519
      8662.66      0.60613336     0.064683287
      8671.32      0.57011273     0.064660378
      8679.99      0.54881673     0.064287447
      8688.67      0.56264666     0.064294909
      8697.36      0.54744593     0.064057815
      8706.06      0.53311957     0.064105095
      8714.76      0.53404304     0.064703424
      8723.48      0.53904992     0.065174349
      8732.21      0.54763856     0.063990016
      8740.93      0.55496311     0.064061413
      8749.68      0.57245673     0.064514225
      8758.43      0.58450606     0.065069906
      8767.19      0.59806592     0.065924562
      8775.96      0.63202032     0.067026737
      8784.73      0.63143176     0.068111702
      8793.52      0.65633075     0.068861741
      8802.31      0.67552452     0.070610520
      8811.11      0.64471906     0.070794270
      8819.92      0.62069008     0.070834814
      8828.75      0.64255028     0.071505745
      8837.57      0.65241775     0.071893565
      8846.41      0.69553670     0.072026087
      8855.26      0.73481334     0.071933655
      8864.12      0.68154439     0.071813475
      8872.98      0.64132969     0.071812756
      8881.85      0.62193727     0.071746706
      8890.73      0.60933610     0.071376532
      8899.63      0.66515001     0.071174433
      8908.52      0.71025029     0.070844950
      8917.43      0.73036866     0.070662518
      8926.35      0.72125676     0.070794583
      8935.28      0.70000428     0.070481444
      8944.22      0.71724137     0.070899324
      8953.16      0.69900626     0.071337496
      8962.11      0.71629184     0.070423354
      8971.08      0.69113503     0.069650770
      8980.05      0.70216561     0.069159519
      8989.03      0.70767075     0.068804999
      8998.02      0.71523215     0.068302898
      9007.02      0.70927701     0.068058176
      9016.02      0.73766684     0.067611722
      9025.04      0.79660282     0.067349203
      9034.07      0.73219625     0.066894262
      9043.10      0.72096960     0.066919745
      9052.14      0.77457362     0.067262739
      9061.20      0.78070423     0.068660709
