# starting wavelength =        3418.8600
# ending wavelength =        7276.2500
# O2 telluric scale =        0
# O2 telluric shift =        0
# H2O telluric scale =        0
# H2O telluric shift =        0
      3419.32       1.0497982      0.65247545
      3422.74      0.88482354      0.55062694
      3426.17      0.70831549      0.45350139
      3429.59      0.65157282      0.39307876
      3433.02      0.62461107      0.34534609
      3436.45      0.56359919      0.30800520
      3439.89      0.52534120      0.27907900
      3443.33      0.54992978      0.26095530
      3446.78      0.55063342      0.24248778
      3450.22      0.55640485      0.22815336
      3453.67      0.60968023      0.21699361
      3457.13      0.64765799      0.20630820
      3460.58      0.66747844      0.19953106
      3464.04      0.67794865      0.19400730
      3467.51      0.75700783      0.18945308
      3470.98      0.78819956      0.18562237
      3474.45      0.82721317      0.18152243
      3477.92      0.95380865      0.17855698
      3481.40      0.97788744      0.17598780
      3484.88       1.0150411      0.17542917
      3488.37       1.0569821      0.17466887
      3491.86       1.1403281      0.17410474
      3495.35       1.1514017      0.17444924
      3498.84       1.1254275      0.17392650
      3502.34       1.2606274      0.17312482
      3505.84       1.2862117      0.17347867
      3509.35       1.2456088      0.17291838
      3512.86       1.2555692      0.17328766
      3516.37       1.2897543      0.17160746
      3519.89       1.2785284      0.17196513
      3523.41       1.3097526      0.17232742
      3526.93       1.3290908      0.17177703
      3530.46       1.3839163      0.17102072
      3533.99       1.3465038      0.17138815
      3537.53       1.3235865      0.17085796
      3541.06       1.3086960      0.17122488
      3544.60       1.2883346      0.16954930
      3548.15       1.3121582      0.16991849
      3551.70       1.2374409      0.17032075
      3555.25       1.1535732      0.16981118
      3558.80       1.1256276      0.16901535
      3562.36       1.2145528      0.16941948
      3565.92       1.1859824      0.16887112
      3569.49       1.1372978      0.16812325
      3573.06       1.1107277      0.16853193
      3576.64       1.0900967      0.16801185
      3580.21       1.0512095      0.16841220
      3583.79       1.0677379      0.16767387
      3587.38      0.99552553      0.16711663
      3590.96      0.96493506      0.16757481
      3594.55      0.97111827      0.16680439
      3598.15      0.86432298      0.16628212
      3601.75      0.80925351      0.16670745
      3605.35      0.75504638      0.16718923
      3608.96      0.78351695      0.16542085
      3612.56      0.83245564      0.16589894
      3616.18      0.80205549      0.16635065
      3619.79      0.81201251      0.16562862
      3623.41      0.80176921      0.16506460
      3627.04      0.86679050      0.16557259
      3630.66      0.82304249      0.16481078
      3634.29      0.83584289      0.16429283
      3637.93      0.76408609      0.16476623
      3641.57      0.81754087      0.16404136
      3645.21      0.85346919      0.16454021
      3648.86      0.87594068      0.16402751
      3652.50      0.83915291      0.16326022
      3656.16      0.79607510      0.16379203
      3659.81      0.76104839      0.16324092
      3663.47      0.88716337      0.16251264
      3667.14      0.86252539      0.16305161
      3670.80      0.86533614      0.16360114
      3674.48      0.78831307      0.16178225
      3678.15      0.76901228      0.16232038
      3681.83      0.70584471      0.16290769
      3685.51      0.65807836      0.16216081
      3689.20      0.59573432      0.16164493
      3692.88      0.61489196      0.16219646
      3696.58      0.58921900      0.16147991
      3700.27      0.64970016      0.16207597
      3703.98      0.69388058      0.16269792
      3707.68      0.71793633      0.16081155
      3711.39      0.67571266      0.16141454
      3715.10      0.71962145      0.16207700
      3718.81      0.69640733      0.16132475
      3722.53      0.70112495      0.16199490
      3726.26      0.65870722      0.16143095
      3729.98      0.74408853      0.16070548
      3733.71      0.80658274      0.16139453
      3737.45      0.77175571      0.16207244
      3741.18      0.75173731      0.16137395
      3744.93      0.78110251      0.16079467
      3748.67      0.70398875      0.16007850
      3752.42      0.72669793      0.16079944
      3756.17      0.70594198      0.16152298
      3759.93      0.65552149      0.16082977
      3763.69      0.59879947      0.16024224
      3767.45      0.58250396      0.16106979
      3771.22      0.57980139      0.16029387
      3774.99      0.61387957      0.16106045
      3778.77      0.59118975      0.16036504
      3782.54      0.57373613      0.16115449
      3786.33      0.59035428      0.16067094
      3790.11      0.55283648      0.15988878
      3793.90      0.64388522      0.16069071
      3797.70      0.71446278      0.15998653
      3801.50      0.80360164      0.16084492
      3805.30      0.81638639      0.16171883
      3809.10      0.84801543      0.15959455
      3812.91      0.71620769      0.15883791
      3816.73      0.78880500      0.15970957
      3820.54      0.94652964      0.15759296
      3824.36      0.99004027      0.15685811
      3828.19       1.1379809      0.15638606
      3832.02       1.2440688      0.15561843
      3835.85       1.2977759      0.15489373
      3839.68       1.3869824      0.15441954
      3843.52       1.3738481      0.15367112
      3847.37       1.4257189      0.15295658
      3851.22       1.5511420      0.15092537
      3855.07       1.6230884      0.15174502
      3858.92       1.7053227      0.14970084
      3862.78       1.7588181      0.14903627
      3866.64       1.7772634      0.14984672
      3870.51       1.8100484      0.14782629
      3874.38       1.7777583      0.14716452
      3878.26       1.8093706      0.14797356
      3882.13       1.8986544      0.14597250
      3886.02       1.9925972      0.14531617
      3889.90       2.2117202      0.14468743
      3893.79       2.3589017      0.14414306
      3897.69       2.5160508      0.14348828
      3901.59       2.5627837      0.14285873
      3905.49       2.5971922      0.14097471
      3909.39       2.6677774      0.14168230
      3913.30       2.7096684      0.14105434
      3917.22       2.7038652      0.13920980
      3921.13       2.8492629      0.13990340
      3925.06       2.9332643      0.13927090
      3928.98       2.8853845      0.13866270
      3932.91       2.7977594      0.13682683
      3936.84       2.6547276      0.13751456
      3940.78       2.5729379      0.13690226
      3944.72       2.4207810      0.13511751
      3948.67       2.3566371      0.13448463
      3952.61       2.3581824      0.13516678
      3956.57       2.2920252      0.13344589
      3960.52       2.3539366      0.13280915
      3964.48       2.3585074      0.13219143
      3968.45       2.3475353      0.13158687
      3972.42       2.3553366      0.13116559
      3976.39       2.3590626      0.13053935
      3980.37       2.4451643      0.12992956
      3984.35       2.5221661      0.12823645
      3988.33       2.5456674      0.12892485
      3992.32       2.5874878      0.12831453
      3996.31       2.7214338      0.12771284
      4000.31       2.6596460      0.12604687
      4004.31       2.6149034      0.12548158
      4008.31       2.5868860      0.12613113
      4012.32       2.4658497      0.12554160
      4016.33       2.3700010      0.12389731
      4020.35       2.2379332      0.12333887
      4024.37       2.0996149      0.12279148
      4028.40       2.0421683      0.12340848
      4032.42       1.9880205      0.12178554
      4036.46       1.9548494      0.12123114
      4040.50       1.8979819      0.12068689
      4044.54       1.8194256      0.12015467
      4048.58       1.7844661      0.11963057
      4052.63       1.7807923      0.11916988
      4056.68       1.7551009      0.11862749
      4060.74       1.7230988      0.11809589
      4064.80       1.7194961      0.11757226
      4068.86       1.6645625      0.11606956
      4072.93       1.5813480      0.11553466
      4077.01       1.4588210      0.11608205
      4081.08       1.3739627      0.11556080
      4085.17       1.3631845      0.11504684
      4089.25       1.3320830      0.11359551
      4093.34       1.3044049      0.11306895
      4097.43       1.2889806      0.11255130
      4101.53       1.2713064      0.11204058
      4105.63       1.3043972      0.11258263
      4109.74       1.3339283      0.11119250
      4113.85       1.3488013      0.11067255
      4117.96       1.3452591      0.11016106
      4122.08       1.3404081      0.10965770
      4126.20       1.3565073      0.10915823
      4130.33       1.3538416      0.10866661
      4134.46       1.3520001      0.10729263
      4138.59       1.3578731      0.10681813
      4142.73       1.4198469      0.10734837
      4146.88       1.4536505      0.10685604
      4151.02       1.4584410      0.10637050
      4155.18       1.5038038      0.10589210
      4159.33       1.6007141      0.10454986
      4163.49       1.7031618      0.10408417
      4167.65       1.7948415      0.10362233
      4171.82       1.8760111      0.10316659
      4175.99       1.8581983      0.10271324
      4180.17       1.8647594      0.10226543
      4184.35       1.8967984      0.10182006
      4188.54       1.8317277      0.10144382
      4192.72       1.7053240      0.10099062
      4196.92       1.6031501      0.10054144
      4201.11       1.5408083      0.10009684
      4205.31       1.4299771     0.099655994
      4209.52       1.3036124     0.099218448
      4213.73       1.2833025     0.098785072
      4217.94       1.2717627     0.098355984
      4222.16       1.2653039     0.097152976
      4226.38       1.2426896     0.096721814
      4230.61       1.1621338     0.096292996
      4234.84       1.1686811     0.095868361
      4239.08       1.1708956     0.095447544
      4243.32       1.2259119     0.095028716
      4247.56       1.3120415     0.094611844
      4251.81       1.3600677     0.094199116
      4256.06       1.3935121     0.093788173
      4260.32       1.4128109     0.093382294
      4264.58       1.4204292     0.092977770
      4268.84       1.3986237     0.091842173
      4273.11       1.3527183     0.091445694
      4277.38       1.3998373     0.091053255
      4281.66       1.3496116     0.090662603
      4285.94       1.3568335     0.090277028
      4290.23       1.3724215     0.089891068
      4294.52       1.4688619     0.089507346
      4298.81       1.4323568     0.089125456
      4303.11       1.4311998     0.088748301
      4307.42       1.3047349     0.088369294
      4311.72       1.2218021     0.087995072
      4316.04       1.1418063     0.087622160
      4320.35       1.0500590     0.087253948
      4324.67      0.98843667     0.086885221
      4329.00      0.85394063     0.086520388
      4333.33      0.74728619     0.086156928
      4337.66      0.76152356     0.085797842
      4342.00      0.74719203     0.085436817
      4346.34      0.72704828     0.085080381
      4350.69      0.73486302     0.084725115
      4355.04      0.74350134     0.084374411
      4359.39      0.79707897     0.084021623
      4363.75      0.79339197     0.083673296
      4368.12      0.84094312     0.083326318
      4372.48      0.89068447     0.082983595
      4376.86      0.93846363     0.082640657
      4381.23      0.93290362     0.082301560
      4385.61      0.96721397     0.081963900
      4390.00      0.94498059     0.081629976
      4394.39      0.92102489     0.081296129
      4398.79      0.87360180     0.080966628
      4403.18      0.78133736     0.079941836
      4407.59      0.71424368     0.079620891
      4412.00      0.63024445     0.079300314
      4416.41      0.62682977     0.078984267
      4420.82      0.71772098     0.078669588
      4425.25      0.76374460     0.078357879
      4429.67      0.78326053     0.078047039
      4434.10      0.86314939     0.077740740
      4438.54      0.91127308     0.077435122
      4442.97      0.96100322     0.077135062
      4447.42       1.0069146     0.076175188
      4451.86       1.0349814     0.075874056
      4456.32       1.0692309     0.075575228
      4460.77       1.1296646     0.075281384
      4465.24       1.2416803     0.074988803
      4469.70       1.3118642     0.074699561
      4474.17       1.3681049     0.074413044
      4478.65       1.4304918     0.074129672
      4483.12       1.4467044     0.073849208
      4487.61       1.4143316     0.072958721
      4492.09       1.4248811     0.073243048
      4496.59       1.3821322     0.072961253
      4501.08       1.3769729     0.072683429
      4505.58       1.3822957     0.072409166
      4510.09       1.3993118     0.072138106
      4514.60       1.4081532     0.071870215
      4519.12       1.4478580     0.071010294
      4523.63       1.4928684     0.070752906
      4528.16       1.5063599     0.070498810
      4532.69       1.5806874     0.070248773
      4537.22       1.6066519     0.070002261
      4541.76       1.7560893     0.070258190
      4546.30       1.7455006     0.069423543
      4550.85       1.7662345     0.069177171
      4555.40       1.7765881     0.068933693
      4559.95       1.7935866     0.068694159
      4564.51       1.8659224     0.068459512
      4569.08       1.9069974     0.067641412
      4573.65       1.9364416     0.067403679
      4578.22       1.9879873     0.067679856
      4582.80       1.9718160     0.067448223
      4587.38       2.0101752     0.067221077
      4591.97       2.0431626     0.066437945
      4596.56       2.0227142     0.066208486
      4601.16       1.9949891     0.065983075
      4605.76       2.0073194     0.065762406
      4610.37       2.0163979     0.066044862
      4614.98       1.9285885     0.065287662
      4619.59       1.9479157     0.065065416
      4624.21       1.9369660     0.064849266
      4628.84       1.9201102     0.064637554
      4633.47       1.8193263     0.063915130
      4638.10       1.7948409     0.064184669
      4642.74       1.8285894     0.063973224
      4647.38       1.8226007     0.063767069
      4652.03       1.8525149     0.063058061
      4656.68       1.8822061     0.062865698
      4661.34       1.8478933     0.063132075
      4666.00       1.8088796     0.062931258
      4670.67       1.7626529     0.062236074
      4675.33       1.7849693     0.062049988
      4680.01       1.7058950     0.061869271
      4684.69       1.6404939     0.062130677
      4689.38       1.6458465     0.061448911
      4694.07       1.5780505     0.061269910
      4698.76       1.5127153     0.061095901
      4703.46       1.4616755     0.060423078
      4708.16       1.4516515     0.060694205
      4712.87       1.4188036     0.060521774
      4717.58       1.3866664     0.060356749
      4722.30       1.3542479     0.059696240
      4727.03       1.2847642     0.059971185
      4731.75       1.2785158     0.059808174
      4736.48       1.2585357     0.059168589
      4741.22       1.2312517     0.059001704
      4745.96       1.1714145     0.059282050
      4750.71       1.1224818     0.058660172
      4755.46       1.1050593     0.058495891
      4760.22       1.1093766     0.058338841
      4764.97       1.1211164     0.058169375
      4769.74       1.0952091     0.058007489
      4774.51       1.1613776     0.057853306
      4779.29       1.1429902     0.057266340
      4784.07       1.1197536     0.057537350
      4788.85       1.1203807     0.057388123
      4793.64       1.1228733     0.056807129
      4798.43       1.1052031     0.057084908
      4803.23       1.0899328     0.056938907
      4808.03       1.0839984     0.056367848
      4812.84       1.0543409     0.056241151
      4817.66      0.97758035     0.056507834
      4822.48       1.0406467     0.055945573
      4827.30       1.0612548     0.055824207
      4832.12       1.0222633     0.055664865
      4836.96       1.0541488     0.055539564
      4841.79       1.1063778     0.055425014
      4846.63       1.2243015     0.055270264
      4851.48       1.2895993     0.055152163
      4856.33       1.3577659     0.055043461
      4861.19       1.4299169     0.054893530
      4866.05       1.4315652     0.054782126
      4870.92       1.3765665     0.054249251
      4875.79       1.3878527     0.054533197
      4880.66       1.3909834     0.054015876
      4885.55       1.4196869     0.053900102
      4890.43       1.4127929     0.054189095
      4895.32       1.4367595     0.053675089
      4900.22       1.3944748     0.053566496
      4905.12       1.3821906     0.053460175
      4910.02       1.3302299     0.053350989
      4914.94       1.3553820     0.053251879
      4919.85       1.3402372     0.053144886
      4924.77       1.3395650     0.053044702
      4929.70       1.3737213     0.052947765
      4934.62       1.3533798     0.052845678
      4939.56       1.3619451     0.052369730
      4944.50       1.3430464     0.052656107
      4949.44       1.2931011     0.052180471
      4954.39       1.2260499     0.052102759
      4959.35       1.0850499     0.051999586
      4964.31       1.0302262     0.051922205
      4969.27      0.98583114     0.052209045
      4974.24      0.94966046     0.051750392
      4979.22      0.91676613     0.051684489
      4984.20      0.88457695     0.051586018
      4989.18      0.87049034     0.051521353
      4994.17      0.86588639     0.051430223
      4999.16      0.88335367     0.051365557
      5004.16      0.88457456     0.051280301
      5009.17      0.93600391     0.051217109
      5014.18       1.0167117     0.050770623
      5019.19       1.0566999     0.051075469
      5024.21       1.0660143     0.050635926
      5029.23       1.1004570     0.050941654
      5034.26       1.1483681     0.050507471
      5039.30       1.2039747     0.050814740
      5044.34       1.2072118     0.050385973
      5049.39       1.1714160     0.050694978
      5054.43       1.1552725     0.050271111
      5059.49       1.1760747     0.049864448
      5064.55       1.1779459     0.050161365
      5069.61       1.2132626     0.049759196
      5074.68       1.2134792     0.050058248
      5079.76       1.2465148     0.049659834
      5084.84       1.2572904     0.049959922
      5089.92       1.2643660     0.049566659
      5095.01       1.2490790     0.049868630
      5100.11       1.2046453     0.049481116
      5105.21       1.2556735     0.049436090
      5110.31       1.2618610     0.049401474
      5115.42       1.2351693     0.049358506
      5120.54       1.1907701     0.049328043
      5125.66       1.1499523     0.049287182
      5130.79       1.1056160     0.049261334
      5135.92       1.0650353     0.049220924
      5141.05       1.0086470     0.048844059
      5146.20      0.98034693     0.049161269
      5151.34      0.99857598     0.048785320
      5156.49       1.0024113     0.049108673
      5161.65       1.0825315     0.049080922
      5166.81       1.1775346     0.048716400
      5171.98       1.2204171     0.049034940
      5177.15       1.2683737     0.048670475
      5182.33       1.3014684     0.048996132
      5187.51       1.3388339     0.048631307
      5192.70       1.3858300     0.048623138
      5197.89       1.4188049     0.048598059
      5203.09       1.4958337     0.048589650
      5208.29       1.5290349     0.048246011
      5213.50       1.5070555     0.048562229
      5218.72       1.5303520     0.048562080
      5223.93       1.5452580     0.048217108
      5229.16       1.5414487     0.048540949
      5234.39       1.5564016     0.048205667
      5239.62       1.5880435     0.048202760
      5244.86       1.6419082     0.048531680
      5250.11       1.6875480     0.048197142
      5255.36       1.7149188     0.048200302
      5260.61       1.7695819     0.048200285
      5265.87       1.7652157     0.048200954
      5271.14       1.7991341     0.048208999
      5276.41       1.7853155     0.048210638
      5281.69       1.7883590     0.048216591
      5286.97       1.7661233     0.047892414
      5292.26       1.7614725     0.048233245
      5297.55       1.7316274     0.048243555
      5302.85       1.6767851     0.047923284
      5308.15       1.6772468     0.048267271
      5313.46       1.6325272     0.048281199
      5318.77       1.6289572     0.047963551
      5324.09       1.5983661     0.047990127
      5329.42       1.5647801     0.048329735
      5334.75       1.5556106     0.048014292
      5340.08       1.5605272     0.048042428
      5345.42       1.5631862     0.048077162
      5350.77       1.5775804     0.048074206
      5356.12       1.5674296     0.048104859
      5361.48       1.5951993     0.048141710
      5366.83       1.5925440     0.047835162
      5372.20       1.6478408     0.048177976
      5377.58       1.6235153     0.048214865
      5382.95       1.6576241     0.047916520
      5388.34       1.6539017     0.047949999
      5393.72       1.6309768     0.048298198
      5399.12       1.6054027     0.048007877
      5404.52       1.6457806     0.048042295
      5409.92       1.6643927     0.048081341
      5415.33       1.6917315     0.048111234
      5420.75       1.7122422     0.048146076
      5426.17       1.7863732     0.048185239
      5431.60       1.7670270     0.048228237
      5437.03       1.7911356     0.047942615
      5442.47       1.7823234     0.048301399
      5447.91       1.7675539     0.048343870
      5453.36       1.7764092     0.048056270
      5458.81       1.7876917     0.048105200
      5464.27       1.7871899     0.048157399
      5469.73       1.7187039     0.048517012
      5475.20       1.6988055     0.048230944
      5480.68       1.6660723     0.048282430
      5486.16       1.6662652     0.048336091
      5491.65       1.5983341     0.048393514
      5497.14       1.5245981     0.048453261
      5502.64       1.4864879     0.048474075
      5508.14       1.5081108     0.048529756
      5513.65       1.4726025     0.048587787
      5519.16       1.4650458     0.048648247
      5524.68       1.4723004     0.048378673
      5530.20       1.4759716     0.048435174
      5535.73       1.4588468     0.048493198
      5541.27       1.4806049     0.048553665
      5546.81       1.4757547     0.048919697
      5552.36       1.4733581     0.048657329
      5557.91       1.5072976     0.048717147
      5563.47       1.5483915     0.048777825
      5569.04       1.5248327     0.048840800
      5574.60       1.4993776     0.048905720
      5580.18       1.5255474     0.048640177
      5585.76       1.5507730     0.048707079
      5591.35       1.5775861     0.048775550
      5596.94       1.5350822     0.049147139
      5602.53       1.4719554     0.049213221
      5608.14       1.3971145     0.049280253
      5613.75       1.3484497     0.049014934
      5619.36       1.3171415     0.049083922
      5624.98       1.2841174     0.049154067
      5630.60       1.2557286     0.049225462
      5636.23       1.2187719     0.049297462
      5641.87       1.2521456     0.049370595
      5647.51       1.2751194     0.049444866
      5653.16       1.2770604     0.049187410
      5658.82       1.2433901     0.049258487
      5664.47       1.2207022     0.049330348
      5670.14       1.2068704     0.049403204
      5675.81       1.1760267     0.049476427
      5681.48       1.1718885     0.049550760
      5687.17       1.1762764     0.049626020
      5692.85       1.1680059     0.049701551
      5698.55       1.1696014     0.050078323
      5704.25       1.1348202     0.049834039
      5709.95       1.0791171     0.049909332
      5715.66       1.0594028     0.049986216
      5721.38       1.0573703     0.050066401
      5727.10       1.0765990     0.050150313
      5732.83       1.0875202     0.050232198
      5738.56       1.0813388     0.050312936
      5744.30       1.0848061     0.050397970
      5750.04       1.1302806     0.050194704
      5755.79       1.0876361     0.050308316
      5761.55       1.0702373     0.050431598
      5767.31       1.0583829     0.050555377
      5773.08       1.0075132     0.050683662
      5778.85      0.98044939     0.050819339
      5784.63      0.95623103     0.050950272
      5790.41      0.91513219     0.051063346
      5796.21      0.90531444     0.051162561
      5802.00      0.84969884     0.051254450
      5807.81      0.84996752     0.051005530
      5813.61      0.82420073     0.051083509
      5819.43      0.80400789     0.051153255
      5825.25      0.81133007     0.051222695
      5831.07      0.83334325     0.051295453
      5836.90      0.84952030     0.051369388
      5842.74      0.90843598     0.051439163
      5848.58      0.92824817     0.051502346
      5854.43      0.95966769     0.051243824
      5860.29      0.99135223     0.051294587
      5866.15       1.0168917     0.051347271
      5872.01       1.0590625     0.051397614
      5877.89       1.0781611     0.051769164
      5883.76       1.0414937     0.051814730
      5889.65       1.0615208     0.051873045
      5895.54       1.0535424     0.051933122
      5901.43       1.0533049     0.051986172
      5907.34       1.0600161     0.051740103
      5913.24       1.0316194     0.051800613
      5919.16       1.0410931     0.051866480
      5925.08       1.0211293     0.051935485
      5931.00      0.99840798     0.052006198
      5936.93      0.97409469     0.052079411
      5942.87      0.94209384     0.052155582
      5948.81      0.91476882     0.051933001
      5954.76      0.91865300     0.052009152
      5960.72      0.91057077     0.052085829
      5966.68      0.89800063     0.052163809
      5972.64      0.91720416     0.052242457
      5978.62      0.88798878     0.052643707
      5984.60      0.87092849     0.052417154
      5990.58      0.83011028     0.052492172
      5996.57      0.81399473     0.052567337
      6002.57      0.79778886     0.052643781
      6008.57      0.79797291     0.052721003
      6014.58      0.83187116     0.052489476
      6020.60      0.85827277     0.052560496
      6026.62      0.88999629     0.052632649
      6032.65      0.90894625     0.053038437
      6038.68      0.93744347     0.053112046
      6044.72      0.95115244     0.052881203
      6050.76      0.94057538     0.052949070
      6056.81      0.94445895     0.053017372
      6062.87      0.95431001     0.053087040
      6068.93      0.95427672     0.052860325
      6075.00       1.0092268     0.053259091
      6081.08       1.0076132     0.053324118
      6087.16      0.98769988     0.053390128
      6093.25      0.99490974     0.053159291
      6099.34      0.94346888     0.053236807
      6105.44      0.87359919     0.053657636
      6111.54      0.82201180     0.053738813
      6117.66      0.77516742     0.053497077
      6123.78      0.78616548     0.053572172
      6129.90      0.76865967     0.053677867
      6136.03      0.75417421     0.053811919
      6142.17      0.77399685     0.054008158
      6148.31      0.78402039     0.054186016
      6154.46      0.76579523     0.054373685
      6160.61      0.75892628     0.054259256
      6166.77      0.73775069     0.054763782
      6172.94      0.73112506     0.054896783
      6179.11      0.74276435     0.054679163
      6185.29      0.75831494     0.054724510
      6191.48      0.75181499     0.054735422
      6197.67      0.74173723     0.054722514
      6203.87      0.74715613     0.054671299
      6210.07      0.74198599     0.054621146
      6216.28      0.69034030     0.054285677
      6222.50      0.67916058     0.054607766
      6228.72      0.65461621     0.054613052
      6234.95      0.63042066     0.054292877
      6241.19      0.61561236     0.054612320
      6247.42      0.65302448     0.054620492
      6253.67      0.67343577     0.054328169
      6259.93      0.68532533     0.054348537
      6266.19      0.66382845     0.054684187
      6272.46      0.63997167     0.054402417
      6278.73      0.63972740     0.054432224
      6285.01      0.65225199     0.054474436
      6291.29      0.64300331     0.054508909
      6297.58      0.64428813     0.054550964
      6303.88      0.63752164     0.054601096
      6310.19      0.64558107     0.054639457
      6316.50      0.67754919     0.054377135
      6322.81      0.69067271     0.054748277
      6329.14      0.69926837     0.054515390
      6335.47      0.72723206     0.054584500
      6341.80      0.75535345     0.054990869
      6348.14      0.74799277     0.054757102
      6354.49      0.74464345     0.054812715
      6360.85      0.73916472     0.054899881
      6367.21      0.75125543     0.054942209
      6373.57      0.70917141     0.054679947
      6379.95      0.68038579     0.055020255
      6386.33      0.62886550     0.054724247
      6392.72      0.61640135     0.054728934
      6399.11      0.58997652     0.055034521
      6405.51      0.58481510     0.054732318
      6411.92      0.55518192     0.055048719
      6418.32      0.52496606     0.054753696
      6424.74      0.53756829     0.054767695
      6431.17      0.55195257     0.054768375
      6437.60      0.59908402     0.054764103
      6444.04      0.63740664     0.054749967
      6450.48      0.68983413     0.054737204
      6456.94      0.69790660     0.054417790
      6463.39      0.75208777     0.054719853
      6469.85      0.77292228     0.054387767
      6476.33      0.79991972     0.054673007
      6482.80      0.82452157     0.054347893
      6489.28      0.79666820     0.054349654
      6495.77      0.80201251     0.054332307
      6502.27      0.78171062     0.054336927
      6508.77      0.76471186     0.054319031
      6515.28      0.78091438     0.054015977
      6521.80      0.73221179     0.054303152
      6528.32      0.69252896     0.053996273
      6534.85      0.66941041     0.054278232
      6541.38      0.62532377     0.053969312
      6547.92      0.60136088     0.053954461
      6554.47      0.59014708     0.053938665
      6561.03      0.60604257     0.053917446
      6567.59      0.60647689     0.053899483
      6574.16      0.61115068     0.053872954
      6580.73      0.57825187     0.053852762
      6587.31      0.59777706     0.053819754
      6593.90      0.60278126     0.053494690
      6600.50      0.61640231     0.053758970
      6607.10      0.59394117     0.053427996
      6613.70      0.55298594     0.053396148
      6620.32      0.57276580     0.053353218
      6626.94      0.56301197     0.053314770
      6633.57      0.57151868     0.053564889
      6640.20      0.54388033     0.053224709
      6646.84      0.52212936     0.053181282
      6653.49      0.48938420     0.053127081
      6660.14      0.49041774     0.053075856
      6666.80      0.46080496     0.052739082
      6673.47      0.42481112     0.052996858
      6680.14      0.38414491     0.052829282
      6686.82      0.37324765     0.052957895
      6693.51      0.37351253     0.053131406
      6700.20      0.34796413     0.052765318
      6706.90      0.35096298     0.052910029
      6713.61      0.38539690     0.053190801
      6720.32      0.43597690     0.053716946
      6727.05      0.45876771     0.054421945
      6733.77      0.46308001     0.055067373
      6740.51      0.50786131     0.055891753
      6747.25      0.52495890     0.056253980
      6754.00      0.51399117     0.056783984
      6760.75      0.50306639     0.057346219
      6767.51      0.47794098     0.056938926
      6774.28      0.46167443     0.056561029
      6781.05      0.40129642     0.055909724
      6787.84      0.34753416     0.055256695
      6794.62      0.29654886     0.054423869
      6801.42      0.22314046     0.053695900
      6808.22      0.20010071     0.052946964
      6815.03      0.18190159     0.052858408
      6821.85      0.16775442     0.052313769
      6828.67      0.12927124     0.051605294
      6835.50      0.13365139     0.051259905
      6842.33      0.18106342     0.051246117
      6849.17      0.18654702     0.050713946
      6856.02      0.19017994     0.050453453
      6862.88      0.18976445     0.050235590
      6869.74      0.22855809     0.049805683
      6876.61      0.24431497     0.049914153
      6883.49      0.28045198     0.049748268
      6890.37      0.29110965     0.049569445
      6897.27      0.33537348     0.048621354
      6904.16      0.37581995     0.048187507
      6911.07      0.37384080     0.047478399
      6917.98      0.37891947     0.046782228
      6924.89      0.39613231     0.046349324
      6931.82      0.43018922     0.045697736
      6938.75      0.47772407     0.045066533
      6945.69      0.48834115     0.044450394
      6952.64      0.53246607     0.044063181
      6959.59      0.51787787     0.043327341
      6966.55      0.50668850     0.042818354
      6973.52      0.46681811     0.042314688
      6980.49      0.45079956     0.042002254
      6987.47      0.44711521     0.041492033
      6994.46      0.44681266     0.041009363
      7001.46      0.38942620     0.040598352
      7008.46      0.37874580     0.040466277
      7015.46      0.34771912     0.040270928
      7022.48      0.35087814     0.040086861
      7029.51      0.33540540     0.039693734
      7036.53      0.32446930     0.039434008
      7043.57      0.32325238     0.039156970
      7050.62      0.29237877     0.039013674
      7057.66      0.29024106     0.038677797
      7064.72      0.29744874     0.038316704
      7071.79      0.27510155     0.037927382
      7078.86      0.25428286     0.037508009
      7085.94      0.26070891     0.037050617
      7093.03      0.28188081     0.036564539
      7100.12      0.27659689     0.036216781
      7107.22      0.26398139     0.035708518
      7114.33      0.27608772     0.035192549
      7121.44      0.29906401     0.034579488
      7128.56      0.32073676     0.034043935
      7135.69      0.32448588     0.033499812
      7142.83      0.32669918     0.032957239
      7149.97      0.31203678     0.032419986
      7157.12      0.33084120     0.032027043
      7164.28      0.33023473     0.032357027
      7171.44      0.34134677     0.032761683
      7178.62      0.33716575     0.033257403
      7185.80      0.33456237     0.033868290
      7192.98      0.33137389     0.034630250
      7200.17      0.33761980     0.035603324
      7207.38      0.33263538     0.036867238
      7214.58      0.32046817     0.038550813
      7221.80      0.30806897     0.040834570
      7229.02      0.31469826     0.043934118
      7236.25      0.30098420     0.048075299
      7243.49      0.28903755     0.053464714
      7250.73      0.27243455     0.060326052
      7257.98      0.25121335     0.069037052
      7265.24      0.22944101     0.080034048
      7272.51      0.18194790     0.093855598
