# starting wavelength =        3498.0021
# ending wavelength =        7356.4400
# O2 telluric scale =        0
# O2 telluric shift =        0
# H2O telluric scale =        0
# H2O telluric shift =        0
      3498.84      0.54548178     0.054728451
      3502.34      0.54469688     0.052970534
      3505.84      0.53246806     0.051538138
      3509.35      0.50886588     0.050219839
      3512.86      0.51635193     0.049158666
      3516.37      0.52953264     0.048255981
      3519.89      0.52714699     0.047478440
      3523.41      0.52310104     0.046505907
      3526.93      0.54054979     0.046344997
      3530.46      0.56530029     0.046405772
      3533.99      0.60256835     0.046474823
      3537.53      0.62031119     0.046010192
      3541.06      0.65101080     0.046076179
      3544.60      0.67215716     0.045917332
      3548.15      0.68708998     0.045979893
      3551.70      0.70803866     0.045752805
      3555.25      0.70370710     0.045584791
      3558.80      0.70310027     0.045657118
      3562.36      0.72212377     0.045501473
      3565.92      0.74385824     0.045261640
      3569.49      0.75480781     0.045334803
      3573.06      0.75232447     0.045169918
      3576.64      0.77118861     0.045250611
      3580.21      0.75360452     0.045015117
      3583.79      0.74574783     0.044856277
      3587.38      0.72222688     0.044928919
      3590.96      0.71657314     0.044706123
      3594.55      0.70565185     0.044537367
      3598.15      0.66377340     0.044618448
      3601.75      0.65270866     0.044699208
      3605.35      0.66141238     0.044227402
      3608.96      0.66671240     0.044308128
      3612.56      0.63946908     0.044392233
      3616.18      0.62949657     0.043918752
      3619.79      0.62220250     0.044001928
      3623.41      0.61105376     0.044089366
      3627.04      0.57487399     0.043924739
      3630.66      0.57962162     0.043699959
      3634.29      0.56712283     0.043787213
      3637.93      0.55546497     0.043632397
      3641.57      0.54666918     0.043399260
      3645.21      0.55015605     0.043492313
      3648.86      0.57067293     0.043327847
      3652.50      0.57392837     0.043105361
      3656.16      0.60561189     0.043197107
      3659.81      0.62177719     0.043043494
      3663.47      0.62302376     0.043131469
      3667.14      0.62227806     0.042908406
      3670.80      0.64533025     0.043007409
      3674.48      0.66460683     0.042855029
      3678.15      0.66273709     0.042621630
      3681.83      0.66965394     0.042723091
      3685.51      0.69135808     0.042830632
      3689.20      0.69940283     0.042337574
      3692.88      0.71186180     0.042444405
      3696.58      0.75557172     0.042551225
      3700.27      0.80475672     0.042061718
      3703.98      0.81373863     0.042164889
      3707.68      0.82567453     0.042283180
      3711.39      0.82276463     0.042054533
      3715.10      0.82676358     0.041899897
      3718.81      0.86484912     0.042007022
      3722.53      0.87383447     0.041786583
      3726.26      0.89076042     0.041904735
      3729.98      0.87761412     0.042026837
      3733.71      0.85595442     0.041522086
      3737.45      0.84092088     0.041639858
      3741.18      0.83890771     0.041773049
      3744.93      0.82850279     0.041544457
      3748.67      0.83629942     0.041391483
      3752.42      0.83255880     0.041162050
      3756.17      0.81158911     0.041290575
      3759.93      0.78689064     0.041427364
      3763.69      0.79192419     0.041203153
      3767.45      0.78421410     0.041046130
      3771.22      0.77804434     0.041176471
      3774.99      0.79266486     0.040958131
      3778.77      0.82114150     0.041099525
      3782.54      0.83836592     0.041245068
      3786.33      0.87735036     0.040719184
      3790.11      0.89963027     0.040857373
      3793.90      0.88256261     0.040640902
      3797.70      0.86278527     0.040790906
      3801.50      0.84024335     0.040945238
      3805.30      0.84019009     0.040732797
      3809.10      0.82012326     0.040557434
      3812.91      0.79485247     0.040735289
      3816.73      0.75384986     0.040502778
      3820.54      0.71719221     0.040664161
      3824.36      0.69895159     0.040451092
      3828.19      0.69364098     0.040619153
      3832.02      0.68713946     0.040472195
      3835.85      0.70159412     0.040235710
      3839.68      0.71307003     0.040404481
      3843.52      0.75561636     0.040187354
      3847.37      0.76987070     0.040372523
      3851.22      0.78703795     0.040147789
      3855.07      0.82685786     0.039993144
      3858.92      0.86613020     0.039762404
      3862.78      0.88716118     0.039542814
      3866.64      0.89284121     0.039387598
      3870.51      0.88239633     0.039160706
      3874.38      0.86830908     0.038603848
      3878.26      0.85626103     0.038789022
      3882.13      0.85833129     0.038566383
      3886.02      0.85817136     0.038017431
      3889.90      0.87841817     0.038197919
      3893.79      0.89508123     0.037977846
      3897.69      0.90854473     0.037437265
      3901.59      0.91405435     0.037614330
      3905.49      0.92136921     0.037396245
      3909.39      0.94074614     0.036862816
      3913.30      0.95093404     0.036662270
      3917.22      0.97619205     0.036821825
      3921.13      0.97345652     0.036293889
      3925.06      0.98957135     0.036095036
      3928.98       1.0243601     0.036254643
      3932.91       1.0283979     0.035732646
      3936.84       1.0175918     0.035533771
      3940.78      0.99802752     0.035341670
      3944.72      0.97661009     0.035178303
      3948.67      0.96469155     0.034978992
      3952.61      0.94372260     0.034786484
      3956.57      0.91703230     0.034292823
      3960.52      0.91482507     0.034431979
      3964.48      0.93028819     0.034238515
      3968.45      0.93583774     0.033758787
      3972.42      0.93327339     0.033561432
      3976.39      0.93114712     0.033698983
      3980.37      0.95180141     0.033233460
      3984.35      0.97120181     0.033035735
      3988.33       1.0030317     0.032843104
      3992.32       1.0363195     0.032978793
      3996.31       1.0689894     0.032519217
      4000.31       1.1240343     0.032325356
      4004.31       1.1567503     0.032136200
      4008.31       1.1697070     0.032011649
      4012.32       1.1874729     0.031816622
      4016.33       1.2082285     0.031626939
      4020.35       1.2014635     0.031441026
      4024.37       1.1899420     0.030998653
      4028.40       1.1756467     0.031127757
      4032.42       1.1582245     0.030941154
      4036.46       1.1484387     0.030757950
      4040.50       1.1301583     0.030323733
      4044.54       1.1177113     0.030148982
      4048.58       1.1037441     0.030268076
      4052.63       1.1106412     0.030086983
      4056.68       1.1086884     0.029660263
      4060.74       1.0863910     0.029487006
      4064.80       1.0687834     0.029317395
      4068.86       1.0549887     0.029428295
      4072.93       1.0285524     0.029008775
      4077.01       1.0113474     0.028836590
      4081.08      0.97942153     0.028667950
      4085.17      0.95653042     0.028501168
      4089.25      0.95101042     0.028099774
      4093.34      0.92928708     0.028198973
      4097.43      0.89434528     0.028031277
      4101.53      0.88971412     0.027865290
      4105.63      0.88467153     0.027702389
      4109.74      0.89589901     0.027313340
      4113.85      0.90690654     0.027147814
      4117.96      0.91214571     0.027243457
      4122.08      0.93297021     0.027080921
      4126.20      0.95639256     0.026920547
      4130.33      0.98197652     0.026546078
      4134.46      0.99732580     0.026382891
      4138.59      0.99339080     0.026222326
      4142.73       1.0049972     0.026063042
      4146.88       1.0094049     0.026156021
      4151.02      0.99363894     0.025798573
      4155.18      0.99723761     0.025638738
      4159.33      0.97216754     0.025480074
      4163.49      0.95138162     0.025323731
      4167.65      0.91809393     0.025168808
      4171.82      0.90880814     0.025015999
      4175.99      0.90074647     0.024665991
      4180.17      0.89387312     0.024516562
      4184.35      0.88319442     0.024604990
      4188.54      0.89119159     0.024452407
      4192.72      0.88070886     0.024301310
      4196.92      0.88008124     0.024151179
      4201.11      0.88488665     0.023811582
      4205.31      0.90101213     0.023665709
      4209.52      0.91299223     0.023521267
      4213.73      0.92244289     0.023377994
      4217.94      0.94967664     0.023235377
      4222.16      0.97473450     0.023093779
      4226.38      0.97843922     0.022953478
      4230.61      0.97461813     0.022631731
      4234.84      0.98917709     0.022701543
      4239.08      0.97472574     0.022560579
      4243.32      0.97312619     0.022420919
      4247.56      0.97794215     0.022282627
      4251.81       1.0014294     0.022145012
      4256.06      0.98036447     0.022008409
      4260.32      0.97952784     0.021872887
      4264.58      0.98113184     0.021737789
      4268.84      0.97807788     0.021438909
      4273.11      0.96842486     0.021304650
      4277.38      0.96328364     0.021171410
      4281.66      0.94669265     0.021038700
      4285.94      0.94200659     0.020906681
      4290.23      0.93209849     0.020776128
      4294.52      0.92223459     0.020646371
      4298.81      0.92422290     0.020517534
      4303.11      0.91978365     0.020389390
      4307.42      0.91275872     0.020261674
      4311.72      0.89179679     0.020134732
      4316.04      0.88664447     0.019856255
      4320.35      0.88408538     0.019732246
      4324.67      0.88124275     0.019608635
      4329.00      0.89046277     0.019485750
      4333.33      0.88918681     0.019364085
      4337.66      0.88245519     0.019242673
      4342.00      0.90000953     0.019122073
      4346.34      0.91200638     0.019002224
      4350.69      0.90402961     0.018883159
      4355.04      0.90657153     0.018764783
      4359.39      0.90652831     0.018647029
      4363.75      0.90817631     0.018529825
      4368.12      0.92508746     0.018413406
      4372.48      0.93657855     0.018297340
      4376.86      0.94725176     0.018182233
      4381.23      0.95032182     0.018067785
      4385.61      0.96731628     0.017953610
      4390.00      0.96714687     0.017840573
      4394.39      0.96172282     0.017728236
      4398.79      0.96876909     0.017616295
      4403.18      0.96866230     0.017505048
      4407.59      0.96329728     0.017394881
      4412.00      0.97282609     0.017284996
      4416.41      0.96675265     0.017175903
      4420.82      0.96893962     0.017067510
      4425.25      0.96413288     0.016959886
      4429.67      0.95978859     0.016852912
      4434.10      0.94037252     0.016595459
      4438.54      0.93030577     0.016490836
      4442.97      0.93010870     0.016386543
      4447.42      0.94776189     0.016283336
      4451.86      0.97187347     0.016180916
      4456.32      0.98138394     0.016079232
      4460.77      0.97854887     0.015978030
      4465.24      0.98318891     0.015877924
      4469.70      0.99855992     0.015778290
      4474.17       1.0135717     0.015679530
      4478.65       1.0280075     0.015581562
      4483.12       1.0377488     0.015343764
      4487.61       1.0415932     0.015246765
      4492.09       1.0492071     0.015150480
      4496.59       1.0606608     0.015054873
      4501.08       1.0563058     0.014959880
      4505.58       1.0646166     0.014865954
      4510.09       1.0677051     0.014772802
      4514.60       1.0716872     0.014680459
      4519.12       1.0721312     0.014588637
      4523.63       1.0752903     0.014476785
      4528.16       1.0967752     0.014384965
      4532.69       1.1201601     0.014293744
      4537.22       1.1351634     0.014203706
      4541.76       1.1391548     0.014114764
      4546.30       1.1471278     0.014026509
      4550.85       1.1611560     0.013938931
      4555.40       1.1717596     0.013731214
      4559.95       1.1904904     0.013646302
      4564.51       1.2027288     0.013562294
      4569.08       1.2063771     0.013479277
      4573.65       1.2067483     0.013490082
      4578.22       1.2211718     0.013405866
      4582.80       1.2272039     0.013206213
      4587.38       1.2357813     0.013124759
      4591.97       1.2471431     0.013044084
      4596.56       1.2521415     0.012964630
      4601.16       1.2567089     0.012886179
      4605.76       1.2614627     0.012693151
      4610.37       1.2700042     0.012614752
      4614.98       1.2773918     0.012627286
      4619.59       1.2824810     0.012550466
      4624.21       1.2913454     0.012474539
      4628.84       1.2904357     0.012290921
      4633.47       1.3001721     0.012215265
      4638.10       1.2999322     0.012140726
      4642.74       1.2865224     0.012067040
      4647.38       1.2823909     0.012080668
      4652.03       1.2707414     0.011904626
      4656.68       1.2620555     0.011831499
      4661.34       1.2518511     0.011759685
      4666.00       1.2479530     0.011689042
      4670.67       1.2267799     0.011520962
      4675.33       1.2159004     0.011533618
      4680.01       1.1969064     0.011463524
      4684.69       1.1821022     0.011394695
      4689.38       1.1742668     0.011327251
      4694.07       1.1678635     0.011165502
      4698.76       1.1595427     0.011101014
      4703.46       1.1393055     0.011110885
      4708.16       1.1405820     0.010951930
      4712.87       1.1379931     0.010888151
      4717.58       1.1332972     0.010825696
      4722.30       1.1296745     0.010764510
      4727.03       1.1228823     0.010682554
      4731.75       1.1145060     0.010620975
      4736.48       1.1125323     0.010560828
      4741.22       1.1065016     0.010502073
      4745.96       1.1096561     0.010423324
      4750.71       1.1022578     0.010364050
      4755.46       1.0913659     0.010306204
      4760.22       1.0813556     0.010161019
      4764.97       1.0740947     0.010103093
      4769.74       1.0681585     0.010116919
      4774.51       1.0646812     0.010061474
      4779.29       1.0585977    0.0099199107
      4784.07       1.0495464    0.0098646777
      4788.85       1.0353433    0.0098795044
      4793.64       1.0249438    0.0097427425
      4798.43       1.0222506    0.0096886685
      4803.23       1.0099591    0.0096361352
      4808.03      0.99871809    0.0095711800
      4812.84      0.98679192    0.0095182091
      4817.66      0.97994781    0.0094668489
      4822.48      0.98015403    0.0094048376
      4827.30      0.96746593    0.0093531331
      4832.12      0.96167920    0.0093031737
      4836.96      0.95359997    0.0091795661
      4841.79      0.94533389    0.0091935699
      4846.63      0.93607544    0.0091449972
      4851.48      0.93224412    0.0090242676
      4856.33      0.93480423    0.0090391048
      4861.19      0.94818856    0.0089191960
      4866.05      0.95263459    0.0088743225
      4870.92      0.96746777    0.0088310541
      4875.79      0.97688289    0.0087728475
      4880.66      0.98637464    0.0087296032
      4885.55       1.0022687    0.0086879135
      4890.43       1.0129173    0.0086315345
      4895.32       1.0264945    0.0085899131
      4900.22       1.0342683    0.0084785284
      4905.12       1.0497548    0.0084953193
      4910.02       1.0576100    0.0084556615
      4914.94       1.0634948    0.0083464407
      4919.85       1.0653362    0.0083644112
      4924.77       1.0655628    0.0082585419
      4929.70       1.0670437    0.0082193012
      4934.62       1.0665702    0.0082383743
      4939.56       1.0625861    0.0081344471
      4944.50       1.0676675    0.0080971881
      4949.44       1.0736722    0.0080522022
      4954.39       1.0853133    0.0080152291
      4959.35       1.0880415    0.0079727892
      4964.31       1.0970030    0.0079361213
      4969.27       1.1009479    0.0079011925
      4974.24       1.1107975    0.0078593641
      4979.22       1.1228410    0.0078248394
      4984.20       1.1280303    0.0077319412
      4989.18       1.1340126    0.0077509605
      4994.17       1.1345821    0.0076590868
      4999.16       1.1370515    0.0076794475
      5004.16       1.1289932    0.0075886498
      5009.17       1.1277444    0.0075592433
      5014.18       1.1184408    0.0075205814
      5019.19       1.1045016    0.0074917145
      5024.21       1.0893744    0.0074549588
      5029.23       1.0722464    0.0074265579
      5034.26       1.0540889    0.0073412978
      5039.30       1.0333072    0.0073635407
      5044.34       1.0136448    0.0072802152
      5049.39      0.99552206    0.0073026106
      5054.43      0.97718774    0.0072774783
      5059.49      0.95918032    0.0072439260
      5064.55      0.95159274    0.0071640964
      5069.61      0.94546172    0.0071382842
      5074.68      0.94016040    0.0071091308
      5079.76      0.93838268    0.0070839383
      5084.84      0.93810731    0.0070561388
      5089.92      0.93997709    0.0070317720
      5095.01      0.95027038    0.0070050860
      5100.11      0.95569159    0.0069815169
      5105.21      0.97058255    0.0069558723
      5110.31      0.97554849    0.0069330964
      5115.42      0.98932229    0.0069085363
      5120.54       1.0045720    0.0068866468
      5125.66       1.0147446    0.0068630656
      5130.79       1.0213530    0.0068421575
      5135.92       1.0325954    0.0067736751
      5141.05       1.0412058    0.0067499122
      5146.20       1.0475840    0.0067325412
      5151.34       1.0484012    0.0067095606
      5156.49       1.0547199    0.0066932427
      5161.65       1.0629453    0.0066711617
      5166.81       1.0676576    0.0066558261
      5171.98       1.0766857    0.0066345976
      5177.15       1.0828492    0.0065703956
      5182.33       1.0910497    0.0065998150
      5187.51       1.0967384    0.0065812638
      5192.70       1.1048170    0.0065670023
      5197.89       1.1126555    0.0065490600
      5203.09       1.1194158    0.0064883465
      5208.29       1.1226606    0.0065187366
      5213.50       1.1304268    0.0064586407
      5218.72       1.1429144    0.0064902899
      5223.93       1.1463553    0.0064308429
      5229.16       1.1498857    0.0064174646
      5234.39       1.1552400    0.0064047680
      5239.62       1.1479490    0.0063918507
      5244.86       1.1450288    0.0063806078
      5250.11       1.1437015    0.0063681416
      5255.36       1.1484876    0.0063571714
      5260.61       1.1487554    0.0063462002
      5265.87       1.1518714    0.0063356369
      5271.14       1.1616359    0.0062825277
      5276.41       1.1661688    0.0063159067
      5281.69       1.1765085    0.0063071194
      5286.97       1.1805411    0.0062548347
      5292.26       1.1936899    0.0062895652
      5297.55       1.2049240    0.0062392560
      5302.85       1.2138479    0.0062310737
      5308.15       1.2203352    0.0062256170
      5313.46       1.2310878    0.0062176344
      5318.77       1.2432529    0.0062108841
      5324.09       1.2464105    0.0062061787
      5329.42       1.2444738    0.0061996702
      5334.75       1.2435029    0.0061943618
      5340.08       1.2459987    0.0061904510
      5345.42       1.2458153    0.0061852247
      5350.77       1.2473707    0.0061387713
      5356.12       1.2427554    0.0061358070
      5361.48       1.2348467    0.0061742873
      5366.83       1.2182255    0.0061289369
      5372.20       1.2074819    0.0061270959
      5377.58       1.1972111    0.0061667406
      5382.95       1.1903763    0.0061223847
      5388.34       1.1729223    0.0061215807
      5393.72       1.1679200    0.0061217269
      5399.12       1.1512963    0.0061190460
      5404.52       1.1316275    0.0061191500
      5409.92       1.1156579    0.0061202659
      5415.33       1.1060533    0.0060791940
      5420.75       1.0935649    0.0061199379
      5426.17       1.0815598    0.0061218164
      5431.60       1.0739571    0.0060823204
      5437.03       1.0707778    0.0060842185
      5442.47       1.0753729    0.0061264570
      5447.91       1.0752596    0.0060887311
      5453.36       1.0838600    0.0060913485
      5458.81       1.0948542    0.0060947565
      5464.27       1.0958857    0.0060989322
      5469.73       1.1084830    0.0061015774
      5475.20       1.1315593    0.0061056411
      5480.68       1.1589937    0.0061104242
      5486.16       1.1871359    0.0060738111
      5491.65       1.2170006    0.0060798192
      5497.14       1.2464517    0.0061249723
      5502.64       1.2693617    0.0061309927
      5508.14       1.2874050    0.0060952944
      5513.65       1.3057917    0.0061024297
      5519.16       1.3212094    0.0061101891
      5524.68       1.3324156    0.0061564790
      5530.20       1.3379333    0.0061214812
      5535.73       1.3424808    0.0061296296
      5541.27       1.3345278    0.0061383161
      5546.81       1.3267238    0.0061475285
      5552.36       1.3105089    0.0061142833
      5557.91       1.2926191    0.0061612436
      5563.47       1.2657926    0.0061707999
      5569.04       1.2297310    0.0061808662
      5574.60       1.1988554    0.0061914234
      5580.18       1.1725140    0.0061594248
      5585.76       1.1525300    0.0061697580
      5591.35       1.1337579    0.0061805355
      5596.94       1.1113095    0.0062298598
      5602.53       1.0909137    0.0062000934
      5608.14       1.0679012    0.0062111718
      5613.75       1.0443351    0.0062226380
      5619.36       1.0287689    0.0062344093
      5624.98       1.0150471    0.0062465697
      5630.60       1.0125445    0.0062590871
      5636.23      0.99930932    0.0062290827
      5641.87      0.99218253    0.0062422262
      5647.51      0.98093257    0.0062556227
      5653.16      0.96772769    0.0063074633
      5658.82      0.95400623    0.0063209283
      5664.47      0.93267385    0.0063347022
      5670.14      0.91267089    0.0063051471
      5675.81      0.88956242    0.0063193401
      5681.48      0.86582085    0.0063338418
      5687.17      0.84491439    0.0063485986
      5692.85      0.82557038    0.0063635439
      5698.55      0.79969858    0.0063787714
      5704.25      0.77528446    0.0063942054
      5709.95      0.76184987    0.0063662852
      5715.66      0.75189799    0.0063816598
      5721.38      0.74279789    0.0063971867
      5727.10      0.74106870    0.0064129509
      5732.83      0.73342713    0.0064289351
      5738.56      0.73543708    0.0064450450
      5744.30      0.73267995    0.0064613842
      5750.04      0.73481450    0.0064779025
      5755.79      0.74217388    0.0064946054
      5761.55      0.74821847    0.0065114822
      5767.31      0.75445912    0.0064846425
      5773.08      0.76222574    0.0065023756
      5778.85      0.77511131    0.0065203732
      5784.63      0.78903443    0.0065382345
      5790.41      0.80462214    0.0065562553
      5796.21      0.81646337    0.0065748476
      5802.00      0.83449291    0.0065949611
      5807.81      0.84952120    0.0066172631
      5813.61      0.86601744    0.0066409265
      5819.43      0.88678062    0.0066648191
      5825.25      0.91327079    0.0066893633
      5831.07      0.94275557    0.0067150484
      5836.90      0.95926423    0.0067403282
      5842.74      0.98347251    0.0067633197
      5848.58       1.0081190    0.0067846909
      5854.43       1.0281151    0.0068050645
      5860.29       1.0503985    0.0068244183
      5866.15       1.0725236    0.0068427008
      5872.01       1.0873386    0.0068600990
      5877.89       1.0961353    0.0068774766
      5883.76       1.1150908    0.0068955952
      5889.65       1.1180304    0.0069139318
      5895.54       1.1288275    0.0069314219
      5901.43       1.1350448    0.0069078479
      5907.34       1.1361011    0.0069235658
      5913.24       1.1293536    0.0069389535
      5919.16       1.1200427    0.0069545499
      5925.08       1.1125605    0.0069696808
      5931.00       1.1035940    0.0069836948
      5936.93       1.1028084    0.0069983648
      5942.87       1.1009304    0.0070146799
      5948.81       1.0954098    0.0070315539
      5954.76       1.0994465    0.0070073456
      5960.72       1.0943631    0.0070228554
      5966.68       1.0927003    0.0070396261
      5972.64       1.0914896    0.0070571855
      5978.62       1.0851539    0.0070751459
      5984.60       1.0786938    0.0070933828
      5990.58       1.0664126    0.0071119827
      5996.57       1.0631938    0.0071309395
      6002.57       1.0446475    0.0071100914
      6008.57       1.0441459    0.0071290797
      6014.58       1.0386142    0.0071482181
      6020.60       1.0291603    0.0072135157
      6026.62       1.0136125    0.0072323751
      6032.65       1.0064511    0.0072512449
      6038.68      0.99833996    0.0072295768
      6044.72      0.98931176    0.0072485032
      6050.76      0.98349801    0.0072674358
      6056.81      0.97349211    0.0072865004
      6062.87      0.96787728    0.0073055906
      6068.93      0.96193355    0.0072824858
      6075.00      0.95596825    0.0073007596
      6081.08      0.95307152    0.0073664349
      6087.16      0.94841729    0.0073850307
      6093.25      0.94309435    0.0074036762
      6099.34      0.94312949    0.0073802072
      6105.44      0.94480100    0.0073979552
      6111.54      0.95026516    0.0074157774
      6117.66      0.95031448    0.0074337925
      6123.78      0.95421984    0.0074585207
      6129.90      0.95933417    0.0074755605
      6136.03      0.96316911    0.0074927408
      6142.17      0.96876100    0.0075100978
      6148.31      0.98003481    0.0074866041
      6154.46      0.98914432    0.0075052753
      6160.61      0.99871332    0.0075726562
      6166.77       1.0157976    0.0075921811
      6172.94       1.0273423    0.0075668451
      6179.11       1.0470647    0.0075849485
      6185.29       1.0644920    0.0076073565
      6191.48       1.0878310    0.0076403466
      6197.67       1.1155776    0.0076700415
      6203.87       1.1393160    0.0077026989
      6210.07       1.1685783    0.0077369030
      6216.28       1.1994152    0.0077284300
      6222.50       1.2287411    0.0078088076
      6228.72       1.2545149    0.0078355000
      6234.95       1.2724224    0.0078122661
      6241.19       1.2899186    0.0078262636
      6247.42       1.3121401    0.0078841078
      6253.67       1.3353633    0.0078417177
      6259.93       1.3523196    0.0078413000
      6266.19       1.3660149    0.0078408568
      6272.46       1.3720859    0.0078464215
      6278.73       1.3740086    0.0078528480
      6285.01       1.3757995    0.0078601678
      6291.29       1.3697056    0.0078212145
      6297.58       1.3640495    0.0078735692
      6303.88       1.3527987    0.0078808215
      6310.19       1.3436140    0.0078454051
      6316.50       1.3317777    0.0079005761
      6322.81       1.3132508    0.0078652753
      6329.14       1.2961350    0.0078742652
      6335.47       1.2768726    0.0078842225
      6341.80       1.2500215    0.0078966043
      6348.14       1.2268521    0.0079069376
      6354.49       1.2059606    0.0078738475
      6360.85       1.1854990    0.0079314313
      6367.21       1.1701024    0.0079420506
      6373.57       1.1517488    0.0079087760
      6379.95       1.1346313    0.0079681905
      6386.33       1.1146015    0.0079387228
      6392.72       1.0939836    0.0079533228
      6399.11       1.0803405    0.0080175724
      6405.51       1.0708980    0.0079878738
      6411.92       1.0596039    0.0080003042
      6418.32       1.0475189    0.0080175738
      6424.74       1.0394533    0.0080278608
      6431.17       1.0375558    0.0079938831
      6437.60       1.0427536    0.0080473480
      6444.04       1.0483856    0.0080080457
      6450.48       1.0552166    0.0080578585
      6456.94       1.0608826    0.0080159835
      6463.39       1.0648932    0.0080190773
      6469.85       1.0795385    0.0080241225
      6476.33       1.0906346    0.0080280242
      6482.80       1.0931899    0.0080779539
      6489.28       1.0986064    0.0080354413
      6495.77       1.1069549    0.0080372510
      6502.27       1.1077287    0.0080372229
      6508.77       1.1036595    0.0080374086
      6515.28       1.1029454    0.0080380963
      6521.80       1.0998913    0.0079935282
      6528.32       1.0966496    0.0079905710
      6534.85       1.0872427    0.0079894750
      6541.38       1.0811234    0.0079869053
      6547.92       1.0755994    0.0079876630
      6554.47       1.0726127    0.0079858950
      6561.03       1.0662142    0.0079867539
      6567.59       1.0592319    0.0079846453
      6574.16       1.0485242    0.0079850232
      6580.73       1.0343215    0.0079821048
      6587.31       1.0201864    0.0079812158
      6593.90       1.0089226    0.0079774674
      6600.50      0.99266890    0.0079315317
      6607.10      0.97188232    0.0079277770
      6613.70      0.95532369    0.0079246095
      6620.32      0.93906044    0.0079196520
      6626.94      0.92160102    0.0079156870
      6633.57      0.90899412    0.0079093295
      6640.20      0.89910542    0.0078598854
      6646.84      0.88099622    0.0078969508
      6653.49      0.87321301    0.0078462118
      6660.14      0.86860955    0.0078824045
      6666.80      0.86234078    0.0078733612
      6673.47      0.85590769    0.0078217273
      6680.14      0.85459500    0.0078551988
      6686.82      0.84512796    0.0078021135
      6693.51      0.84279179    0.0077919544
      6700.20      0.83463548    0.0077804175
      6706.90      0.82271286    0.0077685702
      6713.61      0.81450763    0.0077564357
      6720.32      0.80769225    0.0077428621
      6727.05      0.79670689    0.0076883522
      6733.77      0.78303153    0.0077196483
      6740.51      0.77174966    0.0077274126
      6747.25      0.76485542    0.0077015009
      6754.00      0.75586839    0.0077208755
      6760.75      0.74457092    0.0076598121
      6767.51      0.73652124    0.0076713307
      6774.28      0.72478799    0.0077500477
      6781.05      0.71982522    0.0077715957
      6787.84      0.71527674    0.0078635637
      6794.62      0.70482878    0.0079215854
      6801.42      0.70068368    0.0080575661
      6808.22      0.69717273    0.0081528576
      6815.03      0.69467288    0.0081648030
      6821.85      0.69681801    0.0082351679
      6828.67      0.69236302    0.0081654141
      6835.50      0.69286126    0.0080985335
      6842.33      0.69493092    0.0079923498
      6849.17      0.69119668    0.0078887226
      6856.02      0.69117054    0.0077562134
      6862.88      0.68598226    0.0076375936
      6869.74      0.68576610    0.0075169416
      6876.61      0.68691734    0.0074904051
      6883.49      0.68524825    0.0073990569
      6890.37      0.68459835    0.0072849479
      6897.27      0.68621880    0.0072199664
      6904.16      0.68240044    0.0071603368
      6911.07      0.68195260    0.0071142404
      6917.98      0.68149554    0.0070608004
      6924.89      0.67833269    0.0070128302
      6931.82      0.68269435    0.0069690147
      6938.75      0.68725010    0.0069352463
      6945.69      0.69999035    0.0068929761
      6952.64      0.70667547    0.0068486600
      6959.59      0.71620428    0.0067695679
      6966.55      0.72688573    0.0067193344
      6973.52      0.73761849    0.0066369407
      6980.49      0.74906629    0.0065158357
      6987.47      0.75821690    0.0063983901
      6994.46      0.76902403    0.0062845335
      7001.46      0.77300575    0.0062075199
      7008.46      0.77911659    0.0060733365
      7015.46      0.78374368    0.0059662189
      7022.48      0.78700938    0.0058952691
      7029.51      0.78776527    0.0058002323
      7036.53      0.78540353    0.0057073058
      7043.57      0.78037634    0.0056139724
      7050.62      0.77213057    0.0055489617
      7057.66      0.76413464    0.0054579904
      7064.72      0.75633886    0.0053738085
      7071.79      0.75122858    0.0053060759
      7078.86      0.75006279    0.0052357254
      7085.94      0.74472497    0.0052064623
      7093.03      0.74211340    0.0051504326
      7100.12      0.74518336    0.0050872009
      7107.22      0.75359292    0.0050194810
      7114.33      0.75304502    0.0049490927
      7121.44      0.75106873    0.0048726098
      7128.56      0.75653738    0.0048151825
      7135.69      0.76231998    0.0047305540
      7142.83      0.76868549    0.0046420773
      7149.97      0.77886137    0.0045489031
      7157.12      0.78457669    0.0044513193
      7164.28      0.79435203    0.0043523850
      7171.44      0.80234776    0.0042444259
      7178.62      0.81206500    0.0041447207
      7185.80      0.82457946    0.0040646556
      7192.98      0.83519445    0.0039626918
      7200.17      0.84710683    0.0038631446
      7207.38      0.85622236    0.0037650001
      7214.58      0.86631278    0.0036676637
      7221.80      0.87822281    0.0035707981
      7229.02      0.90107304    0.0034747827
      7236.25      0.91956931    0.0033993847
      7243.49      0.93010339    0.0034188731
      7250.73      0.94084301    0.0034462951
      7257.98      0.95092198    0.0034837806
      7265.24      0.96179084    0.0035342908
      7272.51      0.97172402    0.0036027676
      7279.78      0.98177414    0.0036970335
      7287.06      0.99200397    0.0038286150
      7294.35       1.0010697    0.0040104302
      7301.64       1.0078042    0.0042559259
      7308.94       1.0142585    0.0045804605
      7316.25       1.0213215    0.0050028805
      7323.57       1.0260990    0.0055525938
      7330.89       1.0264894    0.0062592711
      7338.22       1.0245363    0.0071624821
      7345.56       1.0193328    0.0083014621
      7352.91       1.0162498    0.0097244756
