# starting wavelength =        4969.0100
# ending wavelength =        9391.1200
# O2 telluric scale =        0
# O2 telluric shift =        0
# H2O telluric scale =        0
# H2O telluric shift =        0
      4969.27      0.62876763     0.023890376
      4974.24      0.63305562     0.020020843
      4979.22      0.63398600     0.017035025
      4984.20      0.63034857     0.015343481
      4989.18      0.62508967     0.013404231
      4994.17      0.61998999     0.011540662
      4999.16      0.61656010     0.010445876
      5004.16      0.61464669    0.0095972046
      5009.17      0.61218079    0.0091030631
      5014.18      0.60801596    0.0085459609
      5019.19      0.60396379    0.0080383736
      5024.21      0.60053716    0.0077059149
      5029.23      0.59918413    0.0075169320
      5034.26      0.59823990    0.0072737930
      5039.30      0.59750312    0.0070647620
      5044.34      0.59933504    0.0069203266
      5049.39      0.60094955    0.0067648552
      5054.43      0.60213459    0.0066865770
      5059.49      0.60442163    0.0065558281
      5064.55      0.60570545    0.0065164493
      5069.61      0.60573465    0.0065389928
      5074.68      0.60896976    0.0064987111
      5079.76      0.61714522    0.0065196457
      5084.84      0.62758154    0.0064804674
      5089.92      0.63973956    0.0064419596
      5095.01      0.65054971    0.0064652447
      5100.11      0.66892213    0.0064257692
      5105.21      0.68541831    0.0063869443
      5110.31      0.69841333    0.0064098186
      5115.42      0.71386568    0.0063720467
      5120.54      0.72633990    0.0063965317
      5125.66      0.74046434    0.0063576997
      5130.79      0.75173151    0.0063195758
      5135.92      0.76180630    0.0063440996
      5141.05      0.77212686    0.0063069319
      5146.20      0.78375393    0.0063330086
      5151.34      0.79542884    0.0062947131
      5156.49      0.80787803    0.0062571109
      5161.65      0.82150264    0.0062832263
      5166.81      0.83409026    0.0062466605
      5171.98      0.84456544    0.0062106602
      5177.15      0.85396879    0.0062369945
      5182.33      0.86074646    0.0061998258
      5187.51      0.86946635    0.0062276274
      5192.70      0.87896098    0.0061913855
      5197.89      0.88666780    0.0061558695
      5203.09      0.89409361    0.0061847968
      5208.29      0.90147568    0.0061481162
      5213.50      0.90959291    0.0061119505
      5218.72      0.91896443    0.0061417740
      5223.93      0.92889080    0.0061065196
      5229.16      0.94007200    0.0060719069
      5234.39      0.95330955    0.0061024182
      5239.62      0.96640022    0.0060665778
      5244.86      0.97713680    0.0060981306
      5250.11      0.99165300    0.0060631410
      5255.36       1.0076346    0.0060286775
      5260.61       1.0172455    0.0060634869
      5265.87       1.0276094    0.0060277124
      5271.14       1.0377823    0.0059925967
      5276.41       1.0444856    0.0060261648
      5281.69       1.0502377    0.0059917787
      5286.97       1.0566673    0.0059580438
      5292.26       1.0624677    0.0059963182
      5297.55       1.0658227    0.0059611724
      5302.85       1.0652055    0.0059266727
      5308.15       1.0666491    0.0059622958
      5313.46       1.0649868    0.0059285419
      5318.77       1.0620369    0.0059550525
      5324.09       1.0606531    0.0059947720
      5329.42       1.0554053    0.0059619649
      5334.75       1.0502833    0.0059297365
      5340.08       1.0466199    0.0059707711
      5345.42       1.0455526    0.0059371065
      5350.77       1.0443608    0.0059039213
      5356.12       1.0439071    0.0059460302
      5361.48       1.0454797    0.0059134842
      5366.83       1.0494677    0.0058815748
      5372.20       1.0555224    0.0059297508
      5377.58       1.0659319    0.0058961867
      5382.95       1.0767291    0.0059325534
      5388.34       1.0905160    0.0059790273
      5393.72       1.1050783    0.0059462657
      5399.12       1.1241934    0.0059141235
      5404.52       1.1439534    0.0059637489
      5409.92       1.1655677    0.0059321831
      5415.33       1.1846060    0.0059012035
      5420.75       1.2091205    0.0058706278
      5426.17       1.2322853    0.0058404879
      5431.60       1.2511325    0.0058108431
      5437.03       1.2681472    0.0057088720
      5442.47       1.2818671    0.0056785017
      5447.91       1.2913188    0.0057262990
      5453.36       1.2984319    0.0056964705
      5458.81       1.3022198    0.0056669722
      5464.27       1.2974532    0.0056380740
      5469.73       1.2910921    0.0056095045
      5475.20       1.2811971    0.0055812611
      5480.68       1.2704039    0.0055534746
      5486.16       1.2536482    0.0055259946
      5491.65       1.2380992    0.0054322624
      5497.14       1.2189997    0.0054044241
      5502.64       1.2008985    0.0053768960
      5508.14       1.1835729    0.0053496817
      5513.65       1.1672695    0.0053230260
      5519.16       1.1510975    0.0052966676
      5524.68       1.1410006    0.0052707341
      5530.20       1.1319213    0.0052450567
      5535.73       1.1243282    0.0052196750
      5541.27       1.1214172    0.0051946584
      5546.81       1.1196090    0.0052406017
      5552.36       1.1198901    0.0052158521
      5557.91       1.1212924    0.0051323148
      5563.47       1.1256102    0.0051074753
      5569.04       1.1306266    0.0050829055
      5574.60       1.1370660    0.0050588267
      5580.18       1.1450279    0.0050349978
      5585.76       1.1528415    0.0050114031
      5591.35       1.1559665    0.0049881833
      5596.94       1.1602535    0.0049652610
      5602.53       1.1615610    0.0049426851
      5608.14       1.1612751    0.0049203386
      5613.75       1.1630168    0.0048982282
      5619.36       1.1597613    0.0048764678
      5624.98       1.1522246    0.0048549757
      5630.60       1.1435538    0.0048338281
      5636.23       1.1309614    0.0048128820
      5641.87       1.1143176    0.0047921603
      5647.51       1.0927661    0.0047717567
      5653.16       1.0643462    0.0046937281
      5658.82       1.0302982    0.0046741264
      5664.47      0.99444612    0.0046546604
      5670.14      0.95517831    0.0046354668
      5675.81      0.91296149    0.0046166053
      5681.48      0.87094838    0.0045978661
      5687.17      0.83277197    0.0045794921
      5692.85      0.79578952    0.0045612287
      5698.55      0.76061297    0.0045433137
      5704.25      0.73093145    0.0045255610
      5709.95      0.70732147    0.0045080722
      5715.66      0.69235813    0.0044908822
      5721.38      0.68749495    0.0044738679
      5727.10      0.68351969    0.0044573873
      5732.83      0.68439969    0.0044413536
      5738.56      0.69259251    0.0044256517
      5744.30      0.70463675    0.0044100267
      5750.04      0.71855339    0.0043946371
      5755.79      0.73131854    0.0043800450
      5761.55      0.74495222    0.0043666814
      5767.31      0.76331663    0.0043015239
      5773.08      0.78534623    0.0042906220
      5778.85      0.80666958    0.0042799305
      5784.63      0.83194352    0.0042701022
      5790.41      0.85930567    0.0042608378
      5796.21      0.88810741    0.0042506186
      5802.00      0.91554989    0.0042391460
      5807.81      0.94406317    0.0042271372
      5813.61      0.97421931    0.0042149596
      5819.43       1.0054284    0.0042023430
      5825.25       1.0388528    0.0041892292
      5831.07       1.0722822    0.0041759897
      5836.90       1.1019575    0.0041631050
      5842.74       1.1289389    0.0041508132
      5848.58       1.1588760    0.0041386611
      5854.43       1.1831681    0.0041262111
      5860.29       1.2032671    0.0041136778
      5866.15       1.2199068    0.0040466331
      5872.01       1.2327081    0.0040335138
      5877.89       1.2437085    0.0040207396
      5883.76       1.2489063    0.0040556325
      5889.65       1.2519978    0.0040425358
      5895.54       1.2537869    0.0040305031
      5901.43       1.2514261    0.0040193493
      5907.34       1.2452701    0.0040081841
      5913.24       1.2357296    0.0039970238
      5919.16       1.2231125    0.0039866860
      5925.08       1.2096954    0.0039771813
      5931.00       1.1964450    0.0039682360
      5936.93       1.1843613    0.0039108685
      5942.87       1.1735113    0.0039020640
      5948.81       1.1653754    0.0038936804
      5954.76       1.1583140    0.0038856284
      5960.72       1.1519585    0.0038778945
      5966.68       1.1422999    0.0038704198
      5972.64       1.1349590    0.0038633209
      5978.62       1.1266737    0.0038565750
      5984.60       1.1171412    0.0038974870
      5990.58       1.1094453    0.0038460940
      5996.57       1.0980139    0.0038391836
      6002.57       1.0876946    0.0038325779
      6008.57       1.0737934    0.0038263386
      6014.58       1.0585330    0.0038203899
      6020.60       1.0426531    0.0038147797
      6026.62       1.0261537    0.0038094631
      6032.65       1.0094213    0.0038044766
      6038.68      0.99406182    0.0037564787
      6044.72      0.98342631    0.0037523618
      6050.76      0.97691739    0.0037485392
      6056.81      0.97487082    0.0037888209
      6062.87      0.97650901    0.0037843413
      6068.93      0.98080066    0.0037801731
      6075.00      0.98900162    0.0037764348
      6081.08       1.0025877    0.0037303213
      6087.16       1.0185856    0.0037273427
      6093.25       1.0349755    0.0037248464
      6099.34       1.0532560    0.0037226605
      6105.44       1.0717488    0.0037211197
      6111.54       1.0882186    0.0037623627
      6117.66       1.0998738    0.0037205347
      6123.78       1.1095414    0.0037185644
      6129.90       1.1171776    0.0037167010
      6136.03       1.1201744    0.0037170535
      6142.17       1.1219703    0.0037198442
      6148.31       1.1217337    0.0037247549
      6154.46       1.1183302    0.0036898065
      6160.61       1.1150534    0.0037426629
      6166.77       1.1123283    0.0037504088
      6172.94       1.1112070    0.0037578974
      6179.11       1.1110519    0.0037644535
      6185.29       1.1140161    0.0037261663
      6191.48       1.1173610    0.0037264324
      6197.67       1.1217310    0.0037247033
      6203.87       1.1273066    0.0037660131
      6210.07       1.1329550    0.0037607526
      6216.28       1.1399031    0.0037551637
      6222.50       1.1505741    0.0037056822
      6228.72       1.1562695    0.0037020955
      6234.95       1.1621370    0.0037008222
      6241.19       1.1684177    0.0037430528
      6247.42       1.1728996    0.0037413662
      6253.67       1.1794942    0.0036992252
      6259.93       1.1878520    0.0036982576
      6266.19       1.1935330    0.0036980665
      6272.46       1.1987901    0.0036986013
      6278.73       1.2021398    0.0037053984
      6285.01       1.2093354    0.0037057321
      6291.29       1.2164930    0.0037069091
      6297.58       1.2215983    0.0037089970
      6303.88       1.2229019    0.0037119323
      6310.19       1.2237981    0.0036772971
      6316.50       1.2233643    0.0037243062
      6322.81       1.2208964    0.0037275233
      6329.14       1.2151698    0.0037317190
      6335.47       1.2094306    0.0036989175
      6341.80       1.2072323    0.0037061233
      6348.14       1.1978836    0.0037579759
      6354.49       1.1929600    0.0037649825
      6360.85       1.1904360    0.0037332510
      6367.21       1.1889442    0.0037407269
      6373.57       1.1888644    0.0037487315
      6379.95       1.1872884    0.0037990387
      6386.33       1.1847010    0.0037654467
      6392.72       1.1852442    0.0037709088
      6399.11       1.1869110    0.0037765100
      6405.51       1.1923489    0.0038243158
      6411.92       1.1937986    0.0037891522
      6418.32       1.1946491    0.0037945486
      6424.74       1.1968269    0.0038010421
      6431.17       1.2008561    0.0037668273
      6437.60       1.1994655    0.0038174857
      6444.04       1.1995320    0.0038234232
      6450.48       1.1969472    0.0038298335
      6456.94       1.1963957    0.0037940679
      6463.39       1.1973918    0.0038451109
      6469.85       1.1949201    0.0038518864
      6476.33       1.1927913    0.0038182102
      6482.80       1.1907076    0.0038229627
      6489.28       1.1882689    0.0038747737
      6495.77       1.1844803    0.0038823037
      6502.27       1.1784277    0.0038496230
      6508.77       1.1739849    0.0038567946
      6515.28       1.1700034    0.0039115690
      6521.80       1.1669072    0.0038807131
      6528.32       1.1618462    0.0038880907
      6534.85       1.1565575    0.0038963288
      6541.38       1.1563745    0.0039138017
      6547.92       1.1555024    0.0039212250
      6554.47       1.1536760    0.0039294660
      6561.03       1.1515847    0.0039486885
      6567.59       1.1509021    0.0039561312
      6574.16       1.1478017    0.0039645556
      6580.73       1.1453148    0.0039740405
      6587.31       1.1404292    0.0039925646
      6593.90       1.1353727    0.0040011284
      6600.50       1.1294801    0.0040107126
      6607.10       1.1216435    0.0040302703
      6613.70       1.1150390    0.0040389436
      6620.32       1.1045652    0.0040099417
      6626.94       1.0939195    0.0040207889
      6633.57       1.0848076    0.0040779940
      6640.20       1.0739516    0.0040489383
      6646.84       1.0621976    0.0040600944
      6653.49       1.0502749    0.0041182988
      6660.14       1.0383283    0.0040891765
      6666.80       1.0301075    0.0041007015
      6673.47       1.0207374    0.0041598440
      6680.14       1.0119682    0.0041317888
      6686.82       1.0025721    0.0041490555
      6693.51      0.99265367    0.0041748529
      6700.20      0.98038244    0.0042030045
      6706.90      0.97112502    0.0042103416
      6713.61      0.96149511    0.0041869693
      6720.32      0.95198266    0.0042711255
      6727.05      0.94279641    0.0043156338
      6733.77      0.93308140    0.0043449338
      6740.51      0.92404684    0.0044693016
      6747.25      0.91419974    0.0045426922
      6754.00      0.90507274    0.0045857924
      6760.75      0.89774328    0.0047178724
      6767.51      0.88990129    0.0047277636
      6774.28      0.88269446    0.0048233084
      6781.05      0.87589657    0.0048341449
      6787.84      0.86614777    0.0047636423
      6794.62      0.86104693    0.0047892955
      6801.42      0.85623424    0.0046931235
      6808.22      0.84951208    0.0046586497
      6815.03      0.84141850    0.0046853161
      6821.85      0.83638793    0.0046267877
      6828.67      0.83166519    0.0046189395
      6835.50      0.83089371    0.0045987752
      6842.33      0.82889703    0.0045910719
      6849.17      0.82602118    0.0045982369
      6856.02      0.82595964    0.0045968313
      6862.88      0.82638406    0.0045991288
      6869.74      0.82801134    0.0046130960
      6876.61      0.83050719    0.0046212149
      6883.49      0.83425028    0.0045907556
      6890.37      0.84116795    0.0046565872
      6897.27      0.84880396    0.0046265066
      6904.16      0.85867694    0.0046924870
      6911.07      0.86739168    0.0047022909
      6917.98      0.87738654    0.0046690992
      6924.89      0.88921230    0.0047287307
      6931.82      0.89769173    0.0046953609
      6938.75      0.90396403    0.0047592504
      6945.69      0.91008873    0.0047259662
      6952.64      0.91316573    0.0047382427
      6959.59      0.91268695    0.0047569747
      6966.55      0.91249747    0.0047699955
      6973.52      0.90910662    0.0047919450
      6980.49      0.90760689    0.0048071649
      6987.47      0.90294223    0.0048776857
      6994.46      0.89736995    0.0048550793
      7001.46      0.89260656    0.0048762951
      7008.46      0.88548726    0.0049080130
      7015.46      0.88062062    0.0049335095
      7022.48      0.87750855    0.0049807856
      7029.51      0.87359250    0.0050208989
      7036.53      0.87334834    0.0050989639
      7043.57      0.87464351    0.0051606042
      7050.62      0.87463519    0.0051910726
      7057.66      0.87760290    0.0053193175
      7064.72      0.88065871    0.0053245752
      7071.79      0.88478908    0.0054340481
      7078.86      0.89007214    0.0054115979
      7085.94      0.89382716    0.0054989640
      7093.03      0.90218502    0.0054563340
      7100.12      0.91327530    0.0055238536
      7107.22      0.92565622    0.0054752886
      7114.33      0.94000011    0.0055467452
      7121.44      0.95299877    0.0055142565
      7128.56      0.96756577    0.0055360108
      7135.69      0.98298178    0.0055733360
      7142.83      0.99561763    0.0055924392
      7149.97       1.0103776    0.0056158123
      7157.12       1.0228910    0.0055673951
      7164.28       1.0305729    0.0056196773
      7171.44       1.0377753    0.0055634428
      7178.62       1.0451951    0.0056184451
      7185.80       1.0501965    0.0055635242
      7192.98       1.0547249    0.0056135669
      7200.17       1.0545181    0.0055511437
      7207.38       1.0570137    0.0055955980
      7214.58       1.0624340    0.0055370480
      7221.80       1.0668527    0.0055880999
      7229.02       1.0714564    0.0055368179
      7236.25       1.0793323    0.0055417474
      7243.49       1.0883543    0.0055485320
      7250.73       1.1016741    0.0055623521
      7257.98       1.1107623    0.0055732339
      7265.24       1.1216519    0.0055886165
      7272.51       1.1297810    0.0055992324
      7279.78       1.1406203    0.0056136993
      7287.06       1.1470019    0.0055732212
      7294.35       1.1496420    0.0056437926
      7301.64       1.1489368    0.0056654334
      7308.94       1.1457148    0.0056793932
      7316.25       1.1375857    0.0057023391
      7323.57       1.1268660    0.0057177143
      7330.89       1.1119077    0.0057412855
      7338.22       1.1029148    0.0057062636
      7345.56       1.0964363    0.0057833753
      7352.91       1.0871277    0.0057475692
      7360.26       1.0745863    0.0058267032
      7367.62       1.0632426    0.0057904364
      7374.99       1.0593136    0.0058192857
      7382.37       1.0549295    0.0058982507
      7389.75       1.0468875    0.0058669455
      7397.14       1.0379455    0.0059287791
      7404.53       1.0289713    0.0059854933
      7411.94       1.0230055    0.0060758192
      7419.35       1.0140233    0.0060903216
      7426.77       1.0018047    0.0061119344
      7434.20      0.98659689    0.0062508882
      7441.63      0.96989201    0.0063943793
      7449.07      0.94682228    0.0067273326
      7456.52      0.91975147    0.0069981345
      7463.98      0.89167084    0.0075171493
      7471.45      0.86703371    0.0078825511
      7478.92      0.84197027    0.0085065933
      7486.40      0.80351112    0.0090744437
      7493.88      0.75895667    0.0092665585
      7501.38      0.71537572    0.0095876677
      7508.88      0.67574213    0.0093957761
      7516.39      0.64470442    0.0090973200
      7523.91      0.62132817    0.0087811918
      7531.43      0.60567274    0.0082799055
      7538.96      0.59776241    0.0077823467
      7546.50      0.59601850    0.0075092253
      7554.05      0.60249380    0.0071969427
      7561.60      0.61457067    0.0069405830
      7569.16      0.62595017    0.0068101609
      7576.73      0.64529769    0.0067005883
      7584.31      0.67158628    0.0066437110
      7591.89      0.69692638    0.0066100060
      7599.49      0.72390861    0.0065707101
      7607.09      0.74913752    0.0065513378
      7614.70      0.77891714    0.0064924109
      7622.31      0.81132635    0.0065516073
      7629.93      0.84400331    0.0065026804
      7637.56      0.87415805    0.0065222085
      7645.20      0.90155981    0.0066001857
      7652.85      0.93213622    0.0065567515
      7660.50      0.96713813    0.0065829031
      7668.16       1.0002869    0.0066664235
      7675.83       1.0302615    0.0066237633
      7683.50       1.0581856    0.0066510372
      7691.19       1.0881916    0.0066798750
      7698.88       1.1149784    0.0066930214
      7706.58       1.1429409    0.0067205000
      7714.29       1.1641442    0.0067502933
      7722.00       1.1849546    0.0067112647
      7729.73       1.2044759    0.0067964954
      7737.45       1.2193607    0.0068291393
      7745.19       1.2323936    0.0067928376
      7752.94       1.2405487    0.0068813830
      7760.69       1.2483545    0.0069146614
      7768.45       1.2541055    0.0069452696
      7776.22       1.2544013    0.0069016287
      7784.00       1.2518262    0.0069852360
      7791.78       1.2482327    0.0070115262
      7799.57       1.2427231    0.0069681048
      7807.37       1.2349311    0.0069917240
      7815.18       1.2216584    0.0070160455
      7822.99       1.2118156    0.0070319094
      7830.82       1.2019241    0.0070562103
      7838.65       1.1935043    0.0070828269
      7846.49       1.1842450    0.0071099090
      7854.34       1.1731875    0.0071268389
      7862.19       1.1599765    0.0071522843
      7870.05       1.1519969    0.0071774217
      7877.93       1.1448983    0.0071305080
      7885.80       1.1393072    0.0071533193
      7893.69       1.1298945    0.0072369547
      7901.58       1.1179384    0.0072598693
      7909.49       1.1057399    0.0072109600
      7917.40       1.0989256    0.0072336549
      7925.31       1.0908090    0.0073197329
      7933.24       1.0796653    0.0073467562
      7941.17       1.0640664    0.0073043965
      7949.11       1.0430337    0.0073432634
      7957.06       1.0236284    0.0073897623
      7965.02       1.0050010    0.0074449527
      7972.98      0.98703356    0.0074832369
      7980.96      0.96616374    0.0075618260
      7988.94      0.93941284    0.0076541976
      7996.93      0.91374340    0.0077543509
      8004.93      0.88783139    0.0078633323
      8012.93      0.86592041    0.0078814750
      8020.95      0.84470433    0.0080362697
      8028.97      0.81828576    0.0080996603
      8036.99      0.79020307    0.0081355387
      8045.03      0.76368072    0.0080850028
      8053.08      0.74011480    0.0081072068
      8061.13      0.71785063    0.0081209749
      8069.20      0.69649216    0.0081934063
      8077.26      0.66939842    0.0081929673
      8085.34      0.64047005    0.0081175017
      8093.43      0.61404543    0.0081120216
      8101.52      0.58689896    0.0081147688
      8109.62      0.56053697    0.0081203367
      8117.73      0.53207384    0.0081185620
      8125.85      0.50252392    0.0081851254
      8133.98      0.47512353    0.0081080713
      8142.11      0.45081323    0.0080973701
      8150.25      0.42870702    0.0080858348
      8158.41      0.40542043    0.0080861317
      8166.56      0.38232916    0.0081037507
      8174.73      0.35849363    0.0080377229
      8182.91      0.33362862    0.0080186518
      8191.09      0.31562061    0.0079898156
      8199.28      0.30064578    0.0080432803
      8207.48      0.29042102    0.0080245317
      8215.69      0.28193400    0.0080113056
      8223.91      0.27890804    0.0080023475
      8232.13      0.27561397    0.0079221964
      8240.36      0.27827547    0.0079128177
      8248.60      0.28766208    0.0079079104
      8256.85      0.29905406    0.0079086671
      8265.11      0.31553409    0.0079131989
      8273.37      0.33516023    0.0079169820
      8281.65      0.35986053    0.0079223340
      8289.93      0.38862478    0.0078571388
      8298.22      0.41925187    0.0078647691
      8306.52      0.44524330    0.0079378675
      8314.83      0.46666589    0.0079478681
      8323.14      0.48549395    0.0079591934
      8331.46      0.50123577    0.0079710277
      8339.80      0.51882133    0.0079836790
      8348.13      0.53814165    0.0079974922
      8356.48      0.55253301    0.0080113864
      8364.84      0.57073616    0.0079535946
      8373.21      0.58737314    0.0079658907
      8381.58      0.61049028    0.0079777836
      8389.96      0.64065072    0.0079882952
      8398.35      0.68101352    0.0079978389
      8406.75      0.72606888    0.0080067505
      8415.16      0.77495204    0.0080150395
      8423.57      0.83258520    0.0080231617
      8432.00      0.90267834    0.0080316682
      8440.43      0.98611223    0.0080402987
      8448.87       1.0682470    0.0080480483
      8457.32       1.1484050    0.0080554237
      8465.78       1.2254192    0.0079923773
      8474.25       1.3042471    0.0080011269
      8482.72       1.3895649    0.0080107774
      8491.20       1.4754225    0.0080201341
      8499.69       1.5563837    0.0080289535
      8508.19       1.6273228    0.0080376897
      8516.70       1.6968089    0.0080460626
      8525.22       1.7730293    0.0080536871
      8533.75       1.8462737    0.0080606395
      8542.28       1.9188563    0.0080668987
      8550.82       1.9819108    0.0080725541
      8559.37       2.0362872    0.0080775045
      8567.93       2.0835272    0.0080820433
      8576.50       2.1306093    0.0080865146
      8585.08       2.1713799    0.0080910320
      8593.66       2.2021892    0.0080958553
      8602.26       2.2184656    0.0081010301
      8610.86       2.2239648    0.0081056230
      8619.47       2.2291163    0.0081101130
      8628.09       2.2262616    0.0081150890
      8636.72       2.2130287    0.0081198606
      8645.36       2.1884494    0.0081240936
      8654.00       2.1508066    0.0081281244
      8662.66       2.1016116    0.0080673360
      8671.32       2.0629751    0.0080707261
      8679.99       2.0307446    0.0080740106
      8688.67       1.9956505    0.0080774239
      8697.36       1.9507185    0.0080814678
      8706.06       1.8975320    0.0080857339
      8714.76       1.8399475    0.0080908172
      8723.48       1.7896052    0.0080995814
      8732.21       1.7384789    0.0081115958
      8740.93       1.6825332    0.0081245247
      8749.68       1.6118971    0.0081407693
      8758.43       1.5351559    0.0081705762
      8767.19       1.4564040    0.0081507854
      8775.96       1.3903840    0.0082022480
      8784.73       1.3243911    0.0082737801
      8793.52       1.2485467    0.0083628089
      8802.31       1.1665444    0.0084626894
      8811.11       1.0879808    0.0085716195
      8819.92       1.0246477    0.0086837315
      8828.75      0.97813985    0.0087866245
      8837.57      0.94956888    0.0088687574
      8846.41      0.92358013    0.0089270984
      8855.26      0.89711998    0.0089179745
      8864.12      0.88103404    0.0088798293
      8872.98      0.87244597    0.0088260831
      8881.85      0.87155341    0.0087700300
      8890.73      0.87281899    0.0087304181
      8899.63      0.87059501    0.0087119263
      8908.52      0.86265143    0.0086372647
      8917.43      0.85400439    0.0086458289
      8926.35      0.84866627    0.0086753982
      8935.28      0.84018422    0.0087088660
      8944.22      0.83260203    0.0088212118
      8953.16      0.81563650    0.0086974282
      8962.11      0.80036360    0.0087055799
      8971.08      0.78990396    0.0085679718
      8980.05      0.78551310    0.0084854955
      8989.03      0.78395665    0.0083326645
      8998.02      0.78733162    0.0082305397
      9007.02      0.79379549    0.0080644066
      9016.02      0.80184568    0.0080173466
      9025.04      0.81029933    0.0078625490
      9034.07      0.81556561    0.0077665131
      9043.10      0.81600143    0.0076284194
      9052.14      0.82198293    0.0075389864
      9061.20      0.83067599    0.0074323804
      9070.26      0.83854936    0.0073862857
      9079.33      0.84291103    0.0073354487
      9088.41      0.84675092    0.0072687093
      9097.50      0.85100170    0.0072975849
      9106.60      0.85402743    0.0073246895
      9115.70      0.85813886    0.0074563325
      9124.82      0.86385919    0.0075741551
      9133.94      0.87094925    0.0077869746
      9143.08      0.87548497    0.0079465665
      9152.22      0.87614485    0.0081985867
      9161.37      0.88102241    0.0083248107
      9170.54      0.88357004    0.0085215533
      9179.71      0.89288292    0.0085816900
      9188.89      0.90484526    0.0086897233
      9198.08      0.91925156    0.0086929619
      9207.28      0.93231498    0.0087390035
      9216.48      0.94058003    0.0086688385
      9225.70      0.94686943    0.0086501381
      9234.92      0.94647393    0.0085376646
      9244.16      0.94837173    0.0085515058
      9253.40      0.94886469    0.0086354076
      9262.66      0.94994637    0.0087760990
      9271.92      0.94797245    0.0089009254
      9281.20      0.94365974    0.0090507365
      9290.48      0.93540414    0.0093069488
      9299.77      0.92345601    0.0095989658
      9309.07      0.91010351    0.0099388140
      9318.38      0.89830807     0.010495318
      9327.69      0.88619377     0.011457430
      9337.02      0.86786674     0.012616278
      9346.36      0.84479905     0.013898633
      9355.71      0.81926524     0.015801824
      9365.07      0.79127078     0.018658925
      9374.43      0.76174675     0.021611040
      9383.80      0.72933223     0.024502403
